#Wave		#Intensity
2001.221680	40209.503906
2000.251953	40352.375000
1999.282227	40500.707031
1998.312500	40162.894531
1997.342773	40045.652344
1996.372070	40306.671875
1995.402344	40522.519531
1994.431641	40540.484375
1993.460938	40270.542969
1992.490234	40210.945313
1991.518555	40506.738281
1990.547852	40251.949219
1989.576172	40254.925781
1988.604492	40628.089844
1987.632813	40338.398438
1986.661133	40601.394531
1985.689453	40611.804688
1984.716797	40467.234375
1983.745117	40587.617188
1982.772461	40485.578125
1981.799805	40493.496094
1980.827148	41025.937500
1979.853516	40579.238281
1978.880859	40779.390625
1977.907227	40602.503906
1976.933594	40515.535156
1975.959961	40628.246094
1974.986328	40633.621094
1974.011719	40524.234375
1973.038086	40991.066406
1972.063477	40642.242188
1971.088867	40949.308594
1970.114258	40550.750000
1969.138672	40822.828125
1968.164063	40456.828125
1967.188477	40963.035156
1966.212891	40958.363281
1965.237305	40794.281250
1964.261719	40714.929688
1963.286133	40924.433594
1962.309570	40932.210938
1961.333984	40678.636719
1960.357422	41166.757813
1959.380859	40557.414063
1958.404297	40838.898438
1957.426758	41182.468750
1956.450195	40943.984375
1955.472656	40742.878906
1954.495117	41506.410156
1953.517578	40738.562500
1952.540039	41203.613281
1951.561523	41258.519531
1950.583008	41074.917969
1949.605469	41281.339844
1948.626953	41291.496094
1947.647461	41003.695313
1946.668945	41021.343750
1945.690430	41527.957031
1944.710938	41128.585938
1943.731445	41272.742188
1942.751953	41151.398438
1941.772461	41059.863281
1940.791992	41424.664063
1939.812500	40911.593750
1938.832031	40998.632813
1937.851563	41321.113281
1936.871094	41370.875000
1935.890625	40927.542969
1934.909180	41086.355469
1933.928711	40970.179688
1932.947266	41119.019531
1931.965820	40948.398438
1930.984375	40998.164063
1930.002930	41614.722656
1929.020508	40815.519531
1928.038086	41409.621094
1927.056641	41459.265625
1926.074219	41251.652344
1925.090820	41175.183594
1924.108398	41276.757813
1923.125000	41136.031250
1922.142578	41188.144531
1921.159180	41121.613281
1920.175781	40909.328125
1919.191406	41277.660156
1918.208008	40820.890625
1917.223633	41364.437500
1916.240234	41199.167969
1915.255859	41191.945313
1914.271484	41224.214844
1913.286133	41024.500000
1912.301758	41266.507813
1911.316406	41614.507813
1910.331055	41313.699219
1909.345703	41202.878906
1908.360352	40774.035156
1907.375000	41121.871094
1906.388672	41420.289063
1905.402344	41169.054688
1904.416016	41063.277344
1903.429688	41085.636719
1902.443359	41258.230469
1901.457031	41408.597656
1900.469727	41339.777344
1899.482422	41248.828125
1898.495117	41133.292969
1897.507813	41241.734375
1896.520508	41554.355469
1895.532227	41470.804688
1894.543945	40875.687500
1893.556641	41193.121094
1892.568359	41606.332031
1891.579102	41434.324219
1890.590820	41392.640625
1889.601563	41213.355469
1888.613281	41181.550781
1887.624023	41378.214844
1886.634766	41483.929688
1885.644531	41459.457031
1884.655273	41962.875000
1883.665039	41388.437500
1882.674805	41705.152344
1881.684570	41849.972656
1880.694336	41830.355469
1879.704102	41533.542969
1878.712891	41285.886719
1877.722656	41680.804688
1876.731445	41511.664063
1875.740234	41896.589844
1874.748047	42077.953125
1873.756836	41700.535156
1872.764648	41489.851563
1871.773438	41666.285156
1870.781250	41438.531250
1869.788086	41573.281250
1868.795898	41392.140625
1867.803711	41372.628906
1866.810547	41693.324219
1865.817383	41649.289063
1864.824219	41663.988281
1863.831055	41722.714844
1862.837891	41756.957031
1861.843750	41505.082031
1860.849609	42324.171875
1859.855469	41703.160156
1858.861328	41903.574219
1857.867188	42150.347656
1856.872070	41668.953125
1855.877930	41795.976563
1854.882813	42081.710938
1853.887695	42394.203125
1852.892578	42171.894531
1851.896484	42008.250000
1850.901367	42161.941406
1849.905273	42034.957031
1848.909180	42239.824219
1847.913086	42088.472656
1846.916992	42376.175781
1845.919922	41910.285156
1844.923828	42609.949219
1843.926758	42363.562500
1842.929688	42721.687500
1841.932617	42373.023438
1840.935547	42450.839844
1839.937500	42835.550781
1838.939453	43008.238281
1837.942383	42477.128906
1836.943359	42240.800781
1835.945313	42189.546875
1834.947266	42824.636719
1833.948242	42225.796875
1832.949219	42556.539063
1831.951172	42612.289063
1830.951172	42451.566406
1829.952148	43069.023438
1828.953125	42772.125000
1827.953125	42796.191406
1826.953125	42684.152344
1825.953125	42873.457031
1824.953125	42861.046875
1823.952148	42933.656250
1822.952148	42838.664063
1821.951172	43069.082031
1820.950195	42826.000000
1819.949219	43034.492188
1818.948242	43361.824219
1817.946289	43162.492188
1816.945313	43234.949219
1815.943359	43086.640625
1814.941406	42421.816406
1813.939453	43323.636719
1812.936523	43223.875000
1811.934570	43225.953125
1810.931641	43235.300781
1809.928711	43053.218750
1808.925781	43435.675781
1807.921875	43277.839844
1806.918945	43689.183594
1805.915039	43499.878906
1804.912109	43465.578125
1803.908203	43787.105469
1802.903320	44048.015625
1801.899414	43430.492188
1800.894531	43640.566406
1799.890625	43686.082031
1798.885742	44033.882813
1797.880859	44108.324219
1796.875000	44044.941406
1795.870117	43819.636719
1794.864258	43840.906250
1793.858398	44101.375000
1792.852539	44267.535156
1791.846680	44052.000000
1790.840820	44394.398438
1789.833984	44306.886719
1788.828125	44098.695313
1787.821289	44382.972656
1786.814453	44568.203125
1785.806641	44495.191406
1784.799805	44455.976563
1783.791992	44534.960938
1782.784180	44331.765625
1781.776367	44376.984375
1780.768555	44716.292969
1779.760742	44411.933594
1778.751953	44748.703125
1777.743164	44589.007813
1776.735352	44802.765625
1775.725586	44997.175781
1774.716797	44943.476563
1773.708008	45000.546875
1772.698242	45093.707031
1771.688477	45078.523438
1770.678711	45561.480469
1769.668945	45221.398438
1768.659180	45206.195313
1767.648438	44914.398438
1766.637695	45409.058594
1765.626953	45468.359375
1764.616211	45491.578125
1763.605469	45541.222656
1762.593750	45545.191406
1761.583008	45431.429688
1760.571289	45966.300781
1759.559570	46095.078125
1758.547852	46127.757813
1757.535156	45889.113281
1756.523438	46241.082031
1755.510742	45959.296875
1754.498047	46555.890625
1753.485352	46209.367188
1752.472656	46692.953125
1751.458984	46835.796875
1750.445313	46594.914063
1749.432617	46524.339844
1748.417969	46393.863281
1747.404297	47071.113281
1746.390625	47019.656250
1745.375977	47174.257813
1744.361328	47304.851563
1743.346680	47270.140625
1742.332031	47245.015625
1741.317383	47126.527344
1740.302734	47594.546875
1739.287109	48060.000000
1738.271484	47977.320313
1737.255859	47842.031250
1736.240234	48070.378906
1735.223633	48554.546875
1734.208008	49198.750000
1733.191406	48864.898438
1732.174805	49606.820313
1731.158203	49614.769531
1730.140625	49699.179688
1729.124023	50223.148438
1728.106445	50457.898438
1727.088867	51089.015625
1726.071289	51111.011719
1725.053711	51121.062500
1724.035156	51914.031250
1723.017578	51520.605469
1721.999023	52368.101563
1720.980469	52203.757813
1719.961914	52127.726563
1718.942383	52080.339844
1717.923828	52409.703125
1716.904297	52891.527344
1715.884766	52674.789063
1714.865234	52441.441406
1713.844727	52522.695313
1712.825195	52937.445313
1711.804688	52851.843750
1710.784180	53006.804688
1709.763672	52904.550781
1708.743164	52447.621094
1707.722656	53209.515625
1706.701172	52757.445313
1705.679688	52667.199219
1704.658203	52607.906250
1703.636719	52767.457031
1702.615234	52613.042969
1701.592773	52311.261719
1700.571289	52408.968750
1699.548828	52737.187500
1698.526367	52226.414063
1697.502930	52471.386719
1696.480469	51975.093750
1695.457031	52350.652344
1694.433594	52158.515625
1693.410156	52329.714844
1692.386719	51900.257813
1691.363281	52387.109375
1690.338867	52434.769531
1689.314453	52173.972656
1688.290039	52392.449219
1687.265625	52561.039063
1686.241211	52535.117188
1685.215820	52383.542969
1684.191406	52362.398438
1683.166016	52924.300781
1682.140625	52829.601563
1681.115234	52813.121094
1680.088867	53313.050781
1679.062500	52900.957031
1678.037109	53360.433594
1677.010742	53038.445313
1675.983398	52754.441406
1674.957031	53677.570313
1673.930664	53741.398438
1672.903320	53575.710938
1671.875977	53984.890625
1670.848633	53625.277344
1669.820313	53341.460938
1668.792969	53608.601563
1667.764648	53639.269531
1666.736328	53910.988281
1665.708008	54444.894531
1664.679688	54043.042969
1663.651367	53986.203125
1662.622070	54028.574219
1661.592773	54684.859375
1660.563477	54516.968750
1659.534180	54261.796875
1658.504883	55085.246094
1657.474609	55587.492188
1656.444336	55176.558594
1655.415039	55183.265625
1654.383789	55345.621094
1653.353516	55505.554688
1652.323242	55382.531250
1651.291992	56122.246094
1650.260742	55445.335938
1649.229492	56323.785156
1648.198242	56766.093750
1647.166016	56704.187500
1646.134766	57108.585938
1645.102539	57176.136719
1644.070313	57022.367188
1643.038086	57466.500000
1642.004883	57677.496094
1640.972656	57260.187500
1639.939453	57581.707031
1638.906250	57623.214844
1637.873047	57775.230469
1636.839844	58105.882813
1635.805664	58455.222656
1634.772461	58672.816406
1633.738281	59000.777344
1632.704102	58849.308594
1631.668945	59029.117188
1630.634766	59760.812500
1629.599609	59400.285156
1628.565430	59828.769531
1627.530273	60066.957031
1626.494141	60321.484375
1625.458984	60491.441406
1624.422852	61121.195313
1623.387695	62107.281250
1622.351563	61765.527344
1621.315430	62812.113281
1620.278320	63501.949219
1619.242188	64482.210938
1618.205078	66001.171875
1617.167969	67493.820313
1616.130859	68796.156250
1615.093750	71203.664063
1614.055664	72792.945313
1613.018555	74412.093750
1611.980469	75646.703125
1610.942383	76031.171875
1609.904297	76904.632813
1608.865234	76682.679688
1607.827148	75038.359375
1606.788086	74363.023438
1605.749023	72920.828125
1604.709961	71086.312500
1603.669922	69472.203125
1602.630859	68167.218750
1601.590820	66853.343750
1600.550781	65860.046875
1599.510742	65119.417969
1598.470703	64019.335938
1597.429688	63550.191406
1596.389648	63193.292969
1595.348633	63044.292969
1594.307617	62612.914063
1593.265625	61871.304688
1592.224609	61752.941406
1591.182617	61751.265625
1590.140625	61749.589844
1589.098633	61589.328125
1588.056641	61485.082031
1587.014648	61471.789063
1585.971680	61171.808594
1584.928711	61118.953125
1583.886719	60923.988281
1582.842773	61542.101563
1581.799805	61000.082031
1580.755859	60760.988281
1579.712891	61006.265625
1578.668945	61093.152344
1577.625000	61047.343750
1576.580078	61292.429688
1575.536133	61756.128906
1574.491211	61652.062500
1573.446289	61617.804688
1572.401367	61988.175781
1571.356445	62825.734375
1570.311523	62217.105469
1569.265625	63012.484375
1568.219727	62313.414063
1567.173828	61486.804688
1566.127930	61733.671875
1565.082031	61471.824219
1564.035156	61135.757813
1562.988281	60711.585938
1561.941406	60315.421875
1560.894531	60729.363281
1559.847656	60720.839844
1558.799805	60642.718750
1557.751953	60450.960938
1556.704102	60866.894531
1555.656250	60167.351563
1554.608398	60627.230469
1553.560547	60537.593750
1552.511719	60246.359375
1551.462891	60342.183594
1550.414063	60908.261719
1549.365234	60387.800781
1548.315430	60571.542969
1547.265625	60435.687500
1546.216797	60633.242188
1545.166992	60316.878906
1544.116211	60678.687500
1543.066406	60883.027344
1542.015625	60504.316406
1540.965820	60664.664063
1539.915039	60720.886719
1538.863281	60356.273438
1537.812500	60477.253906
1536.760742	60168.281250
1535.709961	60139.039063
1534.658203	59740.121094
1533.605469	59477.644531
1532.553711	59074.363281
1531.501953	59142.316406
1530.449219	59000.136719
1529.396484	58128.539063
1528.343750	59025.195313
1527.290039	58728.496094
1526.237305	57942.777344
1525.183594	57904.730469
1524.129883	58182.667969
1523.076172	58020.066406
1522.022461	57746.855469
1520.968750	57072.644531
1519.914063	57366.656250
1518.859375	57363.304688
1517.804688	57429.070313
1516.750000	56863.652344
1515.694336	56715.292969
1514.639648	56576.195313
1513.583984	56860.753906
1512.528320	56641.109375
1511.472656	56541.218750
1510.416016	56142.226563
1509.360352	56622.203125
1508.303711	56662.667969
1507.247070	56461.644531
1506.190430	56320.468750
1505.132813	55912.667969
1504.076172	56058.957031
1503.018555	55855.875000
1501.960938	55758.558594
1500.903320	55778.437500
1499.844727	56124.464844
1498.787109	55942.175781
1497.728516	56001.035156
1496.669922	55873.925781
1495.611328	55567.828125
1494.552734	55466.082031
1493.493164	55715.414063
1492.434570	55487.500000
1491.375000	55631.226563
1490.315430	55247.468750
1489.254883	55414.113281
1488.195313	55209.328125
1487.134766	55472.175781
1486.074219	55705.136719
1485.013672	55454.585938
1483.953125	55602.703125
1482.892578	54747.609375
1481.831055	55033.191406
1480.769531	55682.699219
1479.708008	55620.066406
1478.646484	55486.503906
1477.583984	55364.429688
1476.522461	55432.289063
1475.459961	55296.539063
1474.397461	54922.984375
1473.334961	55187.527344
1472.271484	55291.941406
1471.208984	54911.722656
1470.145508	55180.687500
1469.082031	55070.250000
1468.018555	55462.453125
1466.954102	55029.933594
1465.890625	55115.980469
1464.826172	55231.671875
1463.761719	54984.335938
1462.697266	55485.753906
1461.631836	55421.023438
1460.567383	56052.234375
1459.501953	55316.726563
1458.436523	55790.343750
1457.371094	55518.074219
1456.305664	56315.250000
1455.239258	55794.496094
1454.172852	55586.187500
1453.107422	55753.953125
1452.040039	55643.691406
1450.973633	56292.046875
1449.907227	56179.445313
1448.839844	56308.265625
1447.772461	56120.562500
1446.705078	55618.785156
1445.637695	56359.867188
1444.569336	56065.296875
1443.500977	56594.437500
1442.432617	56688.910156
1441.364258	56608.218750
1440.295898	56870.921875
1439.227539	56842.515625
1438.158203	57423.308594
1437.088867	57112.992188
1436.019531	57123.179688
1434.950195	57601.371094
1433.879883	57775.007813
1432.810547	57748.726563
1431.740234	57638.437500
1430.669922	57693.914063
1429.598633	58069.414063
1428.528320	57738.984375
1427.457031	57653.726563
1426.386719	58097.085938
1425.314453	57705.578125
1424.243164	58137.421875
1423.171875	57809.535156
1422.099609	57826.339844
1421.027344	57711.679688
1419.955078	57127.957031
1418.882813	56902.433594
1417.810547	57132.324219
1416.737305	57255.679688
1415.664063	57064.218750
1414.590820	57468.289063
1413.517578	57367.398438
1412.444336	57047.003906
1411.370117	57387.488281
1410.295898	57313.812500
1409.221680	56817.144531
1408.147461	57198.195313
1407.073242	56717.550781
1405.998047	57512.214844
1404.922852	57639.753906
1403.847656	57369.468750
1402.772461	57268.753906
1401.697266	57387.222656
1400.621094	57878.355469
1399.544922	57359.785156
1398.468750	57457.843750
1397.392578	57284.945313
1396.316406	57360.406250
1395.239258	58501.050781
1394.162109	57779.746094
1393.084961	58051.339844
1392.007813	58616.058594
1390.930664	58882.886719
1389.852539	59316.472656
1388.774414	59100.636719
1387.696289	59364.972656
1386.618164	59588.648438
1385.540039	60352.996094
1384.460938	60290.308594
1383.382813	60698.378906
1382.303711	61052.253906
1381.223633	61232.632813
1380.144531	61597.535156
1379.064453	61379.367188
1377.985352	61161.273438
1376.905273	62041.210938
1375.825195	61528.386719
1374.744141	61242.906250
1373.664063	60973.265625
1372.583008	60847.609375
1371.501953	60692.773438
1370.420898	60418.871094
1369.338867	60073.164063
1368.257813	59612.996094
1367.175781	59063.144531
1366.093750	59371.402344
1365.011719	59109.203125
1363.929688	59208.546875
1362.846680	58787.097656
1361.763672	58617.152344
1360.680664	58422.582031
1359.597656	58611.707031
1358.514648	58549.539063
1357.430664	58592.796875
1356.346680	57499.238281
1355.262695	57910.320313
1354.178711	57736.246094
1353.094727	57073.695313
1352.009766	57634.746094
1350.925781	57868.519531
1349.840820	57300.371094
1348.755859	56871.261719
1347.669922	57040.113281
1346.584961	57014.144531
1345.499023	57218.710938
1344.413086	56695.933594
1343.327148	56665.558594
1342.240234	56650.851563
1341.154297	56806.125000
1340.067383	56972.519531
1338.980469	56915.281250
1337.893555	57153.121094
1336.805664	56724.863281
1335.718750	56330.277344
1334.630859	57039.488281
1333.542969	57190.011719
1332.455078	56793.316406
1331.367188	57269.828125
1330.278320	56708.050781
1329.189453	57235.738281
1328.100586	57212.003906
1327.011719	56768.792969
1325.922852	56836.613281
1324.833008	57131.917969
1323.743164	57293.308594
1322.653320	57300.789063
1321.563477	57816.539063
1320.473633	57509.644531
1319.382813	57352.167969
1318.291992	57406.410156
1317.201172	57253.460938
1316.110352	57920.195313
1315.019531	58027.746094
1313.927734	57986.082031
1312.835938	58084.671875
1311.744141	58570.484375
1310.652344	58526.511719
1309.560547	58175.523438
1308.467773	58623.234375
1307.375000	58408.015625
1306.282227	58404.121094
1305.189453	57991.144531
1304.095703	58154.031250
1303.002930	58132.394531
1301.909180	58884.035156
1300.815430	58784.511719
1299.721680	58509.546875
1298.626953	58809.871094
1297.533203	58690.425781
1296.438477	58813.003906
1295.343750	58991.023438
1294.248047	58833.875000
1293.153320	59542.121094
1292.057617	59336.121094
1290.961914	59112.445313
1289.866211	59780.332031
1288.770508	59678.601563
1287.674805	59417.292969
1286.578125	60038.207031
1285.481445	59819.027344
1284.384766	59819.269531
1283.288086	59540.394531
1282.190430	59556.187500
1281.092773	59323.957031
1279.996094	58989.960938
1278.897461	59187.351563
1277.799805	58798.171875
1276.702148	58495.425781
1275.603516	58821.109375
1274.504883	58741.878906
1273.406250	58264.582031
1272.307617	58415.441406
1271.208008	58150.609375
1270.108398	57578.628906
1269.008789	57749.410156
1267.909180	57829.531250
1266.809570	57432.437500
1265.708984	57455.156250
1264.609375	57091.394531
1263.508789	56968.437500
1262.407227	57022.125000
1261.306641	56409.218750
1260.206055	56469.605469
1259.104492	56730.750000
1258.002930	55886.593750
1256.901367	56154.363281
1255.798828	56130.945313
1254.697266	56067.843750
1253.594727	55947.453125
1252.492188	55875.589844
1251.389648	55349.812500
1250.286133	55454.332031
1249.183594	55572.031250
1248.080078	55409.980469
1246.976563	54741.527344
1245.872070	54980.371094
1244.768555	55003.410156
1243.664063	54804.156250
1242.560547	54354.128906
1241.455078	54834.859375
1240.350586	54670.933594
1239.246094	54766.570313
1238.140625	54220.117188
1237.035156	54271.828125
1235.929688	54250.980469
1234.824219	54115.867188
1233.717773	53903.894531
1232.612305	54201.656250
1231.505859	53930.437500
1230.399414	54397.175781
1229.291992	53935.000000
1228.185547	53677.140625
1227.078125	53134.050781
1225.970703	53363.589844
1224.863281	53318.789063
1223.755859	53249.871094
1222.647461	53540.664063
1221.539063	53210.785156
1220.430664	53122.187500
1219.322266	53125.683594
1218.213867	53219.031250
1217.104492	52966.132813
1215.995117	53140.531250
1214.885742	52684.023438
1213.776367	52994.191406
1212.666992	53098.414063
1211.556641	53316.441406
1210.446289	53118.503906
1209.335938	52975.351563
1208.225586	52908.828125
1207.115234	53286.417969
1206.003906	52874.273438
1204.892578	53240.792969
1203.781250	53010.277344
1202.669922	53352.585938
1201.557617	53100.273438
1200.446289	53403.101563
1199.333984	53417.417969
1198.221680	53490.707031
1197.108398	53684.089844
1195.996094	54283.562500
1194.882813	53939.644531
1193.769531	54056.433594
1192.656250	54214.644531
1191.542969	54119.675781
1190.428711	54402.167969
1189.314453	54003.996094
1188.200195	53771.714844
1187.085938	54359.378906
1185.971680	53959.246094
1184.856445	54145.589844
1183.741211	54018.050781
1182.625977	53925.414063
1181.510742	53715.171875
1180.395508	54158.433594
1179.279297	54453.449219
1178.163086	54121.289063
1177.046875	53959.046875
1175.930664	54195.160156
1174.813477	53852.343750
1173.697266	53892.570313
1172.580078	53843.597656
1171.462891	53472.746094
1170.344727	53463.003906
