#Wave		#Intensity
2001.182617	36349.218750
2000.212891	36329.167969
1999.243164	36342.871094
1998.273438	36256.347656
1997.303711	36224.968750
1996.333008	36293.785156
1995.363281	35926.828125
1994.392578	36729.304688
1993.421875	36392.437500
1992.451172	36663.917969
1991.479492	36544.898438
1990.508789	36295.812500
1989.537109	36499.613281
1988.566406	36575.781250
1987.594727	35996.707031
1986.622070	36407.980469
1985.650391	36841.609375
1984.677734	36350.269531
1983.706055	35924.078125
1982.733398	36360.058594
1981.760742	36393.675781
1980.788086	36574.648438
1979.814453	36123.738281
1978.841797	36219.796875
1977.868164	36423.167969
1976.894531	36454.242188
1975.920898	36659.996094
1974.947266	36601.191406
1973.972656	36704.562500
1972.999023	36830.339844
1972.024414	36397.457031
1971.049805	37066.804688
1970.075195	37277.210938
1969.099609	36911.773438
1968.125000	36875.414063
1967.149414	36617.308594
1966.173828	37031.921875
1965.198242	36751.460938
1964.222656	36762.464844
1963.247070	36850.652344
1962.270508	37043.367188
1961.294922	36491.789063
1960.318359	37097.601563
1959.341797	36715.402344
1958.364258	36629.371094
1957.387695	36899.054688
1956.410156	36907.519531
1955.433594	36948.304688
1954.456055	36772.792969
1953.478516	36992.542969
1952.500000	37199.792969
1951.522461	36897.605469
1950.543945	36988.035156
1949.565430	36926.917969
1948.586914	36888.171875
1947.608398	36608.589844
1946.629883	37416.445313
1945.650391	36846.464844
1944.671875	36954.171875
1943.692383	37041.988281
1942.712891	36901.542969
1941.733398	37155.515625
1940.752930	36953.097656
1939.773438	37192.097656
1938.792969	37297.140625
1937.812500	37372.406250
1936.832031	37130.433594
1935.851563	37136.320313
1934.870117	37211.566406
1933.888672	36972.222656
1932.908203	37136.621094
1931.926758	37330.675781
1930.945313	37455.339844
1929.962891	36921.574219
1928.981445	36922.531250
1927.999023	36965.546875
1927.016602	37260.878906
1926.034180	36984.750000
1925.051758	37440.714844
1924.069336	37236.351563
1923.085938	37365.789063
1922.102539	37223.300781
1921.119141	37582.519531
1920.135742	37711.828125
1919.152344	37258.082031
1918.168945	37614.628906
1917.184570	37425.292969
1916.200195	37403.917969
1915.215820	37143.093750
1914.231445	37511.746094
1913.247070	37635.960938
1912.261719	37626.894531
1911.276367	37075.113281
1910.291992	37682.761719
1909.306641	37380.230469
1908.320313	37208.480469
1907.334961	37702.382813
1906.348633	37735.207031
1905.363281	37583.195313
1904.376953	37354.851563
1903.390625	37673.476563
1902.403320	37533.863281
1901.416992	37490.339844
1900.429688	37690.582031
1899.443359	37541.191406
1898.456055	37298.320313
1897.467773	37417.281250
1896.480469	37563.261719
1895.493164	37677.207031
1894.504883	37601.726563
1893.516602	37513.976563
1892.528320	38269.589844
1891.540039	37513.101563
1890.550781	37708.058594
1889.562500	37706.355469
1888.573242	37544.945313
1887.583984	37850.335938
1886.594727	37951.757813
1885.605469	37716.718750
1884.615234	38048.917969
1883.625000	37745.207031
1882.635742	38266.269531
1881.645508	37641.152344
1880.654297	38243.015625
1879.664063	37976.273438
1878.673828	37989.222656
1877.682617	38061.023438
1876.691406	38260.289063
1875.700195	38270.726563
1874.708984	37869.402344
1873.716797	38154.359375
1872.725586	38294.660156
1871.733398	38483.902344
1870.741211	37899.128906
1869.749023	38010.011719
1868.755859	38272.648438
1867.763672	38390.769531
1866.770508	38330.175781
1865.777344	38262.261719
1864.784180	38483.074219
1863.791016	38128.949219
1862.797852	38591.835938
1861.803711	38501.910156
1860.809570	38663.839844
1859.815430	38339.261719
1858.821289	38366.738281
1857.827148	38709.429688
1856.832031	38663.531250
1855.837891	38905.894531
1854.842773	38767.167969
1853.847656	38733.488281
1852.852539	38953.734375
1851.856445	38968.851563
1850.861328	38910.746094
1849.865234	38903.902344
1848.869141	38967.808594
1847.873047	38946.320313
1846.876953	39280.914063
1845.879883	38754.609375
1844.883789	39025.726563
1843.886719	39379.628906
1842.889648	39306.894531
1841.892578	39105.039063
1840.895508	39383.207031
1839.897461	38932.941406
1838.899414	39069.781250
1837.901367	39413.550781
1836.903320	39589.210938
1835.905273	39745.332031
1834.907227	39891.660156
1833.908203	39548.839844
1832.909180	39505.382813
1831.910156	39858.433594
1830.911133	39688.468750
1829.912109	40233.457031
1828.912109	40024.585938
1827.913086	40187.691406
1826.913086	39964.312500
1825.913086	39843.070313
1824.913086	39938.089844
1823.912109	40084.085938
1822.912109	40244.601563
1821.911133	39778.585938
1820.910156	40116.320313
1819.909180	40050.996094
1818.908203	40342.449219
1817.906250	40619.238281
1816.904297	39915.804688
1815.903320	40306.574219
1814.900391	40578.371094
1813.898438	40095.964844
1812.896484	40605.281250
1811.893555	40809.007813
1810.891602	40658.828125
1809.888672	41029.660156
1808.885742	40276.257813
1807.881836	40613.109375
1806.878906	41037.027344
1805.875000	40804.609375
1804.871094	41238.023438
1803.867188	41242.855469
1802.863281	40930.652344
1801.859375	41073.453125
1800.854492	40974.281250
1799.849609	41054.132813
1798.844727	41194.410156
1797.839844	40894.574219
1796.834961	41404.710938
1795.830078	41399.824219
1794.824219	41213.687500
1793.818359	41293.402344
1792.812500	41641.242188
1791.806641	41312.648438
1790.799805	41626.550781
1789.793945	41387.410156
1788.787109	41611.863281
1787.780273	41367.980469
1786.773438	41524.781250
1785.766602	41932.457031
1784.758789	41724.828125
1783.751953	41799.468750
1782.744141	42009.132813
1781.736328	42213.894531
1780.728516	41921.980469
1779.719727	42013.402344
1778.711914	42459.035156
1777.703125	42220.234375
1776.694336	42362.140625
1775.685547	42022.277344
1774.676758	42108.773438
1773.666992	41899.089844
1772.657227	42517.585938
1771.648438	42680.964844
1770.638672	42646.957031
1769.627930	42555.214844
1768.618164	42612.648438
1767.607422	42932.222656
1766.597656	42652.902344
1765.586914	42681.433594
1764.576172	43053.707031
1763.564453	43322.500000
1762.553711	43057.718750
1761.541992	43242.320313
1760.530273	43258.703125
1759.518555	43272.675781
1758.506836	43606.019531
1757.495117	43427.847656
1756.482422	43312.148438
1755.469727	43400.496094
1754.457031	43906.347656
1753.444336	43826.609375
1752.431641	43866.839844
1751.417969	44187.660156
1750.405273	43877.707031
1749.391602	43853.167969
1748.377930	44152.242188
1747.364258	44168.402344
1746.349609	44201.328125
1745.335938	44435.488281
1744.321289	44870.781250
1743.306641	44637.718750
1742.291992	44895.617188
1741.276367	44739.242188
1740.261719	44393.812500
1739.246094	44673.156250
1738.230469	44918.894531
1737.214844	45226.750000
1736.199219	45426.855469
1735.182617	45789.515625
1734.166992	45463.386719
1733.150391	45708.761719
1732.133789	45970.781250
1731.117188	46170.566406
1730.099609	46300.984375
1729.083008	46739.542969
1728.065430	46690.664063
1727.047852	47279.453125
1726.030273	47567.167969
1725.012695	48124.554688
1723.994141	48376.210938
1722.976563	48448.789063
1721.958008	48034.574219
1720.939453	49023.281250
1719.920898	49052.765625
1718.901367	49325.488281
1717.882813	49240.453125
1716.863281	49670.382813
1715.843750	49885.640625
1714.824219	49435.925781
1713.803711	49891.800781
1712.784180	49744.789063
1711.763672	50205.207031
1710.743164	50203.457031
1709.722656	49775.500000
1708.702148	50085.683594
1707.681641	50036.343750
1706.660156	50158.363281
1705.638672	50373.136719
1704.617188	50499.808594
1703.595703	50157.867188
1702.574219	50367.761719
1701.551758	49842.882813
1700.529297	50299.984375
1699.507813	50550.140625
1698.484375	50531.675781
1697.461914	50114.050781
1696.439453	50216.816406
1695.416016	50281.542969
1694.392578	50331.992188
1693.369141	50451.281250
1692.345703	50283.285156
1691.322266	50279.113281
1690.297852	50694.968750
1689.273438	51172.363281
1688.249023	50873.878906
1687.224609	50689.347656
1686.200195	51133.281250
1685.174805	51460.882813
1684.150391	51586.871094
1683.125000	51229.316406
1682.099609	51767.617188
1681.073242	51789.234375
1680.047852	51431.828125
1679.021484	51965.066406
1677.995117	51816.132813
1676.968750	51920.578125
1675.942383	52046.292969
1674.916016	52335.261719
1673.888672	52342.535156
1672.862305	52196.023438
1671.834961	52014.078125
1670.806641	52544.074219
1669.779297	53017.128906
1668.751953	52619.988281
1667.723633	52364.812500
1666.695313	52769.101563
1665.666992	52641.582031
1664.638672	52809.425781
1663.609375	53090.582031
1662.581055	52856.796875
1661.551758	53012.695313
1660.522461	53078.828125
1659.493164	53397.496094
1658.462891	53187.410156
1657.433594	53668.757813
1656.403320	53902.214844
1655.373047	53392.585938
1654.342773	53491.582031
1653.312500	53272.222656
1652.281250	53503.218750
1651.250977	53340.503906
1650.219727	53224.972656
1649.188477	53627.855469
1648.156250	53559.429688
1647.125000	53900.863281
1646.092773	53594.554688
1645.060547	53952.339844
1644.028320	53561.375000
1642.996094	53933.156250
1641.963867	53827.082031
1640.930664	53911.628906
1639.898438	54285.492188
1638.865234	54017.117188
1637.832031	54487.242188
1636.797852	54244.781250
1635.764648	54905.109375
1634.730469	54801.332031
1633.696289	54617.687500
1632.662109	55082.578125
1631.627930	55209.027344
1630.592773	55138.140625
1629.558594	55482.921875
1628.523438	55536.445313
1627.488281	55794.171875
1626.453125	56162.117188
1625.416992	56600.324219
1624.381836	56773.257813
1623.345703	56575.492188
1622.309570	57104.855469
1621.273438	57922.457031
1620.237305	58521.722656
1619.200195	59214.539063
1618.163086	60621.933594
1617.125977	61159.468750
1616.088867	62605.835938
1615.051758	64311.699219
1614.014648	65794.460938
1612.976563	66712.359375
1611.938477	67974.085938
1610.900391	68666.554688
1609.862305	68165.195313
1608.823242	67989.257813
1607.785156	67347.820313
1606.746094	67031.734375
1605.707031	64994.492188
1604.667969	63940.046875
1603.628906	63678.503906
1602.588867	62638.687500
1601.548828	61307.109375
1600.508789	60431.640625
1599.468750	60290.046875
1598.428711	59636.968750
1597.387695	58832.316406
1596.347656	58789.144531
1595.306641	58038.621094
1594.265625	58016.609375
1593.224609	57905.917969
1592.182617	57606.269531
1591.140625	56746.839844
1590.099609	57196.214844
1589.057617	57027.441406
1588.014648	56525.300781
1586.972656	56487.250000
1585.929688	56477.175781
1584.887695	57208.164063
1583.844727	56867.109375
1582.800781	57602.417969
1581.757813	57270.726563
1580.714844	57532.968750
1579.670898	58344.593750
1578.626953	58203.824219
1577.583008	58421.535156
1576.538086	58839.289063
1575.494141	59284.808594
1574.449219	59234.687500
1573.404297	59424.136719
1572.359375	59339.121094
1571.314453	59456.406250
1570.269531	59622.460938
1569.223633	59114.457031
1568.177734	58701.902344
1567.131836	58610.109375
1566.085938	58237.273438
1565.040039	57685.742188
1563.993164	56878.976563
1562.946289	57342.437500
1561.899414	56949.195313
1560.852539	56556.093750
1559.805664	56218.820313
1558.757813	56283.019531
1557.709961	56064.207031
1556.662109	55787.492188
1555.614258	56004.765625
1554.566406	56045.765625
1553.517578	56038.074219
1552.469727	56069.781250
1551.420898	55334.515625
1550.372070	55528.496094
1549.322266	55689.980469
1548.273438	55471.605469
1547.223633	55924.781250
1546.173828	55477.250000
1545.124023	56004.324219
1544.074219	55806.867188
1543.024414	55699.714844
1541.973633	55578.718750
1540.922852	55672.871094
1539.872070	55540.355469
1538.821289	55530.425781
1537.770508	55647.644531
1536.718750	55545.246094
1535.666992	55784.890625
1534.615234	55585.457031
1533.563477	55252.109375
1532.511719	55685.683594
1531.458984	55712.675781
1530.407227	55728.109375
1529.354492	55540.394531
1528.300781	54923.457031
1527.248047	55354.382813
1526.195313	55049.164063
1525.141602	55136.203125
1524.087891	55027.164063
1523.034180	55072.664063
1521.980469	55353.308594
1520.925781	55168.214844
1519.871094	54655.921875
1518.817383	54544.753906
1517.762695	54816.066406
1516.707031	54340.957031
1515.652344	54469.414063
1514.596680	54634.667969
1513.541016	54350.921875
1512.485352	54292.855469
1511.429688	54096.722656
1510.374023	54604.761719
1509.317383	53980.734375
1508.260742	53830.757813
1507.204102	53929.210938
1506.147461	53940.246094
1505.090820	54238.644531
1504.033203	54286.398438
1502.975586	53833.140625
1501.917969	54211.808594
1500.860352	53761.023438
1499.802734	54043.097656
1498.744141	54074.750000
1497.686523	54120.171875
1496.627930	54071.449219
1495.569336	53836.832031
1494.509766	54286.148438
1493.451172	54163.996094
1492.391602	54055.648438
1491.332031	53756.972656
1490.272461	53779.441406
1489.212891	54221.480469
1488.152344	53755.585938
1487.092773	53924.722656
1486.032227	53747.773438
1484.971680	53859.570313
1483.910156	53707.890625
1482.849609	54348.707031
1481.788086	53963.421875
1480.726563	54102.562500
1479.665039	54072.261719
1478.603516	54213.617188
1477.541992	54158.128906
1476.479492	54505.320313
1475.416992	54740.300781
1474.354492	54746.492188
1473.291992	54679.507813
1472.229492	54747.429688
1471.166016	54959.328125
1470.102539	54789.496094
1469.039063	55170.394531
1467.975586	54934.324219
1466.912109	54929.039063
1465.847656	55234.335938
1464.783203	55110.257813
1463.718750	55623.156250
1462.654297	56131.304688
1461.589844	55263.164063
1460.524414	55679.917969
1459.458984	55900.332031
1458.393555	56385.246094
1457.328125	55748.000000
1456.262695	56399.207031
1455.196289	56275.097656
1454.130859	56251.320313
1453.064453	56532.910156
1451.998047	56638.957031
1450.930664	56817.859375
1449.864258	57037.695313
1448.796875	56676.765625
1447.729492	57049.085938
1446.662109	57708.089844
1445.594727	57240.257813
1444.526367	57443.875000
1443.458008	57658.796875
1442.390625	58296.734375
1441.321289	58438.640625
1440.252930	58821.527344
1439.184570	59120.156250
1438.115234	59373.210938
1437.045898	59428.449219
1435.976563	60172.164063
1434.907227	60122.730469
1433.836914	60159.625000
1432.767578	60886.902344
1431.697266	60614.835938
1430.626953	60669.777344
1429.555664	60708.804688
1428.485352	61135.890625
1427.414063	61506.093750
1426.342773	61685.597656
1425.271484	62132.679688
1424.200195	61924.210938
1423.128906	62427.769531
1422.056641	62371.203125
1420.984375	62355.453125
1419.912109	62480.207031
1418.839844	62566.398438
1417.767578	62312.750000
1416.694336	62376.285156
1415.621094	61701.558594
1414.547852	61991.585938
1413.474609	61681.621094
1412.400391	61493.984375
1411.327148	60899.093750
1410.252930	61261.445313
1409.178711	60696.210938
1408.104492	60728.257813
1407.029297	61128.878906
1405.955078	61741.875000
1404.879883	61816.656250
1403.804688	62248.500000
1402.729492	62994.273438
1401.653320	63154.632813
1400.578125	63303.640625
1399.501953	62987.355469
1398.425781	63470.519531
1397.349609	62835.992188
1396.272461	62612.500000
1395.196289	62928.457031
1394.119141	62657.640625
1393.041992	62353.078125
1391.964844	63070.398438
1390.886719	62860.582031
1389.809570	63728.613281
1388.731445	63185.105469
1387.653320	63414.894531
1386.575195	63631.078125
1385.497070	63718.750000
1384.417969	63950.562500
1383.338867	64610.234375
1382.259766	64623.359375
1381.180664	64613.964844
1380.101563	65108.820313
1379.021484	64568.167969
1377.941406	64648.792969
1376.861328	64952.125000
1375.781250	64369.042969
1374.701172	64528.371094
1373.620117	64183.933594
1372.539063	63733.945313
1371.458008	63295.359375
1370.376953	63063.695313
1369.295898	62854.582031
1368.213867	62436.605469
1367.132813	62548.886719
1366.050781	62218.695313
1364.967773	62243.398438
1363.885742	61982.972656
1362.802734	61531.847656
1361.720703	61715.992188
1360.637695	61915.777344
1359.554688	61756.539063
1358.470703	61456.050781
1357.387695	61402.351563
1356.303711	61422.660156
1355.219727	60564.179688
1354.135742	60743.765625
1353.050781	60721.597656
1351.966797	60293.890625
1350.881836	59958.183594
1349.796875	59907.042969
1348.711914	60310.511719
1347.626953	59959.300781
1346.541016	59771.628906
1345.455078	59977.937500
1344.369141	60054.378906
1343.283203	59857.835938
1342.197266	60003.609375
1341.110352	59740.046875
1340.023438	59876.839844
1338.936523	59566.437500
1337.849609	60040.742188
1336.762695	60284.679688
1335.674805	60305.070313
1334.586914	60358.964844
1333.499023	60506.652344
1332.411133	60084.792969
1331.323242	60786.230469
1330.234375	60560.925781
1329.145508	61025.417969
1328.056641	61101.425781
1326.967773	61224.261719
1325.878906	61384.972656
1324.789063	61130.753906
1323.699219	61619.242188
1322.609375	61703.976563
1321.519531	61668.300781
1320.429688	62011.539063
1319.338867	61365.214844
1318.248047	62376.800781
1317.157227	62187.308594
1316.066406	62583.652344
1314.975586	62200.449219
1313.883789	62741.359375
1312.791992	62874.703125
1311.700195	62529.484375
1310.608398	62976.574219
1309.516602	63334.503906
1308.423828	63412.023438
1307.331055	63207.058594
1306.238281	63182.281250
1305.145508	63439.859375
1304.051758	62992.707031
1302.958984	63710.261719
1301.865234	63669.847656
1300.771484	64371.464844
1299.677734	64926.222656
1298.583008	65605.148438
1297.489258	66423.703125
1296.394531	67352.968750
1295.299805	67922.312500
1294.204102	68322.789063
1293.109375	67895.500000
1292.013672	68171.601563
1290.917969	67726.742188
1289.822266	66989.320313
1288.726563	66697.828125
1287.630859	66621.460938
1286.534180	65421.402344
1285.437500	64780.210938
1284.340820	64939.078125
1283.244141	63682.375000
1282.146484	63568.957031
1281.048828	63626.085938
1279.951172	63348.878906
1278.853516	63040.781250
1277.755859	62920.910156
1276.658203	62840.914063
1275.559570	62101.648438
1274.460938	61705.511719
1273.362305	61720.867188
1272.262695	61024.210938
1271.164063	61711.757813
1270.064453	60619.695313
1268.964844	60993.242188
1267.865234	60626.441406
1266.765625	60719.281250
1265.665039	59921.945313
1264.564453	60213.628906
1263.463867	60189.460938
1262.363281	60001.941406
1261.262695	59320.078125
1260.161133	59726.398438
1259.059570	59422.117188
1257.958008	59245.890625
1256.856445	59689.492188
1255.754883	58803.207031
1254.652344	59178.375000
1253.549805	58713.539063
1252.447266	59046.707031
1251.344727	58736.304688
1250.242188	59084.765625
1249.138672	59025.582031
1248.035156	58514.929688
1246.931641	58455.863281
1245.828125	58117.218750
1244.724609	58932.113281
1243.620117	58197.359375
1242.515625	57559.687500
1241.411133	58642.625000
1240.306641	58251.453125
1239.201172	57880.210938
1238.096680	57871.898438
1236.991211	58239.511719
1235.885742	57615.699219
1234.779297	57941.464844
1233.673828	58231.953125
1232.567383	57817.167969
1231.460938	57920.878906
1230.354492	58323.203125
1229.248047	58299.433594
1228.140625	58754.222656
1227.033203	58750.132813
1225.926758	58561.710938
1224.818359	58952.570313
1223.710938	58612.820313
1222.602539	59376.367188
1221.495117	59183.574219
1220.386719	58775.992188
1219.278320	58833.261719
1218.168945	58682.304688
1217.060547	58877.609375
1215.951172	58538.289063
1214.841797	58045.753906
1213.731445	58497.292969
1212.622070	58171.355469
1211.511719	58410.347656
1210.402344	58207.109375
1209.291992	58030.203125
1208.180664	58166.250000
1207.070313	58722.261719
1205.958984	58586.910156
1204.847656	58576.253906
1203.736328	58508.750000
1202.625000	58616.152344
1201.512695	58716.957031
1200.401367	58878.906250
1199.289063	59254.910156
1198.176758	59163.300781
1197.063477	59440.828125
1195.951172	59825.253906
1194.837891	60008.671875
1193.724609	60312.082031
1192.611328	59775.132813
1191.498047	60071.921875
1190.383789	60004.265625
1189.269531	59801.390625
1188.155273	59515.714844
1187.041016	59746.910156
1185.926758	59738.210938
1184.811523	59838.496094
1183.696289	58907.945313
1182.581055	59049.742188
1181.465820	58677.359375
1180.350586	58268.082031
1179.234375	58575.410156
1178.118164	58482.003906
1177.001953	58493.121094
1175.885742	58081.988281
1174.768555	58402.175781
1173.652344	58106.515625
1172.535156	58348.265625
1171.417969	58185.390625
1170.299805	57835.562500
