#Wave		#Intensity
2001.221680	51556.496094
2000.251953	51538.949219
1999.282227	51387.105469
1998.312500	51393.167969
1997.342773	51296.515625
1996.372070	51660.769531
1995.402344	51919.714844
1994.431641	51512.531250
1993.460938	51518.554688
1992.490234	51549.609375
1991.518555	51545.609375
1990.547852	51674.226563
1989.576172	51740.253906
1988.604492	52193.949219
1987.632813	51669.664063
1986.661133	51388.093750
1985.689453	51434.117188
1984.716797	51975.027344
1983.745117	51953.453125
1982.772461	51859.421875
1981.799805	51887.832031
1980.827148	52225.957031
1979.853516	52436.597656
1978.880859	52222.691406
1977.907227	52258.500000
1976.933594	52334.234375
1975.959961	51930.781250
1974.986328	52133.792969
1974.011719	52276.859375
1973.038086	52207.859375
1972.063477	52276.042969
1971.088867	52025.042969
1970.114258	52457.207031
1969.138672	51760.093750
1968.164063	52321.734375
1967.188477	52402.289063
1966.212891	52517.687500
1965.237305	51990.417969
1964.261719	52481.890625
1963.286133	52470.222656
1962.309570	52040.320313
1961.333984	52446.890625
1960.357422	52480.023438
1959.380859	52493.238281
1958.404297	52822.390625
1957.426758	52713.656250
1956.450195	52833.753906
1955.472656	53018.453125
1954.495117	52822.726563
1953.517578	52716.546875
1952.540039	53224.230469
1951.561523	52881.968750
1950.583008	52845.386719
1949.605469	52759.140625
1948.626953	53142.285156
1947.647461	53510.394531
1946.668945	53488.613281
1945.690430	53007.656250
1944.710938	52911.515625
1943.731445	53013.910156
1942.751953	53265.113281
1941.772461	53181.378906
1940.791992	52797.597656
1939.812500	53663.613281
1938.832031	54013.679688
1937.851563	53761.316406
1936.871094	53623.035156
1935.890625	53336.136719
1934.909180	53188.066406
1933.928711	53604.777344
1932.947266	53969.332031
1931.965820	54257.000000
1930.984375	54044.500000
1930.002930	53668.707031
1929.020508	54008.242188
1928.038086	54355.078125
1927.056641	54548.410156
1926.074219	54407.761719
1925.090820	54044.589844
1924.108398	54571.664063
1923.125000	54282.750000
1922.142578	54555.011719
1921.159180	54199.476563
1920.175781	54417.289063
1919.191406	54610.324219
1918.208008	54605.691406
1917.223633	54685.023438
1916.240234	54885.308594
1915.255859	55369.417969
1914.271484	54666.140625
1913.286133	54876.191406
1912.301758	54580.355469
1911.316406	55444.074219
1910.331055	54963.253906
1909.345703	55316.125000
1908.360352	54958.769531
1907.375000	54882.574219
1906.388672	54799.003906
1905.402344	55452.296875
1904.416016	55055.738281
1903.429688	55193.886719
1902.443359	55248.246094
1901.457031	55366.609375
1900.469727	55344.582031
1899.482422	55721.367188
1898.495117	55091.339844
1897.507813	55288.386719
1896.520508	55714.183594
1895.532227	55871.687500
1894.543945	56098.000000
1893.556641	55667.640625
1892.568359	55566.898438
1891.579102	55579.269531
1890.590820	55643.250000
1889.601563	56038.957031
1888.613281	55780.964844
1887.624023	55631.148438
1886.634766	55835.062500
1885.644531	55709.843750
1884.655273	55606.761719
1883.665039	55815.476563
1882.674805	56011.843750
1881.684570	55682.992188
1880.694336	55918.566406
1879.704102	56244.824219
1878.712891	56531.718750
1877.722656	55952.867188
1876.731445	56499.601563
1875.740234	56555.863281
1874.748047	56435.636719
1873.756836	55901.308594
1872.764648	56464.808594
1871.773438	56354.453125
1870.781250	56591.921875
1869.788086	56219.554688
1868.795898	56523.066406
1867.803711	56970.898438
1866.810547	56405.304688
1865.817383	56578.921875
1864.824219	56463.769531
1863.831055	56598.171875
1862.837891	56793.671875
1861.843750	56646.746094
1860.849609	56600.113281
1859.855469	56812.613281
1858.861328	57093.468750
1857.867188	56824.406250
1856.872070	56782.652344
1855.877930	56682.285156
1854.882813	57028.898438
1853.887695	57053.058594
1852.892578	57211.488281
1851.896484	57064.726563
1850.901367	57198.683594
1849.905273	57452.167969
1848.909180	57485.976563
1847.913086	57436.835938
1846.916992	57882.808594
1845.919922	57626.335938
1844.923828	57423.589844
1843.926758	57649.937500
1842.929688	57910.324219
1841.932617	57761.238281
1840.935547	58447.867188
1839.937500	57952.832031
1838.939453	57901.230469
1837.942383	58553.375000
1836.943359	58229.003906
1835.945313	58316.121094
1834.947266	58154.960938
1833.948242	58254.226563
1832.949219	58540.785156
1831.951172	58357.773438
1830.951172	58758.515625
1829.952148	58446.648438
1828.953125	58540.898438
1827.953125	58511.140625
1826.953125	58265.093750
1825.953125	58786.984375
1824.953125	58135.246094
1823.952148	58239.171875
1822.952148	58544.636719
1821.951172	58641.164063
1820.950195	58492.453125
1819.949219	58639.925781
1818.948242	58571.347656
1817.946289	59034.195313
1816.945313	58652.605469
1815.943359	59578.570313
1814.941406	59119.406250
1813.939453	59535.750000
1812.936523	59374.949219
1811.934570	59604.453125
1810.931641	59213.457031
1809.928711	59428.367188
1808.925781	59144.132813
1807.921875	59816.773438
1806.918945	59927.320313
1805.915039	59766.628906
1804.912109	60136.179688
1803.908203	59885.945313
1802.903320	59967.351563
1801.899414	60184.226563
1800.894531	60272.800781
1799.890625	60322.640625
1798.885742	59925.062500
1797.880859	60492.386719
1796.875000	60667.867188
1795.870117	60732.093750
1794.864258	61011.382813
1793.858398	60727.585938
1792.852539	61424.707031
1791.846680	60877.652344
1790.840820	61151.878906
1789.833984	60964.828125
1788.828125	61166.511719
1787.821289	61452.605469
1786.814453	61202.847656
1785.806641	61221.000000
1784.799805	61740.925781
1783.791992	61869.925781
1782.784180	61786.656250
1781.776367	61843.261719
1780.768555	61287.527344
1779.760742	62129.949219
1778.751953	61728.582031
1777.743164	62640.496094
1776.735352	62458.398438
1775.725586	62230.597656
1774.716797	62662.710938
1773.708008	62432.542969
1772.698242	62546.695313
1771.688477	62492.328125
1770.678711	62859.105469
1769.668945	62744.542969
1768.659180	63207.363281
1767.648438	62686.300781
1766.637695	63336.535156
1765.626953	62962.292969
1764.616211	62936.746094
1763.605469	63572.164063
1762.593750	63596.976563
1761.583008	63564.117188
1760.571289	63879.585938
1759.559570	63685.761719
1758.547852	64056.320313
1757.535156	64090.621094
1756.523438	64247.328125
1755.510742	65001.601563
1754.498047	64337.402344
1753.485352	64733.898438
1752.472656	64887.976563
1751.458984	64384.832031
1750.445313	64862.636719
1749.432617	65241.968750
1748.417969	65225.636719
1747.404297	65547.242188
1746.390625	65401.460938
1745.375977	65773.234375
1744.361328	66099.351563
1743.346680	65927.203125
1742.332031	66341.773438
1741.317383	67208.695313
1740.302734	66605.554688
1739.287109	66959.945313
1738.271484	68079.937500
1737.255859	68816.734375
1736.240234	68053.453125
1735.223633	68866.523438
1734.208008	69633.867188
1733.191406	69542.648438
1732.174805	69876.937500
1731.158203	70555.257813
1730.140625	71453.171875
1729.124023	71947.007813
1728.106445	72564.882813
1727.088867	73058.343750
1726.071289	73704.445313
1725.053711	74092.476563
1724.035156	74344.312500
1723.017578	74383.656250
1721.999023	75105.406250
1720.980469	75285.351563
1719.961914	75295.867188
1718.942383	75182.375000
1717.923828	75684.093750
1716.904297	75923.398438
1715.884766	75929.015625
1714.865234	76244.445313
1713.844727	75239.718750
1712.825195	75340.742188
1711.804688	75682.296875
1710.784180	75761.765625
1709.763672	75800.726563
1708.743164	75199.281250
1707.722656	75464.445313
1706.701172	75351.117188
1705.679688	74980.867188
1704.658203	74503.679688
1703.636719	74959.046875
1702.615234	74403.554688
1701.592773	74143.085938
1700.571289	74372.429688
1699.548828	73883.875000
1698.526367	73402.625000
1697.502930	73539.304688
1696.480469	73899.226563
1695.457031	73194.960938
1694.433594	73091.742188
1693.410156	73152.382813
1692.386719	72977.984375
1691.363281	72855.867188
1690.338867	73661.648438
1689.314453	73193.039063
1688.290039	73303.406250
1687.265625	73212.140625
1686.241211	72945.414063
1685.215820	73020.203125
1684.191406	73272.742188
1683.166016	73006.148438
1682.140625	73130.632813
1681.115234	73283.507813
1680.088867	73921.929688
1679.062500	73700.398438
1678.037109	73843.601563
1677.010742	73264.648438
1675.983398	73983.093750
1674.957031	74287.109375
1673.930664	73308.468750
1672.903320	74182.664063
1671.875977	74046.492188
1670.848633	74310.054688
1669.820313	73878.320313
1668.792969	74555.562500
1667.764648	74584.867188
1666.736328	74897.773438
1665.708008	74546.570313
1664.679688	74849.914063
1663.651367	75084.640625
1662.622070	74721.773438
1661.592773	75308.265625
1660.563477	75514.453125
1659.534180	76041.578125
1658.504883	76096.507813
1657.474609	75703.093750
1656.444336	76463.460938
1655.415039	76702.265625
1654.383789	77120.210938
1653.353516	76606.625000
1652.323242	76925.421875
1651.291992	77640.093750
1650.260742	77909.093750
1649.229492	77593.648438
1648.198242	78326.656250
1647.166016	78993.453125
1646.134766	78769.812500
1645.102539	79325.617188
1644.070313	79742.328125
1643.038086	79775.226563
1642.004883	80916.523438
1640.972656	80248.031250
1639.939453	81073.593750
1638.906250	81724.851563
1637.873047	82376.109375
1636.839844	83027.359375
1635.805664	83679.234375
1634.772461	84330.492188
1633.738281	84982.359375
1632.704102	85634.234375
1631.668945	85473.359375
1630.634766	85648.398438
1629.599609	86631.187500
1628.565430	87195.703125
1627.530273	87964.242188
1626.494141	88676.171875
1625.458984	88571.226563
1624.422852	90071.117188
1623.387695	91239.710938
1622.351563	92128.789063
1621.315430	93132.453125
1620.278320	94714.851563
1619.242188	97105.414063
1618.205078	99047.468750
1617.167969	101539.500000
1616.130859	104110.296875
1615.093750	106687.203125
1614.055664	110628.601563
1613.018555	112411.953125
1611.980469	115278.640625
1610.942383	117268.851563
1609.904297	117311.156250
1608.865234	117477.460938
1607.827148	115620.000000
1606.788086	114731.585938
1605.749023	112306.960938
1604.709961	110030.507813
1603.669922	107890.460938
1602.630859	105136.414063
1601.590820	103056.414063
1600.550781	102150.132813
1599.510742	101061.953125
1598.470703	99264.070313
1597.429688	98968.476563
1596.389648	98086.898438
1595.348633	97306.023438
1594.307617	97559.437500
1593.265625	96909.617188
1592.224609	96313.687500
1591.182617	95813.609375
1590.140625	95817.523438
1589.098633	96173.570313
1588.056641	95449.937500
1587.014648	96015.718750
1585.971680	95318.007813
1584.928711	95203.132813
1583.886719	95058.007813
1582.842773	95472.023438
1581.799805	94705.015625
1580.755859	95284.273438
1579.712891	95830.734375
1578.668945	95247.960938
1577.625000	96017.656250
1576.580078	96761.476563
1575.536133	97142.070313
1574.491211	97410.867188
1573.446289	98484.289063
1572.401367	98276.031250
1571.356445	98744.421875
1570.311523	99912.328125
1569.265625	99692.296875
1568.219727	99951.031250
1567.173828	99396.500000
1566.127930	99429.867188
1565.082031	99293.671875
1564.035156	98811.523438
1562.988281	98269.187500
1561.941406	98525.554688
1560.894531	97865.093750
1559.847656	97891.703125
1558.799805	97250.140625
1557.751953	98009.843750
1556.704102	97681.570313
1555.656250	97281.531250
1554.608398	97790.421875
1553.560547	97508.710938
1552.511719	97266.492188
1551.462891	97184.234375
1550.414063	97486.578125
1549.365234	96998.960938
1548.315430	96576.351563
1547.265625	96295.132813
1546.216797	96863.632813
1545.166992	96165.828125
1544.116211	96361.546875
1543.066406	95689.523438
1542.015625	96287.781250
1540.965820	95248.242188
1539.915039	95335.281250
1538.863281	94985.289063
1537.812500	94688.593750
1536.760742	94010.625000
1535.709961	92997.820313
1534.658203	93147.546875
1533.605469	92410.148438
1532.553711	92342.812500
1531.501953	91314.851563
1530.449219	91095.343750
1529.396484	90384.210938
1528.343750	89931.835938
1527.290039	89394.234375
1526.237305	88263.867188
1525.183594	88815.546875
1524.129883	88033.945313
1523.076172	87886.757813
1522.022461	87815.703125
1520.968750	87848.398438
1519.914063	87858.031250
1518.859375	87524.320313
1517.804688	88029.335938
1516.750000	88004.367188
1515.694336	87901.101563
1514.639648	87606.750000
1513.583984	87100.695313
1512.528320	87405.062500
1511.472656	87242.125000
1510.416016	86197.953125
1509.360352	86776.078125
1508.303711	86203.898438
1507.247070	86823.203125
1506.190430	86333.984375
1505.132813	86470.257813
1504.076172	86332.953125
1503.018555	85634.953125
1501.960938	86019.414063
1500.903320	85604.281250
1499.844727	85885.242188
1498.787109	85580.507813
1497.728516	84729.406250
1496.669922	85304.210938
1495.611328	84343.289063
1494.552734	84768.789063
1493.493164	84627.406250
1492.434570	84226.851563
1491.375000	84599.375000
1490.315430	84520.007813
1489.254883	84417.734375
1488.195313	83960.179688
1487.134766	84440.195313
1486.074219	83833.835938
1485.013672	83866.921875
1483.953125	83595.328125
1482.892578	83953.664063
1481.831055	84078.296875
1480.769531	84484.492188
1479.708008	83681.898438
1478.646484	83692.070313
1477.583984	84116.406250
1476.522461	83428.695313
1475.459961	83521.242188
1474.397461	83698.375000
1473.334961	83587.328125
1472.271484	83252.265625
1471.208984	83660.203125
1470.145508	83290.960938
1469.082031	84153.445313
1468.018555	83487.250000
1466.954102	83346.640625
1465.890625	83738.195313
1464.826172	83611.289063
1463.761719	83947.851563
1462.697266	83706.820313
1461.631836	83315.250000
1460.567383	83761.195313
1459.501953	83520.312500
1458.436523	83801.835938
1457.371094	84169.914063
1456.305664	83851.554688
1455.239258	83827.382813
1454.172852	83057.906250
1453.107422	83908.953125
1452.040039	83374.398438
1450.973633	83391.320313
1449.907227	84344.328125
1448.839844	83229.296875
1447.772461	83273.546875
1446.705078	83372.406250
1445.637695	83441.648438
1444.569336	83098.976563
1443.500977	83661.937500
1442.432617	82789.328125
1441.364258	83600.039063
1440.295898	83978.406250
1439.227539	83681.406250
1438.158203	83725.468750
1437.088867	83928.601563
1436.019531	83690.835938
1434.950195	84116.539063
1433.879883	84514.828125
1432.810547	84401.984375
1431.740234	83978.093750
1430.669922	84830.234375
1429.598633	84454.078125
1428.528320	84470.671875
1427.457031	84829.875000
1426.386719	84360.898438
1425.314453	84361.601563
1424.243164	84013.070313
1423.171875	84281.382813
1422.099609	84007.789063
1421.027344	84096.945313
1419.955078	84174.734375
1418.882813	83271.414063
1417.810547	82977.796875
1416.737305	83171.242188
1415.664063	83251.390625
1414.590820	83037.171875
1413.517578	83069.765625
1412.444336	82769.640625
1411.370117	82702.703125
1410.295898	83248.921875
1409.221680	82514.593750
1408.147461	82931.726563
1407.073242	83004.992188
1405.998047	83288.484375
1404.922852	84008.148438
1403.847656	82765.812500
1402.772461	83022.070313
1401.697266	82469.421875
1400.621094	83782.773438
1399.544922	83311.484375
1398.468750	83632.929688
1397.392578	83439.515625
1396.316406	83413.210938
1395.239258	83560.671875
1394.162109	83739.679688
1393.084961	84196.101563
1392.007813	84609.492188
1390.930664	85083.632813
1389.852539	85510.242188
1388.774414	85657.148438
1387.696289	86401.304688
1386.618164	86374.468750
1385.540039	86998.804688
1384.460938	87138.562500
1383.382813	87494.500000
1382.303711	87895.343750
1381.223633	88890.437500
1380.144531	88167.562500
1379.064453	89103.726563
1377.985352	89053.906250
1376.905273	89134.601563
1375.825195	89190.515625
1374.744141	89237.414063
1373.664063	89430.453125
1372.583008	88991.648438
1371.501953	88681.132813
1370.420898	88256.101563
1369.338867	88071.656250
1368.257813	87669.343750
1367.175781	87547.960938
1366.093750	87707.343750
1365.011719	87325.515625
1363.929688	86640.742188
1362.846680	86793.460938
1361.763672	86331.195313
1360.680664	86219.140625
1359.597656	86261.914063
1358.514648	85860.546875
1357.430664	85880.937500
1356.346680	85428.203125
1355.262695	85056.343750
1354.178711	84642.023438
1353.094727	84763.445313
1352.009766	83912.406250
1350.925781	84414.742188
1349.840820	83487.914063
1348.755859	83262.335938
1347.669922	83448.812500
1346.584961	82771.132813
1345.499023	82736.039063
1344.413086	82920.265625
1343.327148	83012.679688
1342.240234	82534.640625
1341.154297	82797.070313
1340.067383	82285.687500
1338.980469	82284.242188
1337.893555	82649.382813
1336.805664	83043.453125
1335.718750	82963.648438
1334.630859	82879.398438
1333.542969	82714.765625
1332.455078	82972.289063
1331.367188	83562.414063
1330.278320	83216.898438
1329.189453	83204.093750
1328.100586	83392.140625
1327.011719	83410.539063
1325.922852	83245.992188
1324.833008	83598.976563
1323.743164	84197.140625
1322.653320	84447.257813
1321.563477	84061.929688
1320.473633	83879.562500
1319.382813	84417.062500
1318.291992	85526.976563
1317.201172	85415.718750
1316.110352	85721.000000
1315.019531	86427.000000
1313.927734	86210.992188
1312.835938	86671.773438
1311.744141	86444.664063
1310.652344	87089.921875
1309.560547	86787.164063
1308.467773	86584.609375
1307.375000	86622.320313
1306.282227	86355.375000
1305.189453	86181.898438
1304.095703	85666.164063
1303.002930	85952.914063
1301.909180	86215.117188
1300.815430	86232.835938
1299.721680	85888.484375
1298.626953	86419.265625
1297.533203	86872.132813
1296.438477	86472.343750
1295.343750	87075.960938
1294.248047	86986.960938
1293.153320	87481.546875
1292.057617	88495.054688
1290.961914	88086.437500
1289.866211	88540.625000
1288.770508	88728.570313
1287.674805	88912.015625
1286.578125	89682.742188
1285.481445	89369.546875
1284.384766	88841.554688
1283.288086	89421.351563
1282.190430	89050.781250
1281.092773	89196.304688
1279.996094	88487.156250
1278.897461	88982.468750
1277.799805	88357.710938
1276.702148	88337.273438
1275.603516	88675.250000
1274.504883	88134.937500
1273.406250	88236.179688
1272.307617	87625.375000
1271.208008	86811.390625
1270.108398	87206.789063
1269.008789	87049.539063
1267.909180	86837.101563
1266.809570	86485.562500
1265.708984	86571.484375
1264.609375	86237.781250
1263.508789	85943.929688
1262.407227	85665.640625
1261.306641	85257.226563
1260.206055	85411.687500
1259.104492	85177.765625
1258.002930	84908.625000
1256.901367	84668.250000
1255.798828	83905.328125
1254.697266	84544.929688
1253.594727	83603.750000
1252.492188	82643.062500
1251.389648	83037.937500
1250.286133	82928.132813
1249.183594	82540.812500
1248.080078	82246.125000
1246.976563	82055.039063
1245.872070	81674.679688
1244.768555	81415.523438
1243.664063	81783.687500
1242.560547	81784.242188
1241.455078	81661.593750
1240.350586	81818.335938
1239.246094	81020.562500
1238.140625	81216.937500
1237.035156	81417.632813
1235.929688	81073.148438
1234.824219	81166.109375
1233.717773	81131.593750
1232.612305	80523.718750
1231.505859	79795.265625
1230.399414	80125.539063
1229.291992	79533.539063
1228.185547	79644.218750
1227.078125	79653.890625
1225.970703	79584.554688
1224.863281	79945.273438
1223.755859	79757.445313
1222.647461	79670.578125
1221.539063	79243.851563
1220.430664	78920.320313
1219.322266	78816.101563
1218.213867	79154.625000
1217.104492	78316.335938
1215.995117	79202.531250
1214.885742	79220.984375
1213.776367	78260.492188
1212.666992	78544.054688
1211.556641	78623.906250
1210.446289	78616.179688
1209.335938	78175.132813
1208.225586	78445.359375
1207.115234	78302.023438
1206.003906	78364.335938
1204.892578	77805.554688
1203.781250	78305.218750
1202.669922	78199.156250
1201.557617	77942.328125
1200.446289	78273.414063
1199.333984	78704.882813
1198.221680	78347.601563
1197.108398	78617.273438
1195.996094	79552.859375
1194.882813	79322.234375
1193.769531	78805.742188
1192.656250	79474.507813
1191.542969	79470.953125
1190.428711	79823.007813
1189.314453	79575.078125
1188.200195	80029.484375
1187.085938	79685.656250
1185.971680	79440.062500
1184.856445	79299.171875
1183.741211	79119.109375
1182.625977	79302.976563
1181.510742	79133.859375
1180.395508	79533.289063
1179.279297	79242.234375
1178.163086	79182.078125
1177.046875	79052.273438
1175.930664	79033.523438
1174.813477	79010.421875
1173.697266	78880.710938
1172.580078	78592.250000
1171.462891	78051.593750
