#Wave		#Intensity
2001.248047	36254.398438
2000.278320	35773.144531
1999.308594	36167.875000
1998.338867	36053.816406
1997.369141	36067.566406
1996.398438	36061.269531
1995.428711	36205.230469
1994.458008	36106.265625
1993.487305	35862.132813
1992.516602	36321.433594
1991.545898	36372.648438
1990.574219	36426.351563
1989.603516	36339.933594
1988.631836	36431.136719
1987.660156	36559.820313
1986.688477	36870.984375
1985.715820	36707.046875
1984.744141	36478.175781
1983.771484	36531.781250
1982.798828	36727.789063
1981.826172	36431.578125
1980.853516	36577.578125
1979.880859	36501.261719
1978.907227	36831.964844
1977.933594	36793.074219
1976.959961	36616.914063
1975.986328	36762.746094
1975.012695	36686.457031
1974.039063	36737.425781
1973.064453	37032.812500
1972.089844	36771.964844
1971.115234	36775.511719
1970.140625	36756.617188
1969.166016	36814.996094
1968.190430	36773.671875
1967.215820	36854.449219
1966.240234	36927.726563
1965.264648	37100.605469
1964.289063	37014.425781
1963.312500	37349.074219
1962.336914	36864.558594
1961.360352	37057.238281
1960.383789	36961.164063
1959.407227	37011.929688
1958.430664	36779.066406
1957.454102	37153.195313
1956.476563	37430.199219
1955.499023	37271.980469
1954.521484	37240.597656
1953.543945	37398.128906
1952.566406	37481.050781
1951.587891	37501.824219
1950.610352	37366.082031
1949.631836	37498.636719
1948.653320	37425.023438
1947.674805	37358.878906
1946.696289	37523.636719
1945.716797	37626.281250
1944.737305	37468.312500
1943.758789	37600.703125
1942.779297	37648.699219
1941.798828	37354.382813
1940.819336	37747.113281
1939.838867	37487.597656
1938.859375	37823.144531
1937.878906	37469.511719
1936.898438	37871.851563
1935.916992	37818.144531
1934.936523	37895.750000
1933.955078	37292.179688
1932.974609	37444.140625
1931.993164	37737.183594
1931.010742	37760.281250
1930.029297	37733.863281
1929.047852	37848.515625
1928.065430	37807.246094
1927.083008	37746.195313
1926.100586	37912.722656
1925.118164	37611.792969
1924.135742	37770.863281
1923.152344	37942.238281
1922.168945	37799.644531
1921.185547	37921.527344
1920.202148	37690.035156
1919.218750	37831.652344
1918.235352	38123.886719
1917.250977	37964.093750
1916.266602	38016.695313
1915.282227	37852.039063
1914.297852	37884.894531
1913.313477	37666.019531
1912.328125	38145.488281
1911.343750	37605.941406
1910.358398	37875.593750
1909.373047	37804.835938
1908.387695	37785.878906
1907.401367	37705.292969
1906.416016	37972.269531
1905.429688	37822.679688
1904.443359	37845.613281
1903.457031	38011.417969
1902.470703	38118.046875
1901.483398	37584.363281
1900.497070	38025.886719
1899.509766	37974.902344
1898.522461	38209.449219
1897.535156	38367.621094
1896.546875	37716.250000
1895.559570	37778.511719
1894.571289	37833.375000
1893.583008	38308.726563
1892.594727	37886.480469
1891.606445	38076.492188
1890.618164	38428.656250
1889.628906	38490.718750
1888.639648	38058.902344
1887.650391	38123.460938
1886.661133	38075.015625
1885.671875	38581.570313
1884.682617	37892.230469
1883.692383	38489.468750
1882.702148	38369.808594
1881.711914	38225.644531
1880.721680	38211.574219
1879.731445	38688.125000
1878.740234	38445.871094
1877.749023	38451.382813
1876.757813	38488.761719
1875.766602	38602.117188
1874.775391	38575.726563
1873.784180	38919.378906
1872.791992	38814.535156
1871.799805	38579.898438
1870.807617	38942.953125
1869.815430	38874.890625
1868.823242	38762.777344
1867.830078	38550.339844
1866.837891	39055.097656
1865.844727	38913.640625
1864.851563	39060.941406
1863.858398	38599.078125
1862.864258	39093.679688
1861.871094	38935.195313
1860.876953	38999.253906
1859.882813	38794.394531
1858.888672	38983.097656
1857.894531	39438.093750
1856.899414	39013.371094
1855.905273	38994.296875
1854.910156	39629.781250
1853.915039	39586.183594
1852.919922	39505.976563
1851.923828	39474.617188
1850.928711	39428.621094
1849.932617	39387.523438
1848.936523	39678.250000
1847.940430	39707.859375
1846.944336	39556.976563
1845.947266	39511.003906
1844.951172	39767.363281
1843.954102	40038.257813
1842.957031	40170.132813
1841.959961	39997.363281
1840.962891	39978.144531
1839.964844	40019.824219
1838.966797	40387.847656
1837.969727	40307.687500
1836.970703	40125.300781
1835.972656	39969.750000
1834.974609	40220.695313
1833.975586	40778.152344
1832.976563	40632.296875
1831.978516	40727.308594
1830.978516	40146.167969
1829.979492	40518.437500
1828.980469	40270.613281
1827.980469	40426.382813
1826.980469	40433.847656
1825.980469	40594.390625
1824.980469	40737.871094
1823.979492	40616.527344
1822.979492	41272.394531
1821.978516	40585.222656
1820.977539	40801.429688
1819.976563	40685.011719
1818.975586	40672.992188
1817.973633	40823.546875
1816.972656	40957.066406
1815.970703	40792.183594
1814.968750	40872.304688
1813.966797	41277.316406
1812.963867	40911.234375
1811.961914	41071.277344
1810.958984	41175.519531
1809.956055	41112.531250
1808.953125	41374.199219
1807.950195	40940.593750
1806.946289	41323.289063
1805.943359	41354.746094
1804.939453	41427.343750
1803.935547	41226.398438
1802.930664	41240.910156
1801.926758	41969.218750
1800.922852	41516.675781
1799.917969	41947.164063
1798.913086	41722.109375
1797.908203	41985.562500
1796.903320	41673.546875
1795.897461	41767.714844
1794.891602	42301.687500
1793.886719	42183.078125
1792.880859	42492.109375
1791.874023	42460.460938
1790.868164	41982.046875
1789.862305	42360.968750
1788.855469	42377.636719
1787.848633	42411.191406
1786.841797	42519.542969
1785.833984	42483.085938
1784.827148	42822.976563
1783.819336	42916.722656
1782.812500	42631.816406
1781.804688	43092.054688
1780.795898	43359.269531
1779.788086	43214.230469
1778.779297	42931.875000
1777.771484	42702.625000
1776.762695	43164.847656
1775.753906	43224.664063
1774.744141	43125.523438
1773.735352	43245.519531
1772.725586	43355.839844
1771.715820	43165.257813
1770.706055	43246.675781
1769.696289	43282.343750
1768.686523	43387.765625
1767.675781	43750.500000
1766.666016	43511.914063
1765.655273	43790.343750
1764.644531	43746.550781
1763.632813	43633.066406
1762.622070	44315.039063
1761.610352	44218.312500
1760.598633	44150.441406
1759.586914	44116.218750
1758.575195	43911.511719
1757.563477	44676.855469
1756.550781	44844.199219
1755.538086	44502.656250
1754.525391	44446.796875
1753.512695	44830.019531
1752.500000	45124.347656
1751.486328	45087.589844
1750.473633	45201.914063
1749.459961	45438.472656
1748.446289	45051.691406
1747.432617	45688.441406
1746.417969	45687.550781
1745.404297	45437.488281
1744.389648	45467.781250
1743.375000	45378.308594
1742.360352	45832.437500
1741.344727	46075.718750
1740.330078	45864.097656
1739.314453	46193.445313
1738.298828	46819.390625
1737.283203	46445.058594
1736.267578	46477.503906
1735.251953	46703.660156
1734.235352	46676.269531
1733.218750	47205.933594
1732.202148	47309.925781
1731.185547	47638.535156
1730.168945	47842.769531
1729.151367	47941.812500
1728.133789	48458.832031
1727.117188	48455.031250
1726.098633	48878.648438
1725.081055	48810.308594
1724.063477	48858.957031
1723.044922	49432.625000
1722.026367	49516.929688
1721.007813	49875.562500
1719.989258	50832.769531
1718.970703	50499.425781
1717.951172	50817.152344
1716.931641	51075.160156
1715.912109	50820.605469
1714.892578	51061.835938
1713.873047	51221.968750
1712.853516	51470.187500
1711.833008	51592.074219
1710.812500	51661.523438
1709.791992	51869.046875
1708.771484	51224.226563
1707.750000	51274.652344
1706.729492	51241.769531
1705.708008	51851.328125
1704.686523	51785.042969
1703.665039	51656.941406
1702.642578	51845.167969
1701.621094	51512.613281
1700.598633	51753.093750
1699.576172	51461.078125
1698.553711	51687.218750
1697.531250	51718.449219
1696.507813	51676.023438
1695.485352	51928.128906
1694.461914	51391.726563
1693.438477	51223.535156
1692.415039	51385.375000
1691.390625	51530.535156
1690.367188	51514.277344
1689.342773	51721.050781
1688.318359	51545.824219
1687.293945	51456.039063
1686.269531	51506.195313
1685.244141	51781.574219
1684.218750	52156.414063
1683.194336	51867.488281
1682.168945	52040.750000
1681.142578	52116.812500
1680.117188	51901.472656
1679.090820	52399.109375
1678.064453	52164.847656
1677.038086	52217.148438
1676.011719	52612.667969
1674.985352	53029.343750
1673.958008	52288.734375
1672.931641	52390.652344
1671.904297	52449.949219
1670.876953	52901.828125
1669.848633	52632.324219
1668.821289	52738.828125
1667.792969	53060.394531
1666.764648	53138.417969
1665.736328	53131.347656
1664.708008	52866.757813
1663.679688	53183.339844
1662.650391	53554.132813
1661.621094	53282.515625
1660.591797	53199.867188
1659.562500	53209.300781
1658.533203	53603.414063
1657.502930	53815.695313
1656.472656	53751.871094
1655.442383	54011.222656
1654.412109	53770.507813
1653.381836	54197.171875
1652.351563	54376.140625
1651.320313	54220.339844
1650.289063	54172.996094
1649.257813	54415.488281
1648.226563	54240.906250
1647.194336	54466.808594
1646.163086	54487.742188
1645.130859	54722.933594
1644.098633	54600.207031
1643.066406	54818.812500
1642.033203	55258.550781
1641.000977	55284.019531
1639.967773	55351.824219
1638.934570	55092.660156
1637.901367	55221.613281
1636.868164	55698.496094
1635.833984	55942.480469
1634.800781	56240.433594
1633.766602	55988.382813
1632.732422	56194.582031
1631.697266	56053.035156
1630.663086	56120.570313
1629.627930	56772.812500
1628.593750	56976.367188
1627.558594	56999.097656
1626.522461	57510.000000
1625.487305	57495.074219
1624.451172	57348.761719
1623.416016	58016.492188
1622.379883	58017.894531
1621.343750	58753.269531
1620.306641	59715.804688
1619.270508	59920.835938
1618.233398	60489.066406
1617.196289	61776.488281
1616.159180	63243.851563
1615.122070	64246.878906
1614.083984	65938.109375
1613.046875	67022.257813
1612.008789	67827.406250
1610.970703	68426.273438
1609.932617	68842.382813
1608.893555	68404.250000
1607.855469	67912.453125
1606.816406	66803.304688
1605.777344	65818.500000
1604.738281	64441.210938
1603.698242	63644.199219
1602.659180	61975.597656
1601.619141	61880.421875
1600.579102	60883.335938
1599.539063	60561.773438
1598.499023	59847.906250
1597.458008	59258.062500
1596.417969	58836.550781
1595.376953	58125.695313
1594.335938	58337.082031
1593.294922	58373.355469
1592.252930	57506.628906
1591.210938	58004.949219
1590.169922	57726.371094
1589.127930	57538.843750
1588.084961	57125.210938
1587.042969	57847.031250
1586.000000	57069.882813
1584.958008	57078.347656
1583.915039	57527.175781
1582.872070	58024.761719
1581.828125	57453.085938
1580.785156	57887.628906
1579.741211	58128.761719
1578.697266	58090.457031
1577.653320	58091.730469
1576.609375	58120.929688
1575.564453	58094.273438
1574.520508	58472.390625
1573.475586	59124.820313
1572.430664	59163.101563
1571.384766	58999.093750
1570.339844	58993.214844
1569.293945	58622.441406
1568.249023	58625.921875
1567.202148	58018.359375
1566.156250	57601.492188
1565.110352	57874.558594
1564.063477	57629.695313
1563.017578	57220.078125
1561.970703	56954.523438
1560.922852	56819.031250
1559.875977	56231.097656
1558.829102	56768.582031
1557.781250	56890.660156
1556.733398	56518.707031
1555.685547	56905.125000
1554.636719	56396.511719
1553.588867	56298.359375
1552.540039	55852.605469
1551.491211	56199.464844
1550.442383	56184.792969
1549.393555	56357.742188
1548.344727	56197.140625
1547.294922	56490.425781
1546.245117	56207.156250
1545.195313	56664.671875
1544.145508	55992.675781
1543.094727	56049.769531
1542.044922	56601.910156
1540.994141	56767.582031
1539.943359	56084.476563
1538.892578	56479.078125
1537.840820	56531.398438
1536.790039	56602.191406
1535.738281	56360.980469
1534.686523	56193.789063
1533.634766	56435.542969
1532.583008	56836.574219
1531.530273	56089.753906
1530.477539	55828.058594
1529.424805	55797.300781
1528.372070	56424.335938
1527.319336	56211.175781
1526.265625	56166.511719
1525.212891	56253.351563
1524.159180	55805.078125
1523.105469	56500.718750
1522.051758	56119.417969
1520.997070	55883.472656
1519.942383	56657.082031
1518.888672	56020.171875
1517.833984	55966.371094
1516.778320	56366.378906
1515.723633	56008.527344
1514.667969	55632.378906
1513.612305	56214.101563
1512.556641	56466.449219
1511.500977	55749.800781
1510.445313	56183.917969
1509.388672	56746.710938
1508.332031	56400.722656
1507.275391	56259.539063
1506.218750	56180.484375
1505.162109	56453.195313
1504.104492	56843.035156
1503.047852	56256.023438
1501.990234	56358.535156
1500.931641	56238.171875
1499.874023	56519.804688
1498.816406	56893.195313
1497.757813	56088.562500
1496.699219	56471.070313
1495.640625	56504.566406
1494.582031	56567.875000
1493.522461	56638.046875
1492.462891	56354.910156
1491.403320	56652.156250
1490.343750	57068.539063
1489.284180	56865.718750
1488.224609	56853.234375
1487.164063	56742.199219
1486.103516	56431.832031
1485.042969	56724.148438
1483.982422	56645.257813
1482.920898	56722.136719
1481.860352	56776.085938
1480.798828	57006.304688
1479.737305	57016.683594
1478.675781	57326.875000
1477.613281	56778.851563
1476.550781	57098.121094
1475.489258	57673.468750
1474.426758	56928.988281
1473.363281	57277.777344
1472.300781	57468.691406
1471.237305	58240.128906
1470.174805	57944.007813
1469.111328	57458.335938
1468.046875	57505.140625
1466.983398	57609.031250
1465.919922	57580.425781
1464.855469	57716.226563
1463.791016	58036.894531
1462.726563	58323.210938
1461.661133	58543.238281
1460.596680	58430.054688
1459.531250	58848.449219
1458.465820	58625.765625
1457.400391	58416.839844
1456.334961	58846.406250
1455.268555	58840.402344
1454.202148	58923.285156
1453.135742	58994.746094
1452.069336	58949.976563
1451.002930	58832.324219
1449.935547	59177.066406
1448.869141	59191.488281
1447.801758	59192.242188
1446.734375	59054.132813
1445.666016	59614.796875
1444.598633	59508.515625
1443.530273	59936.933594
1442.461914	60083.121094
1441.393555	60197.417969
1440.325195	60689.140625
1439.256836	61178.414063
1438.187500	61476.566406
1437.118164	62370.058594
1436.048828	62038.457031
1434.979492	62788.390625
1433.909180	62995.167969
1432.839844	62893.003906
1431.769531	63644.644531
1430.699219	63338.070313
1429.627930	63923.656250
1428.557617	63866.773438
1427.486328	64023.199219
1426.416016	64263.507813
1425.343750	64122.664063
1424.272461	64260.808594
1423.201172	64036.117188
1422.128906	63795.632813
1421.056641	63818.160156
1419.984375	63953.984375
1418.912109	63439.476563
1417.839844	63958.164063
1416.766602	62907.039063
1415.693359	63665.671875
1414.620117	63674.593750
1413.546875	63549.953125
1412.473633	63436.667969
1411.399414	63296.265625
1410.325195	63651.406250
1409.250977	63725.910156
1408.176758	64076.312500
1407.102539	64069.304688
1406.027344	64170.816406
1404.952148	64299.417969
1403.876953	64850.601563
1402.801758	64859.261719
1401.726563	64870.179688
1400.650391	65161.187500
1399.574219	65063.632813
1398.498047	65221.269531
1397.421875	65297.574219
1396.345703	64897.574219
1395.268555	65278.570313
1394.191406	65327.738281
1393.114258	66146.187500
1392.037109	65543.304688
1390.959961	66077.250000
1389.881836	66198.382813
1388.804688	66925.898438
1387.726563	66961.171875
1386.647461	66985.164063
1385.569336	67552.156250
1384.491211	67512.953125
1383.412109	68039.101563
1382.333008	68130.429688
1381.253906	68660.773438
1380.173828	69060.351563
1379.094727	69241.468750
1378.014648	68601.148438
1376.934570	69394.250000
1375.854492	69026.320313
1374.773438	69238.781250
1373.693359	68731.585938
1372.612305	68127.890625
1371.531250	68254.976563
1370.450195	67638.093750
1369.369141	67437.140625
1368.287109	67090.226563
1367.205078	67060.156250
1366.123047	66560.710938
1365.041016	66537.476563
1363.958984	66296.476563
1362.875977	65871.500000
1361.793945	65453.410156
1360.710938	66226.945313
1359.626953	65633.945313
1358.543945	65249.761719
1357.460938	65253.683594
1356.376953	65120.828125
1355.292969	65373.613281
1354.208984	65050.257813
1353.124023	64904.054688
1352.040039	64211.199219
1350.955078	64475.152344
1349.870117	64344.804688
1348.785156	64460.832031
1347.700195	64986.550781
1346.614258	64553.964844
1345.528320	64947.417969
1344.442383	64752.195313
1343.356445	64442.929688
1342.270508	65006.195313
1341.183594	64726.066406
1340.096680	64761.335938
1339.009766	64903.906250
1337.922852	64959.242188
1336.835938	64858.109375
1335.748047	64897.789063
1334.661133	65223.417969
1333.573242	64941.351563
1332.484375	64255.152344
1331.396484	64859.828125
1330.307617	65419.636719
1329.219727	64952.460938
1328.130859	64896.085938
1327.041992	64955.761719
1325.952148	65080.105469
1324.863281	65173.175781
1323.773438	65511.519531
1322.683594	65051.507813
1321.593750	65238.156250
1320.502930	65424.734375
1319.413086	65359.417969
1318.322266	65182.722656
1317.231445	65580.828125
1316.140625	65346.242188
1315.048828	64719.804688
1313.958008	65919.304688
1312.866211	65862.859375
1311.774414	65512.644531
1310.682617	65640.984375
1309.589844	65822.671875
1308.498047	65815.218750
1307.405273	65930.078125
1306.312500	66136.070313
1305.218750	66510.953125
1304.125977	66916.812500
1303.032227	66429.093750
1301.939453	66699.273438
1300.845703	67102.656250
1299.750977	67410.367188
1298.657227	67573.609375
1297.562500	68258.601563
1296.467773	68153.000000
1295.373047	68751.062500
1294.278320	68634.312500
1293.183594	68610.789063
1292.087891	68824.648438
1290.992188	68814.406250
1289.896484	69092.453125
1288.800781	68942.468750
1287.704102	68428.984375
1286.608398	68757.921875
1285.511719	68530.507813
1284.415039	68024.015625
1283.317383	68297.453125
1282.220703	67357.070313
1281.123047	67415.734375
1280.025391	67213.109375
1278.927734	67212.000000
1277.830078	66743.898438
1276.731445	66594.609375
1275.633789	66199.796875
1274.535156	66439.968750
1273.436523	65963.484375
1272.336914	65949.320313
1271.238281	65490.781250
1270.138672	65129.664063
1269.039063	65111.226563
1267.939453	64732.628906
1266.839844	64736.359375
1265.739258	64545.707031
1264.638672	64434.625000
1263.538086	64180.058594
1262.437500	64009.472656
1261.336914	63554.214844
1260.235352	63074.847656
1259.134766	63703.265625
1258.033203	63173.296875
1256.930664	63159.632813
1255.829102	63004.835938
1254.726563	63185.222656
1253.625000	62849.714844
1252.522461	62758.964844
1251.418945	62564.679688
1250.316406	62639.250000
1249.212891	62387.777344
1248.110352	61971.214844
1247.006836	62920.039063
1245.902344	62626.812500
1244.798828	62465.765625
1243.694336	61853.605469
1242.589844	61802.769531
1241.485352	62077.550781
1240.380859	62422.617188
1239.276367	61667.949219
1238.170898	62331.785156
1237.065430	61893.976563
1235.959961	61900.320313
1234.854492	62056.097656
1233.748047	61941.558594
1232.642578	62268.617188
1231.536133	62055.234375
1230.429688	62584.183594
1229.322266	62015.125000
1228.215820	62227.773438
1227.108398	61917.972656
1226.000977	61770.667969
1224.893555	62389.125000
1223.786133	62077.265625
1222.677734	62550.683594
1221.569336	62111.714844
1220.460938	62475.332031
1219.352539	62179.011719
1218.244141	61867.457031
1217.134766	62233.105469
1216.025391	62208.644531
1214.916016	62079.050781
1213.806641	61894.753906
1212.697266	62128.738281
1211.586914	62257.550781
1210.476563	62349.105469
1209.366211	61895.703125
1208.255859	61936.960938
1207.145508	61954.132813
1206.034180	61866.312500
1204.922852	62410.519531
1203.811523	62847.386719
1202.700195	62562.699219
1201.587891	62630.000000
1200.476563	62378.226563
1199.364258	63437.460938
1198.251953	63061.109375
1197.138672	63178.496094
1196.026367	63553.507813
1194.913086	63891.265625
1193.799805	63602.410156
1192.686523	63887.652344
1191.573242	63123.207031
1190.458984	64008.386719
1189.344727	63649.910156
1188.230469	63437.679688
1187.116211	63343.273438
1186.001953	63113.730469
1184.886719	63165.449219
1183.772461	62894.609375
1182.657227	63101.046875
1181.541016	63305.226563
1180.425781	62966.980469
1179.309570	63242.968750
1178.193359	62887.433594
1177.077148	62808.492188
1175.960938	62857.992188
1174.844727	63018.457031
1173.727539	62806.808594
1172.610352	62649.617188
1171.493164	62366.332031
1170.375977	62296.253906
