#Wave		#Intensity
2001.221680	37966.175781
2000.251953	37840.847656
1999.282227	38578.546875
1998.312500	38128.316406
1997.342773	38397.230469
1996.372070	38054.886719
1995.402344	38015.687500
1994.431641	38049.113281
1993.460938	38220.214844
1992.490234	38423.792969
1991.518555	38309.472656
1990.547852	38370.339844
1989.576172	38130.980469
1988.604492	38054.285156
1987.632813	38347.738281
1986.661133	38733.601563
1985.689453	38249.343750
1984.716797	38252.660156
1983.745117	38605.843750
1982.772461	38424.195313
1981.799805	38937.109375
1980.827148	38575.621094
1979.853516	38578.871094
1978.880859	38392.355469
1977.907227	38473.019531
1976.933594	38443.832031
1975.959961	38611.804688
1974.986328	38787.203125
1974.011719	38807.867188
1973.038086	38681.359375
1972.063477	38716.992188
1971.088867	38650.382813
1970.114258	38369.398438
1969.138672	38619.421875
1968.164063	38799.578125
1967.188477	38757.910156
1966.212891	38701.308594
1965.237305	38863.914063
1964.261719	38628.003906
1963.286133	38778.113281
1962.309570	38699.136719
1961.333984	38363.812500
1960.357422	38456.648438
1959.380859	38402.648438
1958.404297	38502.902344
1957.426758	38401.648438
1956.450195	38723.199219
1955.472656	39024.742188
1954.495117	38819.035156
1953.517578	39070.742188
1952.540039	38882.492188
1951.561523	38709.210938
1950.583008	38540.960938
1949.605469	39381.203125
1948.626953	38932.265625
1947.647461	38721.851563
1946.668945	39094.898438
1945.690430	38412.925781
1944.710938	38833.046875
1943.731445	38731.964844
1942.751953	39258.554688
1941.772461	38656.394531
1940.791992	39170.410156
1939.812500	38794.109375
1938.832031	38886.476563
1937.851563	38765.652344
1936.871094	38927.378906
1935.890625	38920.562500
1934.909180	38680.878906
1933.928711	39040.683594
1932.947266	38538.554688
1931.965820	39069.101563
1930.984375	39082.062500
1930.002930	38206.437500
1929.020508	39278.722656
1928.038086	38591.410156
1927.056641	38911.199219
1926.074219	39037.945313
1925.090820	38954.441406
1924.108398	39199.816406
1923.125000	38953.152344
1922.142578	38951.269531
1921.159180	38875.246094
1920.175781	39041.390625
1919.191406	38938.203125
1918.208008	39190.722656
1917.223633	39601.203125
1916.240234	38846.128906
1915.255859	38859.066406
1914.271484	39037.371094
1913.286133	38904.667969
1912.301758	39001.476563
1911.316406	39236.394531
1910.331055	38704.152344
1909.345703	39471.707031
1908.360352	39494.375000
1907.375000	39319.816406
1906.388672	39640.730469
1905.402344	39678.136719
1904.416016	39331.160156
1903.429688	39097.621094
1902.443359	39403.566406
1901.457031	39413.894531
1900.469727	39446.375000
1899.482422	39577.308594
1898.495117	39378.382813
1897.507813	39610.179688
1896.520508	39509.730469
1895.532227	39426.539063
1894.543945	39559.812500
1893.556641	39252.855469
1892.568359	39762.296875
1891.579102	39529.156250
1890.590820	39785.207031
1889.601563	39736.445313
1888.613281	39729.472656
1887.624023	39778.996094
1886.634766	39857.976563
1885.644531	40044.980469
1884.655273	39898.000000
1883.665039	39667.601563
1882.674805	40033.707031
1881.684570	39901.523438
1880.694336	39784.105469
1879.704102	39789.386719
1878.712891	39946.726563
1877.722656	40035.347656
1876.731445	39655.640625
1875.740234	39709.957031
1874.748047	40340.230469
1873.756836	39914.101563
1872.764648	39728.234375
1871.773438	39895.179688
1870.781250	40155.136719
1869.788086	39908.097656
1868.795898	40099.402344
1867.803711	40219.648438
1866.810547	40219.921875
1865.817383	40156.570313
1864.824219	39816.769531
1863.831055	40475.140625
1862.837891	40225.894531
1861.843750	40370.437500
1860.849609	40265.542969
1859.855469	40515.136719
1858.861328	39862.777344
1857.867188	40500.890625
1856.872070	40452.234375
1855.877930	40222.828125
1854.882813	40748.187500
1853.887695	40557.875000
1852.892578	40299.269531
1851.896484	40236.039063
1850.901367	40731.730469
1849.905273	40397.578125
1848.909180	40875.988281
1847.913086	40749.269531
1846.916992	40251.878906
1845.919922	40600.816406
1844.923828	40825.289063
1843.926758	40715.726563
1842.929688	40494.085938
1841.932617	40540.570313
1840.935547	40874.523438
1839.937500	40553.097656
1838.939453	40699.398438
1837.942383	40828.597656
1836.943359	40599.859375
1835.945313	40909.160156
1834.947266	40746.195313
1833.948242	40885.023438
1832.949219	41160.042969
1831.951172	40644.410156
1830.951172	41481.175781
1829.952148	41340.132813
1828.953125	41216.156250
1827.953125	41379.050781
1826.953125	41527.308594
1825.953125	41051.019531
1824.953125	41123.964844
1823.952148	41087.570313
1822.952148	41247.910156
1821.951172	41216.363281
1820.950195	41328.062500
1819.949219	41495.550781
1818.948242	41340.199219
1817.946289	41298.945313
1816.945313	41582.796875
1815.943359	41277.113281
1814.941406	41946.476563
1813.939453	41665.082031
1812.936523	41032.257813
1811.934570	41662.519531
1810.931641	41897.527344
1809.928711	41415.218750
1808.925781	41679.253906
1807.921875	41860.839844
1806.918945	41625.812500
1805.915039	41577.312500
1804.912109	41722.500000
1803.908203	41848.273438
1802.903320	41748.929688
1801.899414	41877.070313
1800.894531	42092.253906
1799.890625	42408.953125
1798.885742	42140.289063
1797.880859	42082.078125
1796.875000	42067.406250
1795.870117	42026.144531
1794.864258	42523.816406
1793.858398	42383.421875
1792.852539	42078.800781
1791.846680	42709.039063
1790.840820	42773.953125
1789.833984	42664.996094
1788.828125	42966.476563
1787.821289	42471.328125
1786.814453	43166.093750
1785.806641	42888.238281
1784.799805	42912.031250
1783.791992	42889.984375
1782.784180	43068.105469
1781.776367	43060.503906
1780.768555	43002.277344
1779.760742	43107.968750
1778.751953	42893.109375
1777.743164	43239.726563
1776.735352	43776.527344
1775.725586	43477.359375
1774.716797	43561.191406
1773.708008	43490.898438
1772.698242	43586.734375
1771.688477	43798.062500
1770.678711	44004.500000
1769.668945	43941.390625
1768.659180	44099.617188
1767.648438	44281.835938
1766.637695	44343.750000
1765.626953	44376.792969
1764.616211	43717.492188
1763.605469	44481.285156
1762.593750	44069.714844
1761.583008	44319.007813
1760.571289	45281.671875
1759.559570	44591.562500
1758.547852	44991.910156
1757.535156	44998.367188
1756.523438	44459.898438
1755.510742	45145.667969
1754.498047	45130.488281
1753.485352	45134.507813
1752.472656	45651.867188
1751.458984	45096.964844
1750.445313	45204.093750
1749.432617	45654.031250
1748.417969	45746.640625
1747.404297	45630.699219
1746.390625	46159.394531
1745.375977	46340.503906
1744.361328	45989.761719
1743.346680	46635.464844
1742.332031	46380.574219
1741.317383	46223.933594
1740.302734	46716.046875
1739.287109	47748.871094
1738.271484	47608.816406
1737.255859	47598.000000
1736.240234	47412.566406
1735.223633	48030.781250
1734.208008	48467.042969
1733.191406	48769.269531
1732.174805	48868.203125
1731.158203	49239.550781
1730.140625	50014.593750
1729.124023	50435.773438
1728.106445	50517.617188
1727.088867	50372.542969
1726.071289	50323.035156
1725.053711	50996.917969
1724.035156	51365.031250
1723.017578	51923.933594
1721.999023	52380.031250
1720.980469	52368.371094
1719.961914	52399.648438
1718.942383	52681.320313
1717.923828	52879.437500
1716.904297	52998.808594
1715.884766	53049.011719
1714.865234	53208.816406
1713.844727	52968.269531
1712.825195	53297.171875
1711.804688	53059.070313
1710.784180	53252.093750
1709.763672	53721.253906
1708.743164	53273.699219
1707.722656	53078.601563
1706.701172	53107.273438
1705.679688	53159.726563
1704.658203	52936.199219
1703.636719	52952.984375
1702.615234	53072.015625
1701.592773	53048.343750
1700.571289	52991.394531
1699.548828	53153.132813
1698.526367	52751.601563
1697.502930	52656.714844
1696.480469	52500.093750
1695.457031	52602.417969
1694.433594	52388.863281
1693.410156	52493.542969
1692.386719	52503.226563
1691.363281	52676.671875
1690.338867	52648.343750
1689.314453	52643.753906
1688.290039	52285.703125
1687.265625	52421.105469
1686.241211	52689.257813
1685.215820	52748.667969
1684.191406	52855.464844
1683.166016	53175.531250
1682.140625	53073.679688
1681.115234	53090.324219
1680.088867	53104.593750
1679.062500	53445.695313
1678.037109	53433.843750
1677.010742	54245.906250
1675.983398	53751.015625
1674.957031	53455.097656
1673.930664	53959.101563
1672.903320	54134.062500
1671.875977	54682.707031
1670.848633	54524.000000
1669.820313	54620.726563
1668.792969	54660.679688
1667.764648	54655.703125
1666.736328	54534.917969
1665.708008	54974.195313
1664.679688	55032.945313
1663.651367	55438.906250
1662.622070	55731.359375
1661.592773	55695.484375
1660.563477	55541.582031
1659.534180	55977.835938
1658.504883	56359.656250
1657.474609	55717.273438
1656.444336	56577.910156
1655.415039	56473.507813
1654.383789	56475.265625
1653.353516	57137.242188
1652.323242	56679.160156
1651.291992	57347.929688
1650.260742	57648.820313
1649.229492	57407.660156
1648.198242	57807.371094
1647.166016	57858.339844
1646.134766	58392.058594
1645.102539	58624.199219
1644.070313	58571.402344
1643.038086	58746.933594
1642.004883	59270.691406
1640.972656	59648.382813
1639.939453	59574.261719
1638.906250	60186.964844
1637.873047	60409.074219
1636.839844	60739.257813
1635.805664	60923.574219
1634.772461	61321.707031
1633.738281	62203.789063
1632.704102	62246.765625
1631.668945	62952.179688
1630.634766	63178.199219
1629.599609	63777.519531
1628.565430	64270.964844
1627.530273	64783.015625
1626.494141	65869.906250
1625.458984	66301.703125
1624.422852	67308.156250
1623.387695	68419.812500
1622.351563	69479.476563
1621.315430	71054.648438
1620.278320	73053.617188
1619.242188	74207.992188
1618.205078	76718.953125
1617.167969	78966.570313
1616.130859	81801.453125
1615.093750	83468.773438
1614.055664	85882.601563
1613.018555	88141.031250
1611.980469	90024.054688
1610.942383	90012.703125
1609.904297	90434.320313
1608.865234	90125.718750
1607.827148	88858.015625
1606.788086	87326.437500
1605.749023	85091.453125
1604.709961	83177.601563
1603.669922	81484.195313
1602.630859	79782.031250
1601.590820	78414.671875
1600.550781	77477.734375
1599.510742	76615.890625
1598.470703	75546.460938
1597.429688	75696.468750
1596.389648	74440.781250
1595.348633	74030.648438
1594.307617	73907.750000
1593.265625	73472.171875
1592.224609	72952.750000
1591.182617	73198.695313
1590.140625	71671.882813
1589.098633	72134.835938
1588.056641	72096.328125
1587.014648	71365.460938
1585.971680	71261.835938
1584.928711	70948.507813
1583.886719	71168.851563
1582.842773	71058.320313
1581.799805	71152.789063
1580.755859	71345.023438
1579.712891	70885.265625
1578.668945	71037.898438
1577.625000	71593.132813
1576.580078	71726.968750
1575.536133	72053.859375
1574.491211	72448.093750
1573.446289	72835.210938
1572.401367	73261.710938
1571.356445	73674.109375
1570.311523	73044.953125
1569.265625	73601.335938
1568.219727	73932.109375
1567.173828	73779.515625
1566.127930	73085.734375
1565.082031	73237.585938
1564.035156	72927.289063
1562.988281	72621.734375
1561.941406	72288.437500
1560.894531	71992.390625
1559.847656	72636.218750
1558.799805	72270.601563
1557.751953	72023.421875
1556.704102	72131.156250
1555.656250	72278.265625
1554.608398	71878.195313
1553.560547	72324.312500
1552.511719	71810.804688
1551.462891	72615.914063
1550.414063	72343.476563
1549.365234	72024.804688
1548.315430	71905.406250
1547.265625	71899.507813
1546.216797	71914.437500
1545.166992	72024.265625
1544.116211	71634.171875
1543.066406	71248.851563
1542.015625	71421.187500
1540.965820	71695.234375
1539.915039	71751.796875
1538.863281	71549.375000
1537.812500	71030.312500
1536.760742	70985.257813
1535.709961	70882.445313
1534.658203	71232.515625
1533.605469	70064.742188
1532.553711	70024.500000
1531.501953	70023.523438
1530.449219	70165.695313
1529.396484	69511.406250
1528.343750	69240.476563
1527.290039	69078.093750
1526.237305	69109.578125
1525.183594	68880.375000
1524.129883	68496.734375
1523.076172	68618.226563
1522.022461	68119.476563
1520.968750	69137.679688
1519.914063	68848.750000
1518.859375	68262.656250
1517.804688	67990.101563
1516.750000	68242.835938
1515.694336	68184.562500
1514.639648	67764.789063
1513.583984	68441.031250
1512.528320	68154.859375
1511.472656	67834.273438
1510.416016	67635.750000
1509.360352	67490.203125
1508.303711	67487.320313
1507.247070	67594.828125
1506.190430	67789.664063
1505.132813	67283.257813
1504.076172	67705.632813
1503.018555	67617.664063
1501.960938	67552.710938
1500.903320	67437.234375
1499.844727	67225.328125
1498.787109	66857.328125
1497.728516	66735.140625
1496.669922	67035.398438
1495.611328	66906.328125
1494.552734	67337.242188
1493.493164	66134.375000
1492.434570	66161.523438
1491.375000	66493.710938
1490.315430	66103.414063
1489.254883	66210.796875
1488.195313	66091.187500
1487.134766	66748.593750
1486.074219	66072.085938
1485.013672	65835.710938
1483.953125	66167.515625
1482.892578	66194.585938
1481.831055	65862.132813
1480.769531	66434.148438
1479.708008	65886.593750
1478.646484	66021.250000
1477.583984	66538.000000
1476.522461	66345.328125
1475.459961	66235.070313
1474.397461	65994.492188
1473.334961	66421.679688
1472.271484	66204.007813
1471.208984	65940.695313
1470.145508	66609.914063
1469.082031	66689.367188
1468.018555	66245.617188
1466.954102	66325.093750
1465.890625	66486.757813
1464.826172	66698.601563
1463.761719	66033.710938
1462.697266	67208.773438
1461.631836	66395.687500
1460.567383	66742.000000
1459.501953	66736.867188
1458.436523	66604.000000
1457.371094	66443.812500
1456.305664	65994.109375
1455.239258	66383.484375
1454.172852	66161.875000
1453.107422	66489.539063
1452.040039	66479.882813
1450.973633	66340.375000
1449.907227	66462.843750
1448.839844	66252.789063
1447.772461	66238.617188
1446.705078	66527.195313
1445.637695	66622.218750
1444.569336	67101.773438
1443.500977	66753.000000
1442.432617	67314.242188
1441.364258	67072.437500
1440.295898	66860.281250
1439.227539	67102.906250
1438.158203	67725.046875
1437.088867	67324.242188
1436.019531	68030.187500
1434.950195	68027.046875
1433.879883	68605.406250
1432.810547	68354.617188
1431.740234	69127.976563
1430.669922	69195.007813
1429.598633	69709.171875
1428.528320	69544.585938
1427.457031	70373.898438
1426.386719	70969.234375
1425.314453	71167.414063
1424.243164	71494.789063
1423.171875	71742.679688
1422.099609	72271.593750
1421.027344	72448.984375
1419.955078	72299.984375
1418.882813	72529.421875
1417.810547	72149.382813
1416.737305	72149.992188
1415.664063	71849.421875
1414.590820	71874.984375
1413.517578	71687.742188
1412.444336	71649.945313
1411.370117	70709.257813
1410.295898	70318.695313
1409.221680	69735.992188
1408.147461	69454.304688
1407.073242	69003.117188
1405.998047	69314.000000
1404.922852	69104.859375
1403.847656	69026.882813
1402.772461	68813.343750
1401.697266	68706.070313
1400.621094	68799.867188
1399.544922	68624.867188
1398.468750	68901.539063
1397.392578	69634.148438
1396.316406	69799.929688
1395.239258	70004.015625
1394.162109	70826.273438
1393.084961	72074.625000
1392.007813	73196.203125
1390.930664	73690.437500
1389.852539	74119.687500
1388.774414	74548.929688
1387.696289	74978.179688
1386.618164	75407.421875
1385.540039	75836.671875
1384.460938	75811.742188
1383.382813	75169.679688
1382.303711	75352.054688
1381.223633	74899.421875
1380.144531	74910.687500
1379.064453	74530.320313
1377.985352	74089.320313
1376.905273	74060.218750
1375.825195	73781.429688
1374.744141	74334.898438
1373.664063	73586.171875
1372.583008	73509.953125
1371.501953	74060.914063
1370.420898	73393.546875
1369.338867	73548.843750
1368.257813	73661.390625
1367.175781	73679.554688
1366.093750	74301.843750
1365.011719	74297.421875
1363.929688	74571.382813
1362.846680	75516.390625
1361.763672	76128.906250
1360.680664	76880.320313
1359.597656	76769.984375
1358.514648	76960.242188
1357.430664	76246.664063
1356.346680	76542.328125
1355.262695	76246.046875
1354.178711	75169.859375
1353.094727	74134.398438
1352.009766	74000.031250
1350.925781	72732.164063
1349.840820	72318.117188
1348.755859	71373.476563
1347.669922	70865.781250
1346.584961	71070.125000
1345.499023	70593.992188
1344.413086	70064.320313
1343.327148	70215.000000
1342.240234	70032.304688
1341.154297	69818.367188
1340.067383	69716.312500
1338.980469	69567.343750
1337.893555	69867.726563
1336.805664	69656.195313
1335.718750	69681.593750
1334.630859	69608.687500
1333.542969	69672.054688
1332.455078	69858.234375
1331.367188	69414.656250
1330.278320	70225.914063
1329.189453	70186.437500
1328.100586	70680.351563
1327.011719	71595.796875
1325.922852	71772.484375
1324.833008	72145.382813
1323.743164	72899.492188
1322.653320	73994.468750
1321.563477	75447.968750
1320.473633	76087.390625
1319.382813	78092.632813
1318.291992	78807.093750
1317.201172	80744.289063
1316.110352	82760.953125
1315.019531	83830.476563
1313.927734	85084.398438
1312.835938	85999.507813
1311.744141	85901.601563
1310.652344	85509.992188
1309.560547	84528.937500
1308.467773	83844.085938
1307.375000	82011.867188
1306.282227	81011.953125
1305.189453	79454.359375
1304.095703	77972.906250
1303.002930	77196.500000
1301.909180	76044.843750
1300.815430	75111.320313
1299.721680	74922.250000
1298.626953	74104.750000
1297.533203	73638.367188
1296.438477	73993.562500
1295.343750	74082.265625
1294.248047	73880.218750
1293.153320	75235.859375
1292.057617	74856.195313
1290.961914	74563.171875
1289.866211	74647.242188
1288.770508	75223.507813
1287.674805	75165.546875
1286.578125	75384.656250
1285.481445	74732.789063
1284.384766	74849.976563
1283.288086	74606.031250
1282.190430	74523.859375
1281.092773	75097.171875
1279.996094	74370.656250
1278.897461	74016.289063
1277.799805	74133.453125
1276.702148	73564.609375
1275.603516	73703.929688
1274.504883	73555.640625
1273.406250	73699.335938
1272.307617	73168.554688
1271.208008	72640.179688
1270.108398	72956.359375
1269.008789	72023.773438
1267.909180	71696.953125
1266.809570	70921.781250
1265.708984	71295.460938
1264.609375	70430.093750
1263.508789	71028.937500
1262.407227	70941.000000
1261.306641	70091.609375
1260.206055	70228.953125
1259.104492	70083.835938
1258.002930	70027.000000
1256.901367	69449.664063
1255.798828	69520.867188
1254.697266	69212.812500
1253.594727	69253.156250
1252.492188	68894.570313
1251.389648	68890.882813
1250.286133	68898.210938
1249.183594	68830.632813
1248.080078	68912.843750
1246.976563	69008.234375
1245.872070	68687.492188
1244.768555	68754.265625
1243.664063	68464.484375
1242.560547	69246.398438
1241.455078	68877.421875
1240.350586	69205.859375
1239.246094	69382.421875
1238.140625	69745.820313
1237.035156	69040.656250
1235.929688	69105.046875
1234.824219	69492.460938
1233.717773	69282.093750
1232.612305	69210.195313
1231.505859	69021.914063
1230.399414	68668.992188
1229.291992	68979.273438
1228.185547	68360.867188
1227.078125	68361.617188
1225.970703	68020.031250
1224.863281	67994.507813
1223.755859	67857.117188
1222.647461	67632.046875
1221.539063	67735.968750
1220.430664	67127.328125
1219.322266	66915.648438
1218.213867	67039.367188
1217.104492	67049.093750
1215.995117	66430.046875
1214.885742	66538.445313
1213.776367	66666.507813
1212.666992	67081.359375
1211.556641	66539.375000
1210.446289	66680.492188
1209.335938	66729.640625
1208.225586	66689.062500
1207.115234	67193.210938
1206.003906	67594.382813
1204.892578	67641.132813
1203.781250	67397.062500
1202.669922	67771.734375
1201.557617	68345.156250
1200.446289	67705.554688
1199.333984	68169.531250
1198.221680	68207.367188
1197.108398	68491.992188
1195.996094	69058.195313
1194.882813	69089.289063
1193.769531	69098.546875
1192.656250	69419.890625
1191.542969	69219.593750
1190.428711	68967.007813
1189.314453	68928.281250
1188.200195	68876.476563
1187.085938	68344.976563
1185.971680	68016.421875
1184.856445	68378.945313
1183.741211	67427.218750
1182.625977	68009.781250
1181.510742	67666.257813
1180.395508	67614.726563
1179.279297	67974.804688
1178.163086	67522.601563
1177.046875	67445.000000
1175.930664	67406.593750
1174.813477	67564.046875
1173.697266	67223.203125
1172.580078	67424.140625
1171.462891	67453.179688
1170.344727	66673.273438
