#Wave		#Intensity
2001.242188	31248.830078
2000.272461	31602.250000
1999.302734	31574.179688
1998.333008	31060.021484
1997.363281	31603.240234
1996.392578	31402.349609
1995.422852	31364.310547
1994.452148	31519.083984
1993.481445	31601.201172
1992.510742	31297.824219
1991.540039	31450.021484
1990.568359	31644.701172
1989.596680	31581.634766
1988.625977	31808.738281
1987.654297	31840.693359
1986.681641	31357.554688
1985.709961	31594.574219
1984.738281	31844.007813
1983.765625	31848.441406
1982.792969	31907.841797
1981.820313	31425.107422
1980.847656	31641.919922
1979.874023	31771.246094
1978.901367	31513.507813
1977.927734	31702.724609
1976.954102	31519.966797
1975.980469	31696.636719
1975.006836	31576.318359
1974.032227	32102.177734
1973.058594	31340.794922
1972.083984	31711.888672
1971.109375	31359.759766
1970.134766	31793.042969
1969.160156	31894.664063
1968.184570	31644.861328
1967.209961	32062.914063
1966.234375	31636.287109
1965.258789	32006.867188
1964.283203	31513.158203
1963.306641	31930.935547
1962.331055	31803.365234
1961.354492	31932.212891
1960.377930	31717.582031
1959.401367	31751.845703
1958.424805	31584.587891
1957.447266	31867.591797
1956.470703	31436.759766
1955.493164	31742.066406
1954.515625	31597.294922
1953.538086	31643.964844
1952.560547	31921.734375
1951.582031	32142.257813
1950.604492	31836.035156
1949.625977	31477.757813
1948.647461	31586.486328
1947.668945	31724.970703
1946.689453	31719.417969
1945.710938	31942.218750
1944.731445	31800.136719
1943.751953	31960.812500
1942.772461	32205.777344
1941.792969	31867.769531
1940.813477	31728.273438
1939.833008	31789.666016
1938.852539	32054.318359
1937.873047	32105.712891
1936.891602	32030.701172
1935.911133	31906.160156
1934.930664	32046.734375
1933.949219	32031.212891
1932.967773	32094.945313
1931.986328	32413.681641
1931.004883	32544.162109
1930.023438	32209.265625
1929.041016	31980.896484
1928.059570	32598.816406
1927.077148	32177.496094
1926.094727	32614.601563
1925.112305	32517.386719
1924.128906	32301.521484
1923.146484	32528.240234
1922.163086	31832.937500
1921.179688	32156.035156
1920.196289	32395.011719
1919.212891	32712.955078
1918.228516	32141.601563
1917.245117	32471.822266
1916.260742	32678.472656
1915.276367	32341.943359
1914.291992	32494.240234
1913.307617	32345.410156
1912.322266	32438.433594
1911.336914	32435.212891
1910.352539	32182.875000
1909.367188	32364.652344
1908.380859	32156.794922
1907.395508	32565.308594
1906.409180	32860.300781
1905.423828	32489.814453
1904.437500	32735.433594
1903.451172	32663.177734
1902.463867	32652.521484
1901.477539	31880.921875
1900.490234	32833.113281
1899.503906	32595.951172
1898.516602	32661.609375
1897.528320	32655.878906
1896.541016	32504.982422
1895.553711	32678.859375
1894.565430	32584.578125
1893.577148	32964.945313
1892.588867	32410.867188
1891.600586	32626.423828
1890.611328	32750.962891
1889.623047	32644.458984
1888.633789	32712.439453
1887.644531	32917.960938
1886.655273	32801.656250
1885.666016	32869.566406
1884.675781	33116.687500
1883.686523	32968.492188
1882.696289	32952.886719
1881.706055	32652.623047
1880.715820	32725.402344
1879.724609	32893.824219
1878.734375	32581.462891
1877.743164	32355.037109
1876.751953	32952.503906
1875.760742	32757.957031
1874.769531	32860.042969
1873.778320	33074.820313
1872.786133	32672.091797
1871.793945	32742.291016
1870.801758	32881.042969
1869.809570	33083.414063
1868.817383	32994.355469
1867.824219	33113.402344
1866.832031	32894.648438
1865.838867	33167.835938
1864.845703	32870.855469
1863.851563	32674.271484
1862.858398	33057.410156
1861.865234	33305.917969
1860.871094	33062.902344
1859.876953	32888.417969
1858.882813	32987.730469
1857.887695	33067.460938
1856.893555	33125.167969
1855.898438	33263.468750
1854.904297	33284.484375
1853.909180	33354.332031
1852.913086	33043.277344
1851.917969	33398.746094
1850.922852	33099.992188
1849.926758	33338.191406
1848.930664	33583.625000
1847.934570	33392.328125
1846.938477	33196.218750
1845.941406	33548.835938
1844.945313	33377.144531
1843.948242	33490.714844
1842.951172	33487.261719
1841.954102	33729.917969
1840.956055	33526.640625
1839.958984	33876.382813
1838.960938	33826.582031
1837.962891	33608.777344
1836.964844	34036.230469
1835.966797	33487.410156
1834.968750	34270.058594
1833.969727	33478.054688
1832.970703	33720.316406
1831.971680	33977.089844
1830.972656	33927.332031
1829.973633	34094.003906
1828.973633	34066.121094
1827.974609	34295.906250
1826.974609	33789.214844
1825.974609	34169.621094
1824.974609	34122.300781
1823.973633	34808.578125
1822.973633	34061.710938
1821.972656	34458.792969
1820.971680	34086.128906
1819.970703	34383.542969
1818.968750	34491.550781
1817.967773	34434.519531
1816.965820	34387.207031
1815.964844	34373.871094
1814.961914	34573.957031
1813.959961	34744.875000
1812.958008	34634.503906
1811.955078	34727.781250
1810.953125	34697.425781
1809.950195	34204.269531
1808.947266	34677.929688
1807.943359	34725.105469
1806.940430	34917.570313
1805.936523	35030.062500
1804.932617	34922.207031
1803.928711	34582.019531
1802.924805	34926.835938
1801.920898	34811.789063
1800.916016	34933.871094
1799.911133	34758.394531
1798.907227	34810.105469
1797.901367	34861.917969
1796.896484	34913.679688
1795.891602	34965.437500
1794.885742	35017.250000
1793.879883	35069.062500
1792.874023	35120.875000
1791.868164	35172.683594
1790.862305	35224.496094
1789.855469	35276.359375
1788.848633	35328.218750
1787.842773	35380.031250
1786.834961	35535.480469
1785.828125	35343.417969
1784.821289	35580.835938
1783.813477	35323.707031
1782.805664	35604.449219
1781.797852	35641.566406
1780.790039	35497.863281
1779.782227	35710.933594
1778.773438	35921.519531
1777.764648	36042.875000
1776.755859	35330.671875
1775.747070	35842.281250
1774.738281	35790.195313
1773.729492	35543.101563
1772.719727	36386.609375
1771.709961	36206.886719
1770.700195	36068.136719
1769.690430	35830.785156
1768.680664	36606.281250
1767.669922	36537.281250
1766.659180	36122.015625
1765.648438	36293.554688
1764.637695	36691.003906
1763.626953	36530.695313
1762.615234	37091.367188
1761.604492	36657.140625
1760.592773	36595.414063
1759.581055	36845.937500
1758.569336	36716.957031
1757.556641	36952.964844
1756.544922	37186.484375
1755.532227	37196.710938
1754.519531	37341.316406
1753.506836	37066.000000
1752.494141	37469.648438
1751.480469	37558.957031
1750.466797	37353.285156
1749.454102	37591.234375
1748.440430	37654.101563
1747.425781	37295.128906
1746.412109	37494.613281
1745.397461	38036.636719
1744.383789	37572.378906
1743.369141	37709.437500
1742.353516	37391.468750
1741.338867	37760.738281
1740.324219	38012.582031
1739.308594	38113.558594
1738.292969	38250.390625
1737.277344	38379.992188
1736.261719	38471.277344
1735.245117	38634.273438
1734.229492	39182.199219
1733.212891	38866.855469
1732.196289	38879.097656
1731.179688	39168.570313
1730.162109	39677.769531
1729.145508	39534.570313
1728.127930	39556.238281
1727.110352	39828.660156
1726.092773	40089.042969
1725.075195	40323.074219
1724.056641	40705.011719
1723.039063	40659.621094
1722.020508	40463.917969
1721.001953	41580.417969
1719.983398	41026.828125
1718.963867	41339.132813
1717.945313	41064.753906
1716.925781	41701.164063
1715.906250	41374.378906
1714.886719	41607.750000
1713.867188	41748.109375
1712.846680	41936.066406
1711.826172	41573.734375
1710.806641	41425.859375
1709.786133	41689.960938
1708.764648	41715.906250
1707.744141	42125.050781
1706.722656	41870.085938
1705.701172	42171.988281
1704.679688	42145.480469
1703.658203	42064.277344
1702.636719	42484.882813
1701.614258	41982.792969
1700.592773	42117.988281
1699.570313	41929.882813
1698.547852	42214.750000
1697.524414	42404.472656
1696.501953	41964.597656
1695.478516	42344.308594
1694.456055	42082.703125
1693.432617	42253.316406
1692.408203	42333.656250
1691.384766	42399.730469
1690.360352	42449.164063
1689.336914	42678.898438
1688.312500	42372.429688
1687.288086	42855.875000
1686.262695	42845.898438
1685.238281	43158.378906
1684.212891	42946.855469
1683.187500	43830.398438
1682.162109	43367.640625
1681.136719	43814.843750
1680.110352	43563.078125
1679.084961	43593.242188
1678.058594	43689.699219
1677.032227	43897.398438
1676.005859	43809.121094
1674.978516	44255.761719
1673.952148	44058.601563
1672.924805	44460.082031
1671.897461	44807.011719
1670.870117	44311.855469
1669.842773	44412.761719
1668.814453	44317.398438
1667.787109	44777.562500
1666.758789	44989.410156
1665.730469	44953.062500
1664.701172	44526.910156
1663.672852	44908.753906
1662.643555	44910.226563
1661.615234	45664.945313
1660.585938	45373.527344
1659.555664	45516.539063
1658.526367	45187.488281
1657.497070	45476.773438
1656.466797	45567.777344
1655.436523	45387.492188
1654.406250	45539.796875
1653.375977	45498.695313
1652.344727	45278.433594
1651.313477	45235.031250
1650.282227	45422.593750
1649.250977	45885.773438
1648.219727	45653.812500
1647.188477	45633.921875
1646.156250	45858.957031
1645.124023	45966.179688
1644.091797	46111.027344
1643.059570	45895.699219
1642.027344	46202.886719
1640.994141	46368.785156
1639.961914	46181.753906
1638.928711	46279.382813
1637.895508	46830.847656
1636.861328	46641.472656
1635.828125	46858.859375
1634.793945	46942.187500
1633.759766	47457.886719
1632.725586	47334.316406
1631.691406	47450.398438
1630.656250	47806.011719
1629.622070	47238.609375
1628.586914	47983.878906
1627.551758	48421.359375
1626.516602	48623.980469
1625.480469	48671.648438
1624.445313	49420.816406
1623.409180	49437.824219
1622.373047	50327.308594
1621.336914	50348.835938
1620.300781	51273.007813
1619.263672	52522.679688
1618.227539	53207.070313
1617.190430	54282.546875
1616.153320	55184.265625
1615.115234	56612.714844
1614.078125	57438.746094
1613.040039	58983.363281
1612.001953	58874.527344
1610.963867	59350.929688
1609.925781	59539.292969
1608.887695	59416.371094
1607.848633	58383.406250
1606.809570	57818.632813
1605.770508	56622.605469
1604.731445	55567.300781
1603.692383	55005.660156
1602.652344	53534.945313
1601.613281	53410.894531
1600.573242	52777.496094
1599.533203	51870.984375
1598.492188	51436.628906
1597.452148	50680.140625
1596.411133	50453.957031
1595.370117	50358.585938
1594.329102	50214.230469
1593.288086	49309.132813
1592.247070	49295.675781
1591.205078	49312.550781
1590.163086	48879.250000
1589.121094	49038.441406
1588.079102	48647.312500
1587.036133	48783.171875
1585.994141	48471.468750
1584.951172	48858.992188
1583.908203	48552.042969
1582.865234	48739.066406
1581.822266	48364.699219
1580.778320	48789.218750
1579.734375	49034.300781
1578.691406	49118.671875
1577.646484	49391.535156
1576.602539	49354.796875
1575.558594	49604.250000
1574.513672	49807.089844
1573.468750	49702.843750
1572.423828	49531.195313
1571.378906	50080.355469
1570.333008	49952.867188
1569.288086	49281.566406
1568.242188	49714.281250
1567.196289	49026.996094
1566.150391	48964.816406
1565.103516	48904.980469
1564.057617	48480.597656
1563.010742	48153.871094
1561.963867	47978.144531
1560.916992	47967.257813
1559.869141	48032.949219
1558.822266	47437.406250
1557.774414	47644.660156
1556.726563	47939.964844
1555.678711	46876.359375
1554.630859	47354.843750
1553.582031	47508.640625
1552.534180	47032.015625
1551.485352	46724.703125
1550.436523	46751.109375
1549.386719	46925.742188
1548.337891	46912.726563
1547.288086	46809.414063
1546.238281	46884.390625
1545.188477	46688.527344
1544.138672	46705.640625
1543.088867	47018.914063
1542.038086	47093.792969
1540.987305	47318.988281
1539.936523	46679.199219
1538.885742	46543.687500
1537.834961	46655.578125
1536.783203	46950.019531
1535.731445	46800.660156
1534.679688	47362.988281
1533.627930	46975.664063
1532.576172	47089.679688
1531.523438	47021.218750
1530.471680	46941.234375
1529.418945	46755.089844
1528.366211	47238.335938
1527.312500	46717.597656
1526.259766	47131.460938
1525.206055	46839.296875
1524.152344	46787.093750
1523.098633	46889.410156
1522.044922	46516.746094
1520.990234	46621.375000
1519.936523	46550.804688
1518.881836	46554.000000
1517.827148	46524.933594
1516.772461	46608.746094
1515.716797	46402.339844
1514.662109	46534.500000
1513.606445	46376.523438
1512.550781	46352.109375
1511.495117	45710.921875
1510.438477	46319.410156
1509.382813	46117.867188
1508.326172	46245.320313
1507.269531	46338.234375
1506.212891	46741.523438
1505.155273	46381.414063
1504.098633	46354.718750
1503.041016	46316.542969
1501.983398	46731.027344
1500.925781	46272.386719
1499.867188	46252.613281
1498.809570	46395.898438
1497.750977	45971.996094
1496.692383	46218.578125
1495.633789	46187.347656
1494.575195	46172.187500
1493.515625	46248.808594
1492.457031	46527.273438
1491.397461	46590.039063
1490.337891	46217.074219
1489.277344	46371.578125
1488.217773	46523.734375
1487.157227	45889.687500
1486.096680	46353.523438
1485.036133	46155.050781
1483.975586	46426.246094
1482.915039	46543.890625
1481.853516	46334.035156
1480.791992	46783.628906
1479.730469	46484.523438
1478.668945	46606.644531
1477.606445	46600.574219
1476.544922	46779.824219
1475.482422	47048.214844
1474.419922	46749.324219
1473.357422	46832.402344
1472.293945	47182.937500
1471.231445	47151.617188
1470.167969	47341.988281
1469.104492	47239.812500
1468.041016	47153.660156
1466.976563	47062.968750
1465.913086	47611.761719
1464.848633	47568.968750
1463.784180	47437.156250
1462.719727	47490.269531
1461.655273	47719.085938
1460.589844	48011.707031
1459.524414	47711.085938
1458.458984	47996.753906
1457.393555	48216.187500
1456.328125	48462.898438
1455.261719	48399.488281
1454.196289	48263.160156
1453.129883	48491.496094
1452.063477	48305.070313
1450.996094	48535.589844
1449.929688	48800.187500
1448.862305	48547.761719
1447.794922	48857.792969
1446.727539	48935.523438
1445.660156	49070.117188
1444.591797	49691.636719
1443.524414	49309.585938
1442.456055	50131.011719
1441.387695	49830.890625
1440.318359	50269.902344
1439.250000	49837.992188
1438.180664	50833.757813
1437.111328	51372.343750
1436.041992	51249.496094
1434.972656	51440.214844
1433.903320	51412.796875
1432.833008	51676.085938
1431.762695	51691.773438
1430.692383	52604.207031
1429.622070	52245.195313
1428.550781	52676.074219
1427.480469	52920.734375
1426.409180	53072.292969
1425.337891	53114.917969
1424.266602	53819.730469
1423.194336	54367.832031
1422.122070	53952.261719
1421.050781	53996.957031
1419.978516	54415.554688
1418.905273	54219.972656
1417.833008	54758.437500
1416.759766	54313.718750
1415.687500	53916.707031
1414.614258	53988.515625
1413.540039	53881.460938
1412.466797	53586.589844
1411.392578	52834.707031
1410.319336	52433.785156
1409.245117	52329.339844
1408.169922	52840.113281
1407.095703	52679.097656
1406.020508	53001.964844
1404.946289	53211.691406
1403.871094	53195.332031
1402.794922	53576.679688
1401.719727	54048.257813
1400.643555	53812.640625
1399.568359	53976.851563
1398.492188	53750.359375
1397.415039	54117.707031
1396.338867	53584.285156
1395.261719	53856.738281
1394.185547	53560.472656
1393.108398	54509.628906
1392.031250	54549.433594
1390.953125	54580.203125
1389.875977	55088.972656
1388.797852	55680.964844
1387.719727	55748.972656
1386.641602	55816.980469
1385.562500	55885.050781
1384.484375	55953.058594
1383.405273	56021.128906
1382.326172	56089.199219
1381.247070	55529.714844
1380.166992	55220.308594
1379.087891	55291.378906
1378.007813	55076.632813
1376.927734	54992.460938
1375.847656	54887.382813
1374.767578	54782.308594
1373.686523	54677.136719
1372.605469	54312.046875
1371.524414	54171.878906
1370.443359	53753.066406
1369.362305	53626.523438
1368.280273	53484.300781
1367.199219	53849.781250
1366.117188	53777.183594
1365.034180	54061.640625
1363.952148	54191.082031
1362.870117	54358.632813
1361.787109	54674.242188
1360.704102	55209.628906
1359.621094	55345.492188
1358.537109	54837.550781
1357.454102	54816.445313
1356.370117	54530.757813
1355.286133	53964.949219
1354.202148	54098.660156
1353.118164	53833.421875
1352.033203	53276.996094
1350.948242	52859.664063
1349.863281	52502.953125
1348.778320	52699.500000
1347.693359	52591.468750
1346.607422	52423.035156
1345.521484	52366.570313
1344.435547	52641.308594
1343.349609	52206.703125
1342.263672	51886.339844
1341.176758	51941.828125
1340.090820	52109.101563
1339.003906	52242.777344
1337.916016	51714.742188
1336.829102	52418.347656
1335.741211	52075.929688
1334.654297	52549.097656
1333.566406	52537.367188
1332.478516	52154.910156
1331.389648	52627.796875
1330.301758	52136.062500
1329.212891	52588.687500
1328.124023	52860.382813
1327.035156	53167.671875
1325.945313	53240.609375
1324.856445	53099.382813
1323.766602	53607.167969
1322.676758	54228.484375
1321.586914	54691.289063
1320.496094	55474.886719
1319.406250	55750.105469
1318.315430	56363.886719
1317.224609	57144.523438
1316.133789	58118.644531
1315.041992	58620.316406
1313.951172	59453.550781
1312.859375	60168.496094
1311.767578	59968.429688
1310.675781	59276.652344
1309.583008	59515.113281
1308.491211	58721.335938
1307.398438	59073.234375
1306.305664	57821.746094
1305.212891	57475.570313
1304.119141	56858.332031
1303.026367	56774.703125
1301.932617	57055.515625
1300.838867	57202.925781
1299.744141	57412.476563
1298.650391	57826.265625
1297.555664	58324.277344
1296.461914	59090.734375
1295.366211	59459.593750
1294.271484	59238.000000
1293.176758	59162.929688
1292.081055	58903.753906
1290.985352	58693.464844
1289.889648	58392.328125
1288.793945	57920.570313
1287.697266	58063.039063
1286.601563	57044.050781
1285.504883	57193.273438
1284.408203	56569.187500
1283.311523	55513.355469
1282.213867	55924.113281
1281.116211	55409.097656
1280.018555	55266.218750
1278.920898	55313.757813
1277.823242	54630.917969
1276.725586	54032.410156
1275.626953	54066.867188
1274.528320	53953.105469
1273.429688	53952.171875
1272.330078	54079.488281
1271.231445	53452.871094
1270.131836	53140.355469
1269.032227	53464.433594
1267.932617	52931.062500
1266.833008	52490.671875
1265.732422	52872.113281
1264.632813	52573.222656
1263.532227	52543.820313
1262.430664	52675.578125
1261.330078	52262.105469
1260.228516	51978.984375
1259.127930	51925.429688
1258.026367	52070.429688
1256.924805	51961.730469
1255.822266	51947.894531
1254.720703	51740.039063
1253.618164	51166.324219
1252.515625	52003.375000
1251.413086	51584.070313
1250.309570	51446.925781
1249.207031	51395.734375
1248.103516	51437.062500
1247.000000	51090.820313
1245.895508	51015.500000
1244.791992	51450.882813
1243.687500	51320.500000
1242.583008	51603.835938
1241.478516	51882.667969
1240.374023	52051.417969
1239.269531	51498.761719
1238.164063	51911.582031
1237.058594	52161.566406
1235.953125	52204.847656
1234.847656	52162.402344
1233.741211	52137.546875
1232.635742	52079.746094
1231.529297	52008.789063
1230.422852	52287.019531
1229.315430	52270.933594
1228.208984	52145.089844
1227.101563	52221.214844
1225.994141	52523.332031
1224.886719	52355.820313
1223.779297	52817.933594
1222.670898	52670.160156
1221.562500	52314.125000
1220.454102	52293.652344
1219.345703	52343.332031
1218.237305	52202.320313
1217.127930	51969.328125
1216.018555	52205.253906
1214.909180	52489.281250
1213.799805	51877.476563
1212.690430	52027.886719
1211.580078	52141.023438
1210.469727	51976.136719
1209.359375	52251.179688
1208.249023	52464.859375
1207.138672	52240.929688
1206.027344	52581.386719
1204.916016	52893.289063
1203.804688	53404.042969
1202.693359	52952.742188
1201.581055	53098.292969
1200.469727	53322.453125
1199.357422	53470.062500
1198.245117	53396.980469
1197.131836	53703.953125
1196.019531	53698.550781
1194.906250	54241.144531
1193.792969	53716.113281
1192.679688	54014.066406
1191.566406	54032.601563
1190.452148	53987.859375
1189.337891	53971.484375
1188.223633	53484.046875
1187.109375	53432.878906
1185.995117	52684.097656
1184.879883	52500.128906
1183.764648	52340.199219
1182.649414	52062.664063
1181.534180	51552.125000
1180.418945	52058.945313
1179.302734	52008.089844
1178.186523	52020.386719
1177.070313	51606.003906
1175.954102	51890.433594
1174.837891	51922.328125
1173.720703	51717.050781
1172.603516	51492.269531
1171.486328	51815.652344
1170.369141	51279.972656
