#Wave		#Intensity
2001.182617	35018.269531
2000.212891	35329.074219
1999.243164	35383.050781
1998.273438	34745.457031
1997.303711	34844.609375
1996.333008	34911.164063
1995.363281	34802.394531
1994.392578	34823.859375
1993.421875	34845.316406
1992.451172	35187.148438
1991.479492	34853.167969
1990.508789	34924.648438
1989.537109	35213.746094
1988.566406	35092.539063
1987.594727	35233.957031
1986.622070	35307.816406
1985.650391	34981.656250
1984.677734	35292.980469
1983.706055	34981.929688
1982.733398	35320.628906
1981.760742	34864.781250
1980.788086	35056.015625
1979.814453	34949.996094
1978.841797	34816.546875
1977.868164	35379.652344
1976.894531	35136.347656
1975.920898	35220.050781
1974.947266	35251.320313
1973.972656	35073.023438
1972.999023	35076.871094
1972.024414	35499.679688
1971.049805	35116.968750
1970.075195	35098.367188
1969.099609	34962.621094
1968.125000	34961.492188
1967.149414	35306.699219
1966.173828	35487.367188
1965.198242	35134.945313
1964.222656	34757.738281
1963.247070	35167.476563
1962.270508	35208.625000
1961.294922	35264.691406
1960.318359	35308.296875
1959.341797	35232.453125
1958.364258	35129.269531
1957.387695	35329.570313
1956.410156	35686.468750
1955.433594	35125.753906
1954.456055	35383.121094
1953.478516	35155.718750
1952.500000	35278.792969
1951.522461	35516.117188
1950.543945	35539.714844
1949.565430	35146.019531
1948.586914	35619.160156
1947.608398	35230.554688
1946.629883	35671.238281
1945.650391	35359.699219
1944.671875	35450.292969
1943.692383	35473.863281
1942.712891	35819.921875
1941.733398	35300.222656
1940.752930	35182.445313
1939.773438	35449.027344
1938.792969	35244.496094
1937.812500	35624.988281
1936.832031	35623.707031
1935.851563	35379.605469
1934.870117	35331.292969
1933.888672	35275.570313
1932.908203	35422.929688
1931.926758	35404.343750
1930.945313	35447.656250
1929.962891	35260.761719
1928.981445	35346.148438
1927.999023	35349.851563
1927.016602	34984.953125
1926.034180	35466.082031
1925.051758	35877.800781
1924.069336	35483.324219
1923.085938	35536.437500
1922.102539	35510.437500
1921.119141	35457.257813
1920.135742	35841.429688
1919.152344	35373.191406
1918.168945	35678.203125
1917.184570	35449.691406
1916.200195	35315.085938
1915.215820	35560.695313
1914.231445	35342.195313
1913.247070	35454.453125
1912.261719	35662.894531
1911.276367	35217.531250
1910.291992	35536.933594
1909.306641	35555.359375
1908.320313	35790.753906
1907.334961	35557.683594
1906.348633	35810.242188
1905.363281	35638.851563
1904.376953	35462.593750
1903.390625	35453.910156
1902.403320	35504.339844
1901.416992	35818.246094
1900.429688	35898.140625
1899.443359	35286.257813
1898.456055	35991.378906
1897.467773	35763.585938
1896.480469	35858.187500
1895.493164	35984.734375
1894.504883	35813.628906
1893.516602	35625.367188
1892.528320	36000.214844
1891.540039	35607.945313
1890.550781	35582.035156
1889.562500	36094.300781
1888.573242	35284.535156
1887.583984	35934.234375
1886.594727	35584.070313
1885.605469	35310.156250
1884.615234	35760.632813
1883.625000	35400.859375
1882.635742	35630.261719
1881.645508	35859.585938
1880.654297	35588.308594
1879.664063	35773.398438
1878.673828	35779.378906
1877.682617	35895.707031
1876.691406	35734.937500
1875.700195	35598.738281
1874.708984	36161.101563
1873.716797	35917.050781
1872.725586	36217.000000
1871.733398	35664.363281
1870.741211	35834.441406
1869.749023	35970.175781
1868.755859	35924.679688
1867.763672	35747.011719
1866.770508	35801.917969
1865.777344	35979.152344
1864.784180	35838.265625
1863.791016	36260.050781
1862.797852	35911.269531
1861.803711	35902.511719
1860.809570	35967.101563
1859.815430	35836.109375
1858.821289	35707.609375
1857.827148	36097.195313
1856.832031	36088.406250
1855.837891	36416.718750
1854.842773	36368.796875
1853.847656	36269.605469
1852.852539	36722.226563
1851.856445	36359.375000
1850.861328	36033.257813
1849.865234	36378.308594
1848.869141	36240.160156
1847.873047	36467.960938
1846.876953	36261.554688
1845.879883	36379.539063
1844.883789	36068.382813
1843.886719	36554.433594
1842.889648	36296.972656
1841.892578	36558.628906
1840.895508	36635.031250
1839.897461	36579.863281
1838.899414	36239.769531
1837.901367	36167.644531
1836.903320	36648.199219
1835.905273	36605.238281
1834.907227	36445.464844
1833.908203	36928.148438
1832.909180	36870.558594
1831.910156	36720.550781
1830.911133	36760.292969
1829.912109	36600.628906
1828.912109	36642.808594
1827.913086	36271.742188
1826.913086	36800.027344
1825.913086	36973.359375
1824.913086	36903.679688
1823.912109	36987.054688
1822.912109	37036.398438
1821.911133	36760.343750
1820.910156	36819.417969
1819.909180	37045.957031
1818.908203	36568.609375
1817.906250	36846.066406
1816.904297	36900.226563
1815.903320	36646.308594
1814.900391	36911.472656
1813.898438	37111.074219
1812.896484	36663.304688
1811.893555	37044.667969
1810.891602	37004.210938
1809.888672	37162.457031
1808.885742	36920.910156
1807.881836	37219.601563
1806.878906	36992.660156
1805.875000	37283.964844
1804.871094	37117.609375
1803.867188	37355.535156
1802.863281	37656.296875
1801.859375	37359.300781
1800.854492	37306.746094
1799.849609	37242.117188
1798.844727	37370.976563
1797.839844	37405.492188
1796.834961	37527.023438
1795.830078	37513.152344
1794.824219	37216.535156
1793.818359	37110.906250
1792.812500	37582.687500
1791.806641	37556.734375
1790.799805	37455.925781
1789.793945	37420.343750
1788.787109	37814.480469
1787.780273	38104.691406
1786.773438	37986.957031
1785.766602	37673.824219
1784.758789	37874.640625
1783.751953	37675.000000
1782.744141	37735.871094
1781.736328	37762.968750
1780.728516	37524.875000
1779.719727	37814.714844
1778.711914	38171.925781
1777.703125	37970.023438
1776.694336	38023.542969
1775.685547	37853.046875
1774.676758	38116.074219
1773.666992	38000.996094
1772.657227	37912.437500
1771.648438	37855.199219
1770.638672	38214.292969
1769.627930	38164.234375
1768.618164	38222.445313
1767.607422	38458.613281
1766.597656	38584.082031
1765.586914	38324.812500
1764.576172	38471.890625
1763.564453	38551.617188
1762.553711	38958.128906
1761.541992	38718.191406
1760.530273	38800.230469
1759.518555	38870.230469
1758.506836	39199.550781
1757.495117	39159.007813
1756.482422	39046.468750
1755.469727	39145.167969
1754.457031	39157.445313
1753.444336	39313.671875
1752.431641	39246.750000
1751.417969	39589.976563
1750.405273	39861.140625
1749.391602	39882.863281
1748.377930	39772.734375
1747.364258	39295.953125
1746.349609	39964.746094
1745.335938	39864.242188
1744.321289	39905.101563
1743.306641	40094.433594
1742.291992	39905.355469
1741.276367	40111.375000
1740.261719	39996.562500
1739.246094	40329.332031
1738.230469	39951.304688
1737.214844	40365.304688
1736.199219	40571.054688
1735.182617	40764.769531
1734.166992	40508.875000
1733.150391	41123.300781
1732.133789	41166.222656
1731.117188	41283.210938
1730.099609	41651.054688
1729.083008	41813.304688
1728.065430	41722.300781
1727.047852	42049.265625
1726.030273	42170.761719
1725.012695	42029.605469
1723.994141	42146.285156
1722.976563	42716.363281
1721.958008	42479.734375
1720.939453	43116.343750
1719.920898	43101.554688
1718.901367	42636.031250
1717.882813	43277.042969
1716.863281	43088.195313
1715.843750	43237.878906
1714.824219	43132.511719
1713.803711	43336.933594
1712.784180	43379.285156
1711.763672	43290.617188
1710.743164	43278.183594
1709.722656	43201.464844
1708.702148	43331.886719
1707.681641	43495.582031
1706.660156	43226.101563
1705.638672	43561.066406
1704.617188	43215.539063
1703.595703	43022.359375
1702.574219	43140.773438
1701.551758	43361.378906
1700.529297	42949.562500
1699.507813	42996.617188
1698.484375	42297.464844
1697.461914	43142.941406
1696.439453	43168.550781
1695.416016	42483.984375
1694.392578	42773.289063
1693.369141	43131.343750
1692.345703	43126.070313
1691.322266	43256.082031
1690.297852	42548.367188
1689.273438	42702.160156
1688.249023	42872.500000
1687.224609	43830.203125
1686.200195	43260.421875
1685.174805	42837.835938
1684.150391	43349.375000
1683.125000	43381.976563
1682.099609	43625.464844
1681.073242	43665.105469
1680.047852	43489.171875
1679.021484	43426.984375
1677.995117	43641.867188
1676.968750	43991.621094
1675.942383	43732.898438
1674.916016	44030.441406
1673.888672	43958.738281
1672.862305	43958.031250
1671.834961	44146.562500
1670.806641	43949.523438
1669.779297	44204.191406
1668.751953	44328.738281
1667.723633	44297.230469
1666.695313	44873.113281
1665.666992	44314.582031
1664.638672	44798.117188
1663.609375	44246.878906
1662.581055	44725.527344
1661.551758	44871.062500
1660.522461	45217.218750
1659.493164	44765.429688
1658.462891	45014.718750
1657.433594	45245.039063
1656.403320	44751.011719
1655.373047	44811.464844
1654.342773	45220.925781
1653.312500	44868.636719
1652.281250	45157.707031
1651.250977	45258.109375
1650.219727	45200.574219
1649.188477	45536.550781
1648.156250	45137.394531
1647.125000	45025.734375
1646.092773	45323.878906
1645.060547	45167.484375
1644.028320	45166.515625
1642.996094	45563.328125
1641.963867	45887.042969
1640.930664	45580.066406
1639.898438	45616.660156
1638.865234	45622.660156
1637.832031	45757.996094
1636.797852	45486.523438
1635.764648	45957.996094
1634.730469	46201.312500
1633.696289	45727.800781
1632.662109	45898.234375
1631.627930	46456.207031
1630.592773	46673.417969
1629.558594	46514.824219
1628.523438	47154.558594
1627.488281	46819.875000
1626.453125	47018.082031
1625.416992	47504.851563
1624.381836	47838.941406
1623.345703	47455.101563
1622.309570	48293.332031
1621.273438	48601.304688
1620.237305	49373.382813
1619.200195	50353.808594
1618.163086	50682.335938
1617.125977	51980.859375
1616.088867	53285.949219
1615.051758	53801.167969
1614.014648	54693.269531
1612.976563	55748.960938
1611.938477	56453.097656
1610.900391	57341.898438
1609.862305	56730.218750
1608.823242	57021.964844
1607.785156	55816.312500
1606.746094	54805.234375
1605.707031	54152.332031
1604.667969	53151.257813
1603.628906	51907.402344
1602.588867	50846.308594
1601.548828	50297.398438
1600.508789	49893.550781
1599.468750	48905.796875
1598.428711	48735.914063
1597.387695	48570.757813
1596.347656	47884.968750
1595.306641	47612.632813
1594.265625	47396.414063
1593.224609	47455.640625
1592.182617	47003.859375
1591.140625	46720.203125
1590.099609	46886.808594
1589.057617	46801.492188
1588.014648	46483.042969
1586.972656	46229.980469
1585.929688	46126.175781
1584.887695	46150.574219
1583.844727	46587.367188
1582.800781	45889.515625
1581.757813	46109.585938
1580.714844	46436.695313
1579.670898	46502.917969
1578.626953	46478.324219
1577.583008	46104.625000
1576.538086	46301.179688
1575.494141	46437.167969
1574.449219	46484.714844
1573.404297	46288.031250
1572.359375	46542.539063
1571.314453	46304.062500
1570.269531	46711.894531
1569.223633	46468.820313
1568.177734	46258.363281
1567.131836	46175.761719
1566.085938	45644.867188
1565.040039	45541.496094
1563.993164	45707.523438
1562.946289	45286.109375
1561.899414	45315.164063
1560.852539	45469.531250
1559.805664	45310.585938
1558.757813	45068.175781
1557.709961	45540.281250
1556.662109	45137.890625
1555.614258	45401.121094
1554.566406	45140.316406
1553.517578	45067.351563
1552.469727	45427.785156
1551.420898	45190.277344
1550.372070	45298.039063
1549.322266	45384.914063
1548.273438	45249.433594
1547.223633	45551.617188
1546.173828	45388.371094
1545.124023	45799.207031
1544.074219	45652.171875
1543.024414	45544.519531
1541.973633	45524.812500
1540.922852	45747.972656
1539.872070	45651.917969
1538.821289	45653.007813
1537.770508	45425.234375
1536.718750	45347.773438
1535.666992	45714.031250
1534.615234	45232.210938
1533.563477	45115.550781
1532.511719	45430.832031
1531.458984	44833.855469
1530.407227	45128.292969
1529.354492	45053.277344
1528.300781	44763.644531
1527.248047	44804.097656
1526.195313	44867.605469
1525.141602	44908.023438
1524.087891	44999.164063
1523.034180	44702.871094
1521.980469	44761.734375
1520.925781	44820.574219
1519.871094	44681.187500
1518.817383	44730.796875
1517.762695	44835.683594
1516.707031	44429.164063
1515.652344	44534.058594
1514.596680	44608.984375
1513.541016	44552.652344
1512.485352	44316.800781
1511.429688	44318.074219
1510.374023	44689.804688
1509.317383	44764.625000
1508.260742	44662.300781
1507.204102	44686.503906
1506.147461	44310.605469
1505.090820	44438.308594
1504.033203	44664.800781
1502.975586	44776.304688
1501.917969	44708.542969
1500.860352	44581.078125
1499.802734	44536.343750
1498.744141	44514.585938
1497.686523	45069.144531
1496.627930	44386.156250
1495.569336	44770.687500
1494.509766	44537.773438
1493.451172	44805.121094
1492.391602	44677.804688
1491.332031	44589.523438
1490.272461	44774.160156
1489.212891	44679.011719
1488.152344	44735.191406
1487.092773	44805.097656
1486.032227	44897.894531
1484.971680	44532.433594
1483.910156	44691.671875
1482.849609	45114.234375
1481.788086	44762.664063
1480.726563	44818.746094
1479.665039	44700.835938
1478.603516	44576.097656
1477.541992	44513.187500
1476.479492	44653.914063
1475.416992	44716.816406
1474.354492	44544.128906
1473.291992	44780.808594
1472.229492	44937.382813
1471.166016	44986.464844
1470.102539	45312.058594
1469.039063	44993.175781
1467.975586	44973.679688
1466.912109	45184.890625
1465.847656	45715.742188
1464.783203	45588.808594
1463.718750	45112.628906
1462.654297	45524.515625
1461.589844	45698.910156
1460.524414	45510.457031
1459.458984	45456.664063
1458.393555	45829.406250
1457.328125	46015.019531
1456.262695	45755.953125
1455.196289	46196.828125
1454.130859	45689.382813
1453.064453	45904.503906
1451.998047	46279.035156
1450.930664	45826.515625
1449.864258	46068.820313
1448.796875	46388.460938
1447.729492	46345.976563
1446.662109	46237.492188
1445.594727	46424.921875
1444.526367	46621.378906
1443.458008	46894.828125
1442.390625	47168.027344
1441.321289	47441.730469
1440.252930	47715.179688
1439.184570	47988.628906
1438.115234	48262.328125
1437.045898	48242.292969
1435.976563	48649.449219
1434.907227	47915.980469
1433.836914	49086.257813
1432.767578	48854.871094
1431.697266	49286.593750
1430.626953	49327.679688
1429.555664	49516.285156
1428.485352	49484.691406
1427.414063	49734.460938
1426.342773	49514.539063
1425.271484	49970.617188
1424.200195	50689.589844
1423.128906	49746.316406
1422.056641	49635.355469
1420.984375	50063.875000
1419.912109	49986.886719
1418.839844	50020.945313
1417.767578	50136.539063
1416.694336	50023.335938
1415.621094	50086.800781
1414.547852	49878.546875
1413.474609	49788.078125
1412.400391	49251.769531
1411.327148	49041.511719
1410.252930	49738.582031
1409.178711	49247.808594
1408.104492	49492.253906
1407.029297	49352.191406
1405.955078	49356.875000
1404.879883	49305.039063
1403.804688	49519.910156
1402.729492	49827.343750
1401.653320	50392.218750
1400.578125	49782.300781
1399.501953	50094.031250
1398.425781	50290.492188
1397.349609	49999.234375
1396.272461	50028.601563
1395.196289	50439.355469
1394.119141	50425.761719
1393.041992	50804.707031
1391.964844	51244.414063
1390.886719	51305.093750
1389.809570	51492.015625
1388.731445	52093.671875
1387.653320	52517.042969
1386.575195	52156.031250
1385.497070	52498.121094
1384.417969	52961.734375
1383.338867	52753.988281
1382.259766	52647.648438
1381.180664	53126.738281
1380.101563	53108.160156
1379.021484	52535.910156
1377.941406	52659.207031
1376.861328	52640.714844
1375.781250	52880.917969
1374.701172	52466.550781
1373.620117	52288.441406
1372.539063	52321.730469
1371.458008	52244.859375
1370.376953	51619.636719
1369.295898	51181.140625
1368.213867	51544.851563
1367.132813	51733.226563
1366.050781	51261.253906
1364.967773	51097.070313
1363.885742	51500.937500
1362.802734	51006.808594
1361.720703	51547.441406
1360.637695	51574.042969
1359.554688	51526.597656
1358.470703	51201.039063
1357.387695	51335.324219
1356.303711	51196.015625
1355.219727	50850.507813
1354.135742	50818.914063
1353.050781	50646.152344
1351.966797	50114.957031
1350.881836	50052.144531
1349.796875	50002.792969
1348.711914	49476.476563
1347.626953	49599.640625
1346.541016	49324.296875
1345.455078	49760.785156
1344.369141	49550.402344
1343.283203	49105.171875
1342.197266	49230.519531
1341.110352	49248.468750
1340.023438	49554.867188
1338.936523	49539.210938
1337.849609	49116.726563
1336.762695	48929.058594
1335.674805	49787.210938
1334.586914	49425.230469
1333.499023	49682.109375
1332.411133	49041.109375
1331.323242	49525.718750
1330.234375	49932.011719
1329.145508	49485.500000
1328.056641	49592.605469
1326.967773	50449.378906
1325.878906	49974.007813
1324.789063	50404.378906
1323.699219	50497.851563
1322.609375	50787.496094
1321.519531	50842.964844
1320.429688	51567.070313
1319.338867	52123.777344
1318.248047	52493.121094
1317.157227	52782.136719
1316.066406	53019.816406
1314.975586	53807.441406
1313.883789	53802.160156
1312.791992	53841.402344
1311.700195	54276.792969
1310.608398	53786.324219
1309.516602	53870.035156
1308.423828	53413.179688
1307.331055	52925.347656
1306.238281	53031.402344
1305.145508	52677.203125
1304.051758	51938.585938
1302.958984	52280.328125
1301.865234	51917.566406
1300.771484	52241.414063
1299.677734	52347.460938
1298.583008	52631.132813
1297.489258	52328.511719
1296.394531	53064.964844
1295.299805	53224.046875
1294.204102	53396.386719
1293.109375	53526.503906
1292.013672	54062.539063
1290.917969	53198.820313
1289.822266	53067.218750
1288.726563	53350.277344
1287.630859	52866.218750
1286.534180	53251.164063
1285.437500	52807.183594
1284.340820	52704.562500
1283.244141	52099.128906
1282.146484	52603.523438
1281.048828	52080.253906
1279.951172	51749.789063
1278.853516	51866.585938
1277.755859	51348.156250
1276.658203	51230.425781
1275.559570	51241.050781
1274.460938	51160.980469
1273.362305	50598.812500
1272.262695	50368.523438
1271.164063	50198.007813
1270.064453	50465.203125
1268.964844	50137.820313
1267.865234	50066.859375
1266.765625	49962.789063
1265.665039	49748.312500
1264.564453	49427.910156
1263.463867	49136.328125
1262.363281	49361.417969
1261.262695	49337.015625
1260.161133	49142.699219
1259.059570	49184.531250
1257.958008	48842.507813
1256.856445	48833.648438
1255.754883	49027.664063
1254.652344	49091.527344
1253.549805	48884.226563
1252.447266	49093.550781
1251.344727	48399.332031
1250.242188	48685.773438
1249.138672	48809.105469
1248.035156	48313.523438
1246.931641	48185.847656
1245.828125	48703.277344
1244.724609	48375.265625
1243.620117	48582.160156
1242.515625	48665.757813
1241.411133	48623.921875
1240.306641	48089.394531
1239.201172	48953.738281
1238.096680	48465.515625
1236.991211	48830.441406
1235.885742	48694.089844
1234.779297	48447.906250
1233.673828	48623.671875
1232.567383	48946.554688
1231.460938	48535.726563
1230.354492	48522.515625
1229.248047	48535.656250
1228.140625	48403.910156
1227.033203	48469.738281
1225.926758	48377.542969
1224.818359	48656.167969
1223.710938	48344.609375
1222.602539	48316.085938
1221.495117	48390.628906
1220.386719	48414.722656
1219.278320	47857.921875
1218.168945	48239.328125
1217.060547	48440.914063
1215.951172	48094.722656
1214.841797	48221.785156
1213.731445	47735.597656
1212.622070	47919.601563
1211.511719	47867.105469
1210.402344	47805.867188
1209.291992	47900.031250
1208.180664	48285.164063
1207.070313	47983.238281
1205.958984	48331.031250
1204.847656	48466.570313
1203.736328	48070.753906
1202.625000	48702.515625
1201.512695	48542.847656
1200.401367	48909.875000
1199.289063	49064.839844
1198.176758	48946.687500
1197.063477	49409.535156
1195.951172	49448.582031
1194.837891	49817.285156
1193.724609	50102.902344
1192.611328	50004.304688
1191.498047	49665.710938
1190.383789	50034.097656
1189.269531	49734.878906
1188.155273	49612.421875
1187.041016	49537.972656
1185.926758	48885.835938
1184.811523	49236.578125
1183.696289	49140.441406
1182.581055	49388.601563
1181.465820	48948.265625
1180.350586	48630.062500
1179.234375	48418.679688
1178.118164	48100.687500
1177.001953	48192.062500
1175.885742	48239.871094
1174.768555	48407.347656
1173.652344	48222.296875
1172.535156	48096.042969
1171.417969	47641.421875
1170.299805	48135.054688
