#Wave		#Intensity
2001.221680	36081.273438
2000.251953	36710.410156
1999.282227	36152.664063
1998.312500	36442.019531
1997.342773	36230.230469
1996.372070	36481.894531
1995.402344	36257.652344
1994.431641	36326.437500
1993.460938	36718.140625
1992.490234	36684.199219
1991.518555	36665.277344
1990.547852	36543.777344
1989.576172	36730.027344
1988.604492	36405.949219
1987.632813	36672.179688
1986.661133	36713.285156
1985.689453	36716.871094
1984.716797	36620.472656
1983.745117	36851.488281
1982.772461	36902.519531
1981.799805	36716.199219
1980.827148	36467.500000
1979.853516	36978.078125
1978.880859	36652.011719
1977.907227	37052.531250
1976.933594	36589.285156
1975.959961	36914.804688
1974.986328	36539.066406
1974.011719	37301.054688
1973.038086	37304.511719
1972.063477	36859.074219
1971.088867	37179.269531
1970.114258	37200.191406
1969.138672	36847.226563
1968.164063	36616.492188
1967.188477	37003.773438
1966.212891	37002.285156
1965.237305	37292.222656
1964.261719	36994.328125
1963.286133	37376.285156
1962.309570	36924.132813
1961.333984	37169.066406
1960.357422	37777.257813
1959.380859	37183.437500
1958.404297	36910.742188
1957.426758	37359.464844
1956.450195	37074.398438
1955.472656	37428.445313
1954.495117	37136.007813
1953.517578	38031.773438
1952.540039	37324.308594
1951.561523	37131.425781
1950.583008	37962.125000
1949.605469	37277.394531
1948.626953	37442.226563
1947.647461	37510.164063
1946.668945	37672.410156
1945.690430	37703.046875
1944.710938	37641.851563
1943.731445	37784.136719
1942.751953	37551.769531
1941.772461	37354.207031
1940.791992	37243.507813
1939.812500	37321.292969
1938.832031	37436.230469
1937.851563	37637.878906
1936.871094	37661.027344
1935.890625	37391.789063
1934.909180	37407.535156
1933.928711	37799.761719
1932.947266	37812.953125
1931.965820	37821.187500
1930.984375	37997.753906
1930.002930	37845.066406
1929.020508	37504.347656
1928.038086	37708.093750
1927.056641	37590.164063
1926.074219	38105.468750
1925.090820	37599.246094
1924.108398	38082.222656
1923.125000	38050.828125
1922.142578	37925.519531
1921.159180	38094.332031
1920.175781	37855.398438
1919.191406	38172.382813
1918.208008	38116.292969
1917.223633	37976.257813
1916.240234	38056.019531
1915.255859	37930.851563
1914.271484	38173.492188
1913.286133	38132.250000
1912.301758	38108.292969
1911.316406	38380.375000
1910.331055	38802.812500
1909.345703	38376.781250
1908.360352	38510.589844
1907.375000	38102.007813
1906.388672	38610.460938
1905.402344	38256.218750
1904.416016	38417.054688
1903.429688	38368.437500
1902.443359	38433.132813
1901.457031	38660.339844
1900.469727	38562.457031
1899.482422	38560.613281
1898.495117	38113.273438
1897.507813	38446.187500
1896.520508	38633.816406
1895.532227	38528.636719
1894.543945	38327.566406
1893.556641	38630.691406
1892.568359	38142.003906
1891.579102	38331.972656
1890.590820	38526.789063
1889.601563	38768.222656
1888.613281	38078.375000
1887.624023	38459.828125
1886.634766	38475.179688
1885.644531	38554.375000
1884.655273	38790.675781
1883.665039	38734.765625
1882.674805	38654.332031
1881.684570	38782.515625
1880.694336	38763.433594
1879.704102	38653.597656
1878.712891	38639.449219
1877.722656	38853.363281
1876.731445	38856.347656
1875.740234	38876.488281
1874.748047	38766.718750
1873.756836	38715.796875
1872.764648	38662.445313
1871.773438	38643.402344
1870.781250	38516.601563
1869.788086	39144.070313
1868.795898	38466.339844
1867.803711	39003.023438
1866.810547	39130.781250
1865.817383	38937.925781
1864.824219	38644.824219
1863.831055	39344.988281
1862.837891	38846.468750
1861.843750	38832.304688
1860.849609	38915.941406
1859.855469	38931.097656
1858.861328	39356.855469
1857.867188	38841.656250
1856.872070	39174.433594
1855.877930	39382.511719
1854.882813	39072.734375
1853.887695	39219.703125
1852.892578	39242.105469
1851.896484	38834.867188
1850.901367	39460.160156
1849.905273	39423.937500
1848.909180	39592.667969
1847.913086	39241.753906
1846.916992	39237.289063
1845.919922	39588.843750
1844.923828	39277.121094
1843.926758	39504.222656
1842.929688	39553.328125
1841.932617	39565.863281
1840.935547	40104.640625
1839.937500	39793.093750
1838.939453	39846.976563
1837.942383	39971.457031
1836.943359	39888.949219
1835.945313	40001.203125
1834.947266	39955.222656
1833.948242	40026.054688
1832.949219	39936.289063
1831.951172	39926.824219
1830.951172	40535.105469
1829.952148	39980.851563
1828.953125	40231.519531
1827.953125	40258.464844
1826.953125	40511.421875
1825.953125	40030.453125
1824.953125	40353.816406
1823.952148	40378.285156
1822.952148	40174.453125
1821.951172	40177.089844
1820.950195	40662.851563
1819.949219	40281.875000
1818.948242	40488.347656
1817.946289	40372.023438
1816.945313	40525.031250
1815.943359	40141.914063
1814.941406	40450.121094
1813.939453	40712.144531
1812.936523	40518.292969
1811.934570	40986.242188
1810.931641	41092.921875
1809.928711	40431.449219
1808.925781	40894.316406
1807.921875	40463.218750
1806.918945	41143.875000
1805.915039	41153.574219
1804.912109	40606.445313
1803.908203	41093.074219
1802.903320	40955.140625
1801.899414	41037.449219
1800.894531	40822.156250
1799.890625	41153.593750
1798.885742	41148.753906
1797.880859	41214.035156
1796.875000	41175.335938
1795.870117	41414.617188
1794.864258	41371.062500
1793.858398	41339.601563
1792.852539	41755.078125
1791.846680	41402.312500
1790.840820	41341.878906
1789.833984	41940.632813
1788.828125	41196.925781
1787.821289	41633.777344
1786.814453	41800.183594
1785.806641	41544.285156
1784.799805	41725.121094
1783.791992	41814.238281
1782.784180	42069.718750
1781.776367	42308.226563
1780.768555	42488.796875
1779.760742	42327.035156
1778.751953	42011.101563
1777.743164	42454.250000
1776.735352	42738.242188
1775.725586	42282.699219
1774.716797	42597.929688
1773.708008	42224.429688
1772.698242	42705.656250
1771.688477	43088.031250
1770.678711	42406.613281
1769.668945	42615.664063
1768.659180	43070.015625
1767.648438	42920.500000
1766.637695	43009.109375
1765.626953	42583.156250
1764.616211	43044.398438
1763.605469	43404.527344
1762.593750	42916.246094
1761.583008	43677.503906
1760.571289	43261.410156
1759.559570	43950.285156
1758.547852	43445.433594
1757.535156	43850.718750
1756.523438	43854.968750
1755.510742	43748.816406
1754.498047	44000.246094
1753.485352	44033.253906
1752.472656	44344.515625
1751.458984	44636.472656
1750.445313	44324.039063
1749.432617	44313.804688
1748.417969	44476.164063
1747.404297	44425.160156
1746.390625	44618.589844
1745.375977	44907.785156
1744.361328	44823.191406
1743.346680	44987.703125
1742.332031	45587.968750
1741.317383	45005.308594
1740.302734	45624.503906
1739.287109	45795.933594
1738.271484	46065.406250
1737.255859	46480.722656
1736.240234	46223.726563
1735.223633	46708.218750
1734.208008	46898.421875
1733.191406	47447.171875
1732.174805	47594.148438
1731.158203	47614.406250
1730.140625	48112.550781
1729.124023	48424.171875
1728.106445	48566.085938
1727.088867	49276.347656
1726.071289	49150.621094
1725.053711	49533.453125
1724.035156	49555.714844
1723.017578	50320.179688
1721.999023	50165.714844
1720.980469	50350.074219
1719.961914	50675.097656
1718.942383	50816.367188
1717.923828	50731.066406
1716.904297	51313.316406
1715.884766	51003.894531
1714.865234	50987.710938
1713.844727	51062.078125
1712.825195	50891.035156
1711.804688	50993.968750
1710.784180	51223.082031
1709.763672	51118.765625
1708.743164	50538.355469
1707.722656	50529.402344
1706.701172	50834.578125
1705.679688	50463.910156
1704.658203	50790.394531
1703.636719	50172.492188
1702.615234	49990.000000
1701.592773	49974.007813
1700.571289	50333.625000
1699.548828	50291.425781
1698.526367	49954.566406
1697.502930	49729.496094
1696.480469	50015.250000
1695.457031	50353.152344
1694.433594	50068.757813
1693.410156	49556.523438
1692.386719	49552.484375
1691.363281	49562.683594
1690.338867	49810.183594
1689.314453	50235.539063
1688.290039	50167.324219
1687.265625	50011.375000
1686.241211	50417.492188
1685.215820	50427.515625
1684.191406	50461.242188
1683.166016	50521.019531
1682.140625	50379.355469
1681.115234	50723.437500
1680.088867	50835.246094
1679.062500	50613.066406
1678.037109	50800.628906
1677.010742	50943.140625
1675.983398	51142.406250
1674.957031	51104.929688
1673.930664	51093.492188
1672.903320	51373.062500
1671.875977	51477.484375
1670.848633	51546.394531
1669.820313	51468.667969
1668.792969	51660.488281
1667.764648	51613.496094
1666.736328	51776.855469
1665.708008	51529.003906
1664.679688	51845.882813
1663.651367	51985.488281
1662.622070	52505.277344
1661.592773	53209.058594
1660.563477	52635.363281
1659.534180	53194.878906
1658.504883	53529.992188
1657.474609	53541.718750
1656.444336	53805.871094
1655.415039	53768.007813
1654.383789	53897.597656
1653.353516	53638.078125
1652.323242	54295.722656
1651.291992	54705.636719
1650.260742	54660.562500
1649.229492	54299.769531
1648.198242	55178.265625
1647.166016	54845.765625
1646.134766	55252.851563
1645.102539	55339.566406
1644.070313	55624.000000
1643.038086	55734.152344
1642.004883	56187.843750
1640.972656	56495.496094
1639.939453	56083.175781
1638.906250	57202.195313
1637.873047	57027.406250
1636.839844	57637.988281
1635.805664	57618.335938
1634.772461	57845.476563
1633.738281	58608.328125
1632.704102	58048.109375
1631.668945	59343.902344
1630.634766	59812.484375
1629.599609	60116.515625
1628.565430	60709.226563
1627.530273	61343.980469
1626.494141	61750.839844
1625.458984	62619.835938
1624.422852	63389.980469
1623.387695	64575.054688
1622.351563	65461.843750
1621.315430	66650.812500
1620.278320	68078.500000
1619.242188	69182.187500
1618.205078	71649.515625
1617.167969	73759.781250
1616.130859	75784.945313
1615.093750	77422.890625
1614.055664	79617.648438
1613.018555	81600.875000
1611.980469	83384.390625
1610.942383	83701.937500
1609.904297	83696.390625
1608.865234	83286.031250
1607.827148	82122.484375
1606.788086	80954.671875
1605.749023	78271.789063
1604.709961	76852.531250
1603.669922	74947.500000
1602.630859	73085.226563
1601.590820	71807.867188
1600.550781	70587.039063
1599.510742	69850.234375
1598.470703	68709.601563
1597.429688	67912.671875
1596.389648	68033.664063
1595.348633	67412.218750
1594.307617	66697.632813
1593.265625	66622.734375
1592.224609	66144.203125
1591.182617	65616.843750
1590.140625	65756.757813
1589.098633	64956.804688
1588.056641	65483.828125
1587.014648	64437.093750
1585.971680	64453.574219
1584.928711	64530.632813
1583.886719	64169.632813
1582.842773	64197.789063
1581.799805	63408.410156
1580.755859	63473.949219
1579.712891	63111.050781
1578.668945	63064.875000
1577.625000	63435.332031
1576.580078	64189.617188
1575.536133	64203.761719
1574.491211	64422.601563
1573.446289	65160.019531
1572.401367	64960.035156
1571.356445	65273.941406
1570.311523	65643.523438
1569.265625	65397.066406
1568.219727	64902.058594
1567.173828	65352.816406
1566.127930	64781.328125
1565.082031	64811.570313
1564.035156	64449.367188
1562.988281	64435.539063
1561.941406	63562.851563
1560.894531	63783.585938
1559.847656	63463.582031
1558.799805	63612.332031
1557.751953	63290.144531
1556.704102	63322.906250
1555.656250	63262.906250
1554.608398	63399.980469
1553.560547	63481.375000
1552.511719	62684.394531
1551.462891	63396.136719
1550.414063	63039.625000
1549.365234	63118.695313
1548.315430	63484.906250
1547.265625	63114.667969
1546.216797	62851.050781
1545.166992	62941.664063
1544.116211	62881.820313
1543.066406	62842.816406
1542.015625	63097.625000
1540.965820	62878.179688
1539.915039	62547.808594
1538.863281	62617.550781
1537.812500	62211.054688
1536.760742	62491.160156
1535.709961	62147.214844
1534.658203	62029.820313
1533.605469	61783.101563
1532.553711	61915.253906
1531.501953	61423.859375
1530.449219	60724.839844
1529.396484	60734.757813
1528.343750	60825.449219
1527.290039	60092.289063
1526.237305	60365.324219
1525.183594	60331.460938
1524.129883	60343.730469
1523.076172	60279.898438
1522.022461	60236.835938
1520.968750	59951.750000
1519.914063	59457.035156
1518.859375	59773.605469
1517.804688	59889.625000
1516.750000	59832.835938
1515.694336	59750.734375
1514.639648	60119.976563
1513.583984	59915.828125
1512.528320	59951.140625
1511.472656	60000.246094
1510.416016	59766.308594
1509.360352	59511.746094
1508.303711	60349.859375
1507.247070	60325.253906
1506.190430	59999.441406
1505.132813	59747.308594
1504.076172	59922.792969
1503.018555	59895.972656
1501.960938	59717.515625
1500.903320	59766.550781
1499.844727	59721.390625
1498.787109	60147.023438
1497.728516	60085.738281
1496.669922	59783.425781
1495.611328	59334.324219
1494.552734	59048.312500
1493.493164	58578.851563
1492.434570	59327.671875
1491.375000	59236.765625
1490.315430	59423.363281
1489.254883	58649.218750
1488.195313	59264.523438
1487.134766	58839.058594
1486.074219	58986.628906
1485.013672	58451.386719
1483.953125	58489.011719
1482.892578	58487.691406
1481.831055	58887.097656
1480.769531	58750.617188
1479.708008	59042.242188
1478.646484	58715.820313
1477.583984	59698.394531
1476.522461	59227.832031
1475.459961	58762.007813
1474.397461	59172.285156
1473.334961	58788.953125
1472.271484	58600.082031
1471.208984	58418.136719
1470.145508	59118.414063
1469.082031	59196.921875
1468.018555	59030.949219
1466.954102	59390.394531
1465.890625	59640.082031
1464.826172	59631.664063
1463.761719	59401.804688
1462.697266	59961.773438
1461.631836	59606.414063
1460.567383	60198.085938
1459.501953	60155.339844
1458.436523	60338.417969
1457.371094	60193.039063
1456.305664	59785.503906
1455.239258	59829.902344
1454.172852	59874.300781
1453.107422	59918.656250
1452.040039	59963.093750
1450.973633	60007.492188
1449.907227	60563.839844
1448.839844	60063.367188
1447.772461	60412.312500
1446.705078	60701.941406
1445.637695	60804.839844
1444.569336	60896.316406
1443.500977	60644.210938
1442.432617	60587.820313
1441.364258	61047.722656
1440.295898	60913.964844
1439.227539	61448.664063
1438.158203	61662.660156
1437.088867	61983.394531
1436.019531	62208.574219
1434.950195	62195.121094
1433.879883	62249.816406
1432.810547	63072.109375
1431.740234	62549.875000
1430.669922	63244.679688
1429.598633	63625.992188
1428.528320	63918.660156
1427.457031	64056.921875
1426.386719	64873.453125
1425.314453	65428.839844
1424.243164	65276.472656
1423.171875	66071.921875
1422.099609	66241.398438
1421.027344	66574.007813
1419.955078	66822.648438
1418.882813	66618.039063
1417.810547	66456.539063
1416.737305	66598.601563
1415.664063	66620.585938
1414.590820	66291.625000
1413.517578	65817.898438
1412.444336	65253.804688
1411.370117	65205.855469
1410.295898	64648.859375
1409.221680	64286.597656
1408.147461	64257.726563
1407.073242	64228.851563
1405.998047	64199.953125
1404.922852	64171.054688
1403.847656	64142.156250
1402.772461	64113.257813
1401.697266	63704.085938
1400.621094	63532.242188
1399.544922	63294.957031
1398.468750	63583.878906
1397.392578	64446.128906
1396.316406	64554.156250
1395.239258	64790.781250
1394.162109	65850.906250
1393.084961	66637.664063
1392.007813	67764.734375
1390.930664	68925.226563
1389.852539	69235.242188
1388.774414	69982.492188
1387.696289	69999.187500
1386.618164	70644.617188
1385.540039	70028.039063
1384.460938	70242.953125
1383.382813	70054.609375
1382.303711	69857.328125
1381.223633	69410.195313
1380.144531	69366.164063
1379.064453	68953.039063
1377.985352	68830.343750
1376.905273	68743.687500
1375.825195	68348.875000
1374.744141	68059.914063
1373.664063	68081.375000
1372.583008	68183.765625
1371.501953	67924.203125
1370.420898	67819.804688
1369.338867	67931.164063
1368.257813	67932.398438
1367.175781	67630.375000
1366.093750	67984.250000
1365.011719	68946.515625
1363.929688	69068.781250
1362.846680	69206.710938
1361.763672	70758.460938
1360.680664	71120.414063
1359.597656	71213.023438
1358.514648	70953.437500
1357.430664	71120.046875
1356.346680	70896.445313
1355.262695	70206.625000
1354.178711	69485.671875
1353.094727	68379.523438
1352.009766	67972.835938
1350.925781	67241.468750
1349.840820	66803.765625
1348.755859	65904.914063
1347.669922	65525.824219
1346.584961	65084.187500
1345.499023	64929.195313
1344.413086	64814.531250
1343.327148	64527.632813
1342.240234	63925.425781
1341.154297	64298.566406
1340.067383	63891.156250
1338.980469	64040.589844
1337.893555	63993.253906
1336.805664	64399.628906
1335.718750	63983.542969
1334.630859	63777.617188
1333.542969	63871.078125
1332.455078	64031.503906
1331.367188	64522.339844
1330.278320	64588.816406
1329.189453	65300.347656
1328.100586	65192.585938
1327.011719	65747.554688
1325.922852	66068.070313
1324.833008	66428.625000
1323.743164	67357.718750
1322.653320	68250.789063
1321.563477	69174.750000
1320.473633	70773.726563
1319.382813	71730.320313
1318.291992	74018.953125
1317.201172	75645.140625
1316.110352	76736.187500
1315.019531	78530.523438
1313.927734	79887.828125
1312.835938	80930.757813
1311.744141	80593.398438
1310.652344	80042.531250
1309.560547	80477.476563
1308.467773	78436.437500
1307.375000	76872.085938
1306.282227	75684.085938
1305.189453	74056.320313
1304.095703	73098.210938
1303.002930	72035.992188
1301.909180	70985.257813
1300.815430	70172.625000
1299.721680	69744.554688
1298.626953	68501.585938
1297.533203	68689.023438
1296.438477	68978.515625
1295.343750	68493.250000
1294.248047	68960.203125
1293.153320	68756.898438
1292.057617	68906.390625
1290.961914	69495.000000
1289.866211	69883.796875
1288.770508	69574.039063
1287.674805	70315.156250
1286.578125	70043.101563
1285.481445	69824.320313
1284.384766	70013.296875
1283.288086	69455.671875
1282.190430	69013.414063
1281.092773	69554.515625
1279.996094	68924.203125
1278.897461	68761.195313
1277.799805	68374.703125
1276.702148	68335.757813
1275.603516	67807.882813
1274.504883	67806.656250
1273.406250	67524.546875
1272.307617	66871.062500
1271.208008	67064.546875
1270.108398	66972.812500
1269.008789	66489.945313
1267.909180	66493.359375
1266.809570	66384.093750
1265.708984	65791.148438
1264.609375	65761.546875
1263.508789	65334.523438
1262.407227	65059.972656
1261.306641	64580.246094
1260.206055	64897.347656
1259.104492	65046.640625
1258.002930	64900.277344
1256.901367	64409.890625
1255.798828	64054.195313
1254.697266	64183.683594
1253.594727	64218.328125
1252.492188	63534.460938
1251.389648	63635.316406
1250.286133	63938.824219
1249.183594	63587.992188
1248.080078	63783.476563
1246.976563	64058.156250
1245.872070	63868.203125
1244.768555	63500.015625
1243.664063	63528.101563
1242.560547	64049.066406
1241.455078	64396.035156
1240.350586	64628.500000
1239.246094	64242.902344
1238.140625	64457.714844
1237.035156	64643.863281
1235.929688	64867.312500
1234.824219	65046.722656
1233.717773	64393.324219
1232.612305	65045.062500
1231.505859	64637.894531
1230.399414	64417.535156
1229.291992	63885.472656
1228.185547	63900.210938
1227.078125	63554.988281
1225.970703	63817.742188
1224.863281	63095.289063
1223.755859	63307.570313
1222.647461	63344.316406
1221.539063	63330.613281
1220.430664	63768.546875
1219.322266	63544.332031
1218.213867	63177.738281
1217.104492	63310.875000
1215.995117	62894.062500
1214.885742	62836.628906
1213.776367	62689.425781
1212.666992	62559.785156
1211.556641	62730.117188
1210.446289	63053.601563
1209.335938	63348.515625
1208.225586	63396.070313
1207.115234	63517.984375
1206.003906	63493.308594
1204.892578	63934.437500
1203.781250	63868.144531
1202.669922	64304.664063
1201.557617	64642.667969
1200.446289	64692.097656
1199.333984	64872.593750
1198.221680	65557.625000
1197.108398	64934.164063
1195.996094	65605.828125
1194.882813	66340.570313
1193.769531	65778.414063
1192.656250	66170.195313
1191.542969	65874.484375
1190.428711	65626.867188
1189.314453	65446.964844
1188.200195	64900.734375
1187.085938	65004.484375
1185.971680	64726.675781
1184.856445	64346.523438
1183.741211	64334.808594
1182.625977	64405.890625
1181.510742	64372.375000
1180.395508	64434.707031
1179.279297	64179.066406
1178.163086	63710.140625
1177.046875	63951.058594
1175.930664	63919.820313
1174.813477	63716.675781
1173.697266	63280.800781
1172.580078	63114.824219
1171.462891	63423.039063
1170.344727	63215.773438
