#Wave		#Intensity
2001.221680	42571.832031
2000.251953	42571.832031
1999.282227	42571.832031
1998.312500	42571.832031
1997.342773	42571.832031
1996.372070	42571.832031
1995.402344	42571.832031
1994.431641	42571.832031
1993.460938	42571.832031
1992.490234	42571.832031
1991.518555	42571.832031
1990.547852	42571.832031
1989.576172	42571.832031
1988.604492	42571.832031
1987.632813	42571.832031
1986.661133	42571.832031
1985.689453	42571.832031
1984.716797	42571.832031
1983.745117	42744.328125
1982.772461	42666.898438
1981.799805	42611.976563
1980.827148	42152.433594
1979.853516	42359.839844
1978.880859	42649.570313
1977.907227	42345.039063
1976.933594	42574.761719
1975.959961	42397.621094
1974.986328	42924.171875
1974.011719	42063.476563
1973.038086	42512.578125
1972.063477	42255.761719
1971.088867	42248.375000
1970.114258	42131.296875
1969.138672	42261.023438
1968.164063	42024.359375
1967.188477	42358.371094
1966.212891	41954.859375
1965.237305	42542.824219
1964.261719	42433.277344
1963.286133	41987.628906
1962.309570	42438.355469
1961.333984	42025.214844
1960.357422	42513.101563
1959.380859	41706.957031
1958.404297	42747.003906
1957.426758	42371.402344
1956.450195	42254.566406
1955.472656	42637.546875
1954.495117	42592.796875
1953.517578	42242.335938
1952.540039	42610.199219
1951.561523	42605.230469
1950.583008	42418.906250
1949.605469	42610.191406
1948.626953	42654.882813
1947.647461	42088.750000
1946.668945	43066.949219
1945.690430	42756.593750
1944.710938	42801.226563
1943.731445	42682.078125
1942.751953	42610.105469
1941.772461	42714.261719
1940.791992	43081.253906
1939.812500	42815.843750
1938.832031	42676.957031
1937.851563	42352.218750
1936.871094	42592.621094
1935.890625	42818.070313
1934.909180	42939.394531
1933.928711	43350.464844
1932.947266	42926.828125
1931.965820	42991.113281
1930.984375	43013.292969
1930.002930	42750.816406
1929.020508	43107.109375
1928.038086	42743.261719
1927.056641	42458.699219
1926.074219	42587.300781
1925.090820	42782.621094
1924.108398	42508.089844
1923.125000	42856.625000
1922.142578	42918.324219
1921.159180	42975.054688
1920.175781	42900.808594
1919.191406	42720.363281
1918.208008	43411.871094
1917.223633	42631.300781
1916.240234	42710.246094
1915.255859	43070.589844
1914.271484	42717.488281
1913.286133	43013.535156
1912.301758	43260.132813
1911.316406	42941.714844
1910.331055	42650.539063
1909.345703	43155.996094
1908.360352	43086.789063
1907.375000	43002.812500
1906.388672	42817.808594
1905.402344	43465.808594
1904.416016	43317.742188
1903.429688	43253.484375
1902.443359	43088.261719
1901.457031	43430.390625
1900.469727	43481.863281
1899.482422	43080.359375
1898.495117	43451.839844
1897.507813	43370.390625
1896.520508	43146.261719
1895.532227	42759.847656
1894.543945	43219.664063
1893.556641	43101.417969
1892.568359	43022.546875
1891.579102	43162.496094
1890.590820	43265.519531
1889.601563	43805.929688
1888.613281	43577.113281
1887.624023	43689.832031
1886.634766	43490.585938
1885.644531	43581.175781
1884.655273	43426.207031
1883.665039	43639.519531
1882.674805	43425.687500
1881.684570	43717.445313
1880.694336	43636.160156
1879.704102	43787.949219
1878.712891	43454.050781
1877.722656	43630.335938
1876.731445	43470.660156
1875.740234	43781.707031
1874.748047	43563.230469
1873.756836	43256.613281
1872.764648	43881.140625
1871.773438	43422.691406
1870.781250	43973.488281
1869.788086	44195.945313
1868.795898	43647.089844
1867.803711	43796.089844
1866.810547	43859.371094
1865.817383	44093.921875
1864.824219	44174.250000
1863.831055	44009.929688
1862.837891	43909.253906
1861.843750	43987.121094
1860.849609	44204.324219
1859.855469	44411.667969
1858.861328	44081.242188
1857.867188	43821.796875
1856.872070	44207.449219
1855.877930	44575.863281
1854.882813	43967.207031
1853.887695	44679.839844
1852.892578	44295.992188
1851.896484	44317.496094
1850.901367	44575.730469
1849.905273	44231.140625
1848.909180	44652.761719
1847.913086	44781.507813
1846.916992	44580.957031
1845.919922	44414.613281
1844.923828	44423.863281
1843.926758	44542.804688
1842.929688	44773.812500
1841.932617	44741.566406
1840.935547	44818.964844
1839.937500	45225.183594
1838.939453	45304.898438
1837.942383	44902.445313
1836.943359	44643.777344
1835.945313	44945.062500
1834.947266	45046.671875
1833.948242	45109.308594
1832.949219	44899.433594
1831.951172	45178.562500
1830.951172	45185.199219
1829.952148	45257.488281
1828.953125	45305.437500
1827.953125	45465.183594
1826.953125	45396.417969
1825.953125	44902.437500
1824.953125	45176.351563
1823.952148	45185.398438
1822.952148	45400.875000
1821.951172	45176.765625
1820.950195	45457.714844
1819.949219	45578.355469
1818.948242	45458.687500
1817.946289	45686.046875
1816.945313	45517.878906
1815.943359	45298.828125
1814.941406	45145.332031
1813.939453	45166.472656
1812.936523	45340.339844
1811.934570	45725.027344
1810.931641	45770.285156
1809.928711	45430.257813
1808.925781	45737.191406
1807.921875	45709.753906
1806.918945	45527.324219
1805.915039	45737.222656
1804.912109	46198.820313
1803.908203	45922.000000
1802.903320	46037.328125
1801.899414	45613.027344
1800.894531	46098.507813
1799.890625	45867.847656
1798.885742	45929.890625
1797.880859	46110.390625
1796.875000	46334.343750
1795.870117	46094.128906
1794.864258	46272.082031
1793.858398	46193.847656
1792.852539	46316.152344
1791.846680	46735.507813
1790.840820	46282.906250
1789.833984	46586.214844
1788.828125	46322.101563
1787.821289	46700.117188
1786.814453	46884.937500
1785.806641	46324.121094
1784.799805	46837.027344
1783.791992	47002.425781
1782.784180	46793.968750
1781.776367	46990.656250
1780.768555	46627.988281
1779.760742	46930.683594
1778.751953	46548.871094
1777.743164	46812.917969
1776.735352	46770.925781
1775.725586	47080.601563
1774.716797	47038.574219
1773.708008	47516.628906
1772.698242	46872.710938
1771.688477	47040.132813
1770.678711	47356.699219
1769.668945	47574.500000
1768.659180	47366.433594
1767.648438	47778.972656
1766.637695	47472.343750
1765.626953	47495.210938
1764.616211	47318.546875
1763.605469	48069.687500
1762.593750	47703.140625
1761.583008	47776.398438
1760.571289	47770.359375
1759.559570	47877.203125
1758.547852	47950.390625
1757.535156	48371.683594
1756.523438	48401.542969
1755.510742	47970.570313
1754.498047	48319.640625
1753.485352	48596.609375
1752.472656	48261.781250
1751.458984	48373.167969
1750.445313	49177.527344
1749.432617	49012.992188
1748.417969	49064.253906
1747.404297	49410.289063
1746.390625	48893.542969
1745.375977	49385.628906
1744.361328	49400.847656
1743.346680	49581.316406
1742.332031	49373.796875
1741.317383	49582.929688
1740.302734	50352.121094
1739.287109	50525.105469
1738.271484	50434.812500
1737.255859	50760.832031
1736.240234	50629.859375
1735.223633	51242.718750
1734.208008	51350.820313
1733.191406	51353.687500
1732.174805	52135.804688
1731.158203	52750.347656
1730.140625	52664.546875
1729.124023	53262.050781
1728.106445	53357.722656
1727.088867	53446.195313
1726.071289	53919.074219
1725.053711	54384.617188
1724.035156	54592.203125
1723.017578	54444.117188
1721.999023	54675.476563
1720.980469	55047.503906
1719.961914	55001.980469
1718.942383	55419.128906
1717.923828	55349.703125
1716.904297	55549.691406
1715.884766	56114.296875
1714.865234	56068.609375
1713.844727	55827.554688
1712.825195	55546.078125
1711.804688	55981.652344
1710.784180	55402.566406
1709.763672	55302.269531
1708.743164	55456.734375
1707.722656	55680.167969
1706.701172	55299.054688
1705.679688	55141.734375
1704.658203	55153.375000
1703.636719	54972.347656
1702.615234	55064.863281
1701.592773	54444.039063
1700.571289	54588.910156
1699.548828	54712.335938
1698.526367	54657.484375
1697.502930	54281.894531
1696.480469	54400.550781
1695.457031	54257.898438
1694.433594	54502.371094
1693.410156	54013.097656
1692.386719	54174.441406
1691.363281	54307.242188
1690.338867	54596.613281
1689.314453	54155.113281
1688.290039	54238.023438
1687.265625	54792.886719
1686.241211	54470.148438
1685.215820	53651.996094
1684.191406	54894.109375
1683.166016	54592.851563
1682.140625	54749.042969
1681.115234	54883.851563
1680.088867	55421.316406
1679.062500	54613.324219
1678.037109	55370.863281
1677.010742	55394.183594
1675.983398	55531.113281
1674.957031	55298.785156
1673.930664	55537.433594
1672.903320	55818.582031
1671.875977	55423.097656
1670.848633	55344.675781
1669.820313	55571.312500
1668.792969	56081.574219
1667.764648	55875.421875
1666.736328	55993.121094
1665.708008	56252.554688
1664.679688	56731.613281
1663.651367	56492.410156
1662.622070	56692.570313
1661.592773	56739.171875
1660.563477	56717.289063
1659.534180	57134.453125
1658.504883	57289.503906
1657.474609	57680.460938
1656.444336	57285.667969
1655.415039	57457.113281
1654.383789	57916.214844
1653.353516	57839.902344
1652.323242	57959.289063
1651.291992	57651.996094
1650.260742	58308.687500
1649.229492	58486.824219
1648.198242	57911.027344
1647.166016	58385.949219
1646.134766	59447.093750
1645.102539	59241.097656
1644.070313	59729.648438
1643.038086	59556.621094
1642.004883	59402.480469
1640.972656	59822.500000
1639.939453	59781.277344
1638.906250	60196.371094
1637.873047	60347.929688
1636.839844	60682.828125
1635.805664	60907.117188
1634.772461	61321.707031
1633.738281	61331.949219
1632.704102	62162.179688
1631.668945	62679.679688
1630.634766	62642.691406
1629.599609	63505.117188
1628.565430	63580.687500
1627.530273	63980.183594
1626.494141	64022.781250
1625.458984	65161.238281
1624.422852	66156.164063
1623.387695	66768.375000
1622.351563	68018.304688
1621.315430	69314.687500
1620.278320	70533.234375
1619.242188	72152.195313
1618.205078	74600.242188
1617.167969	75840.625000
1616.130859	78219.195313
1615.093750	80735.125000
1614.055664	82760.664063
1613.018555	84038.507813
1611.980469	85964.398438
1610.942383	86876.046875
1609.904297	87003.335938
1608.865234	86763.203125
1607.827148	85959.328125
1606.788086	83724.187500
1605.749023	81719.039063
1604.709961	79494.796875
1603.669922	77276.023438
1602.630859	75782.648438
1601.590820	74967.539063
1600.550781	73414.351563
1599.510742	72623.312500
1598.470703	71073.421875
1597.429688	70434.875000
1596.389648	70370.953125
1595.348633	69564.671875
1594.307617	69190.476563
1593.265625	69161.812500
1592.224609	68878.820313
1591.182617	68523.609375
1590.140625	68289.812500
1589.098633	68191.351563
1588.056641	68074.265625
1587.014648	68318.562500
1585.971680	68038.343750
1584.928711	67574.117188
1583.886719	68181.835938
1582.842773	67834.218750
1581.799805	68029.414063
1580.755859	68431.796875
1579.712891	67716.437500
1578.668945	68211.843750
1577.625000	68399.835938
1576.580078	68932.164063
1575.536133	68703.492188
1574.491211	69519.367188
1573.446289	69262.757813
1572.401367	69768.960938
1571.356445	70733.007813
1570.311523	70102.046875
1569.265625	71230.695313
1568.219727	70574.304688
1567.173828	70615.148438
1566.127930	70040.398438
1565.082031	70236.921875
1564.035156	69687.984375
1562.988281	69424.804688
1561.941406	68349.273438
1560.894531	68084.101563
1559.847656	68174.039063
1558.799805	68324.265625
1557.751953	68036.039063
1556.704102	67638.906250
1555.656250	67761.312500
1554.608398	67974.093750
1553.560547	67632.804688
1552.511719	67266.140625
1551.462891	67543.765625
1550.414063	67659.117188
1549.365234	67204.617188
1548.315430	67968.429688
1547.265625	67145.875000
1546.216797	67791.351563
1545.166992	67457.500000
1544.116211	66880.781250
1543.066406	67229.781250
1542.015625	67425.968750
1540.965820	67302.898438
1539.915039	67519.812500
1538.863281	67163.234375
1537.812500	67148.914063
1536.760742	66829.507813
1535.709961	66898.437500
1534.658203	66886.476563
1533.605469	66248.492188
1532.553711	66171.976563
1531.501953	65966.164063
1530.449219	65490.289063
1529.396484	65097.687500
1528.343750	64566.742188
1527.290039	64827.492188
1526.237305	64382.144531
1525.183594	64098.425781
1524.129883	64485.960938
1523.076172	64103.167969
1522.022461	63685.925781
1520.968750	63626.121094
1519.914063	63564.035156
1518.859375	63278.449219
1517.804688	62663.507813
1516.750000	63089.953125
1515.694336	62364.714844
1514.639648	62420.328125
1513.583984	62604.847656
1512.528320	62473.945313
1511.472656	62419.035156
1510.416016	62253.695313
1509.360352	62371.382813
1508.303711	62360.218750
1507.247070	62491.636719
1506.190430	62625.308594
1505.132813	61797.968750
1504.076172	61704.156250
1503.018555	61955.093750
1501.960938	61914.125000
1500.903320	61932.902344
1499.844727	61765.621094
1498.787109	61867.085938
1497.728516	61890.445313
1496.669922	62088.261719
1495.611328	61721.375000
1494.552734	60953.023438
1493.493164	61591.425781
1492.434570	61032.121094
1491.375000	60970.722656
1490.315430	60631.871094
1489.254883	60829.648438
1488.195313	60426.753906
1487.134766	60789.511719
1486.074219	60095.734375
1485.013672	60096.417969
1483.953125	60472.777344
1482.892578	60239.777344
1481.831055	60087.003906
1480.769531	60030.441406
1479.708008	59907.515625
1478.646484	60297.289063
1477.583984	59874.589844
1476.522461	59918.761719
1475.459961	59965.203125
1474.397461	60105.390625
1473.334961	60394.156250
1472.271484	59708.894531
1471.208984	60027.339844
1470.145508	59991.429688
1469.082031	59880.128906
1468.018555	60011.031250
1466.954102	59950.011719
1465.890625	59562.437500
1464.826172	60825.851563
1463.761719	60356.066406
1462.697266	60559.792969
1461.631836	59973.832031
1460.567383	60711.468750
1459.501953	60479.285156
1458.436523	60657.742188
1457.371094	60471.257813
1456.305664	60982.535156
1455.239258	60725.386719
1454.172852	60383.992188
1453.107422	60496.207031
1452.040039	60508.128906
1450.973633	60681.785156
1449.907227	60354.300781
1448.839844	60675.933594
1447.772461	60603.562500
1446.705078	60852.183594
1445.637695	60747.937500
1444.569336	60798.468750
1443.500977	60919.503906
1442.432617	61252.046875
1441.364258	61691.359375
1440.295898	61737.125000
1439.227539	61657.828125
1438.158203	62228.664063
1437.088867	62006.121094
1436.019531	62656.214844
1434.950195	62154.226563
1433.879883	62676.855469
1432.810547	63053.941406
1431.740234	63544.421875
1430.669922	63535.269531
1429.598633	63542.007813
1428.528320	63839.226563
1427.457031	64903.269531
1426.386719	64158.835938
1425.314453	64929.832031
1424.243164	64437.382813
1423.171875	64387.250000
1422.099609	65096.574219
1421.027344	64982.871094
1419.955078	65404.019531
1418.882813	65265.375000
1417.810547	65067.875000
1416.737305	65459.332031
1415.664063	64822.542969
1414.590820	65179.933594
1413.517578	65073.128906
1412.444336	64491.062500
1411.370117	64026.878906
1410.295898	64295.906250
1409.221680	64030.980469
1408.147461	63465.343750
1407.073242	63851.906250
1405.998047	63218.671875
1404.922852	63435.601563
1403.847656	63666.007813
1402.772461	63654.546875
1401.697266	63310.976563
1400.621094	63340.238281
1399.544922	63678.890625
1398.468750	64378.707031
1397.392578	63838.828125
1396.316406	64274.261719
1395.239258	64479.339844
1394.162109	65304.855469
1393.084961	65834.531250
1392.007813	66064.023438
1390.930664	67303.750000
1389.852539	67749.343750
1388.774414	68012.171875
1387.696289	68809.093750
1386.618164	68409.085938
1385.540039	69054.679688
1384.460938	69067.015625
1383.382813	68795.554688
1382.303711	68634.523438
1381.223633	69092.726563
1380.144531	69005.984375
1379.064453	68628.929688
1377.985352	68974.359375
1376.905273	69038.421875
1375.825195	68522.093750
1374.744141	68192.617188
1373.664063	67719.335938
1372.583008	68392.851563
1371.501953	68023.109375
1370.420898	67869.250000
1369.338867	67710.953125
1368.257813	67137.078125
1367.175781	67062.070313
1366.093750	67602.460938
1365.011719	67296.109375
1363.929688	67304.179688
1362.846680	68560.257813
1361.763672	68370.593750
1360.680664	68813.757813
1359.597656	68790.125000
1358.514648	68717.148438
1357.430664	68343.687500
1356.346680	68461.406250
1355.262695	67731.671875
1354.178711	67215.132813
1353.094727	66817.546875
1352.009766	66128.828125
1350.925781	65653.171875
1349.840820	65327.750000
1348.755859	64859.125000
1347.669922	64477.984375
1346.584961	63998.480469
1345.499023	63895.160156
1344.413086	63639.707031
1343.327148	63963.820313
1342.240234	63583.171875
1341.154297	63663.386719
1340.067383	63332.117188
1338.980469	63179.828125
1337.893555	63248.886719
1336.805664	63277.691406
1335.718750	63377.988281
1334.630859	63753.039063
1333.542969	63422.101563
1332.455078	63305.675781
1331.367188	63682.761719
1330.278320	63700.277344
1329.189453	63737.871094
1328.100586	63922.742188
1327.011719	64357.453125
1325.922852	64689.378906
1324.833008	65299.992188
1323.743164	65602.632813
1322.653320	65896.242188
1321.563477	66934.320313
1320.473633	68428.945313
1319.382813	68786.500000
1318.291992	69736.593750
1317.201172	70574.953125
1316.110352	71528.828125
1315.019531	71731.898438
1313.927734	73355.375000
1312.835938	73502.382813
1311.744141	73987.640625
1310.652344	73328.929688
1309.560547	72872.914063
1308.467773	72414.843750
1307.375000	71276.375000
1306.282227	70921.031250
1305.189453	70038.914063
1304.095703	69506.093750
1303.002930	69111.257813
1301.909180	68483.242188
1300.815430	68279.789063
1299.721680	67807.632813
1298.626953	67615.476563
1297.533203	67763.109375
1296.438477	67475.554688
1295.343750	67643.132813
1294.248047	67704.117188
1293.153320	67658.578125
1292.057617	68189.843750
1290.961914	68372.679688
1289.866211	68628.625000
1288.770508	68897.789063
1287.674805	69075.953125
1286.578125	68515.992188
1285.481445	68581.140625
1284.384766	68526.617188
1283.288086	68773.390625
1282.190430	68242.664063
1281.092773	68135.078125
1279.996094	68437.125000
1278.897461	67871.320313
1277.799805	67925.421875
1276.702148	66833.265625
1275.603516	67024.695313
1274.504883	66559.085938
1273.406250	66785.875000
1272.307617	65999.851563
1271.208008	66783.773438
1270.108398	66389.273438
1269.008789	65796.007813
1267.909180	65419.492188
1266.809570	65710.289063
1265.708984	65247.785156
1264.609375	65196.203125
1263.508789	64683.164063
1262.407227	65037.894531
1261.306641	64571.417969
1260.206055	65168.781250
1259.104492	64814.968750
1258.002930	64584.820313
1256.901367	64317.257813
1255.798828	63822.652344
1254.697266	63848.554688
1253.594727	63773.042969
1252.492188	63360.343750
1251.389648	63562.597656
1250.286133	63509.203125
1249.183594	63669.496094
1248.080078	63475.140625
1246.976563	63366.734375
1245.872070	63830.773438
1244.768555	63577.058594
1243.664063	63380.648438
1242.560547	63879.636719
1241.455078	63582.039063
1240.350586	64210.578125
1239.246094	64522.199219
1238.140625	64323.585938
1237.035156	63263.269531
1235.929688	63818.867188
1234.824219	63776.507813
1233.717773	63742.953125
1232.612305	63386.480469
1231.505859	62977.417969
1230.399414	62792.492188
1229.291992	63209.226563
1228.185547	63184.574219
1227.078125	62982.144531
1225.970703	62854.398438
1224.863281	62535.816406
1223.755859	62116.441406
1222.647461	62265.257813
1221.539063	62626.718750
1220.430664	62380.750000
1219.322266	62189.664063
1218.213867	62397.523438
1217.104492	61737.578125
1215.995117	61853.425781
1214.885742	61528.949219
1213.776367	61944.816406
1212.666992	61598.539063
1211.556641	61672.718750
1210.446289	61615.539063
1209.335938	62015.761719
1208.225586	61776.925781
1207.115234	61369.726563
1206.003906	61946.933594
1204.892578	61902.863281
1203.781250	62348.566406
1202.669922	62584.250000
1201.557617	62623.132813
1200.446289	62703.519531
1199.333984	62279.175781
1198.221680	62870.750000
1197.108398	63370.378906
1195.996094	63247.480469
1194.882813	63679.171875
1193.769531	64139.082031
1192.656250	63793.488281
1191.542969	64124.460938
1190.428711	64165.148438
1189.314453	63920.070313
1188.200195	63326.140625
1187.085938	62902.500000
1185.971680	62840.906250
1184.856445	63361.304688
1183.741211	62916.089844
1182.625977	62959.105469
1181.510742	62888.820313
1180.395508	63042.898438
1179.279297	63281.851563
1178.163086	63109.207031
1177.046875	63313.222656
1175.930664	63031.800781
1174.813477	63355.441406
1173.697266	62858.710938
1172.580078	62888.589844
1171.462891	63547.007813
1170.344727	62502.527344
