#Wave		#Intensity
2001.182617	33649.722656
2000.212891	33431.656250
1999.243164	33430.832031
1998.273438	33139.355469
1997.303711	33454.234375
1996.333008	33661.296875
1995.363281	33750.582031
1994.392578	33689.605469
1993.421875	33428.371094
1992.451172	33397.503906
1991.479492	33421.703125
1990.508789	33370.828125
1989.537109	33334.980469
1988.566406	33911.949219
1987.594727	33563.414063
1986.622070	33942.609375
1985.650391	33549.191406
1984.677734	33670.804688
1983.706055	33572.457031
1982.733398	33236.773438
1981.760742	33408.335938
1980.788086	33654.773438
1979.814453	34068.441406
1978.841797	33705.433594
1977.868164	33482.351563
1976.894531	33651.222656
1975.920898	33425.730469
1974.947266	33617.003906
1973.972656	33885.546875
1972.999023	33817.265625
1972.024414	33888.664063
1971.049805	33553.613281
1970.075195	33742.195313
1969.099609	33716.359375
1968.125000	33648.160156
1967.149414	33986.125000
1966.173828	33686.218750
1965.198242	33378.945313
1964.222656	34015.617188
1963.247070	33516.664063
1962.270508	34006.210938
1961.294922	34284.011719
1960.318359	34086.394531
1959.341797	34053.062500
1958.364258	33920.230469
1957.387695	33934.195313
1956.410156	33871.062500
1955.433594	33902.429688
1954.456055	33961.136719
1953.478516	34062.074219
1952.500000	34451.246094
1951.522461	34303.589844
1950.543945	33691.429688
1949.565430	34318.906250
1948.586914	34285.585938
1947.608398	34197.648438
1946.629883	34362.953125
1945.650391	34664.718750
1944.671875	34092.835938
1943.692383	34253.109375
1942.712891	34252.074219
1941.733398	34583.402344
1940.752930	33982.171875
1939.773438	33847.289063
1938.792969	34379.312500
1937.812500	34375.769531
1936.832031	34352.406250
1935.851563	34762.648438
1934.870117	34246.234375
1933.888672	34809.917969
1932.908203	34590.847656
1931.926758	34599.644531
1930.945313	34256.906250
1929.962891	34211.304688
1928.981445	34794.289063
1927.999023	34224.058594
1927.016602	34779.625000
1926.034180	34360.472656
1925.051758	35168.058594
1924.069336	34523.980469
1923.085938	34391.855469
1922.102539	34516.824219
1921.119141	34869.105469
1920.135742	34843.226563
1919.152344	34763.011719
1918.168945	34798.164063
1917.184570	34833.351563
1916.200195	34868.539063
1915.215820	34903.730469
1914.231445	34938.917969
1913.247070	34974.105469
1912.261719	35009.328125
1911.276367	35044.550781
1910.291992	35079.738281
1909.306641	35114.960938
1908.320313	35150.218750
1907.334961	35185.441406
1906.348633	35028.917969
1905.363281	35126.277344
1904.376953	35250.699219
1903.390625	34993.246094
1902.403320	35354.097656
1901.416992	35205.066406
1900.429688	35282.601563
1899.443359	35389.648438
1898.456055	35459.742188
1897.467773	35291.101563
1896.480469	34652.582031
1895.493164	35522.257813
1894.504883	34785.535156
1893.516602	35846.691406
1892.528320	35210.972656
1891.540039	35094.171875
1890.550781	35196.156250
1889.562500	35674.085938
1888.573242	35478.636719
1887.583984	35784.386719
1886.594727	35328.636719
1885.605469	35668.683594
1884.615234	35790.093750
1883.625000	35565.332031
1882.635742	35713.710938
1881.645508	35466.953125
1880.654297	35850.835938
1879.664063	36143.816406
1878.673828	35982.949219
1877.682617	35839.304688
1876.691406	35771.714844
1875.700195	35439.398438
1874.708984	35817.968750
1873.716797	36073.882813
1872.725586	35616.730469
1871.733398	35999.964844
1870.741211	36140.593750
1869.749023	35759.578125
1868.755859	35907.539063
1867.763672	36030.968750
1866.770508	35899.816406
1865.777344	36201.835938
1864.784180	36051.121094
1863.791016	36120.617188
1862.797852	36283.027344
1861.803711	36352.453125
1860.809570	36184.699219
1859.815430	36329.894531
1858.821289	35895.800781
1857.827148	36121.632813
1856.832031	36462.214844
1855.837891	36719.621094
1854.842773	35982.906250
1853.847656	36333.097656
1852.852539	36448.781250
1851.856445	36615.683594
1850.861328	36428.636719
1849.865234	36451.511719
1848.869141	36506.093750
1847.873047	36602.125000
1846.876953	36883.476563
1845.879883	36567.300781
1844.883789	36599.875000
1843.886719	37124.835938
1842.889648	36911.144531
1841.892578	37201.933594
1840.895508	36983.425781
1839.897461	37120.632813
1838.899414	37452.632813
1837.901367	36973.640625
1836.903320	36969.570313
1835.905273	37501.015625
1834.907227	37178.027344
1833.908203	36794.316406
1832.909180	37284.148438
1831.910156	37275.152344
1830.911133	37066.730469
1829.912109	36911.875000
1828.912109	37666.335938
1827.913086	37820.132813
1826.913086	37259.359375
1825.913086	37702.328125
1824.913086	37639.808594
1823.912109	37914.949219
1822.912109	37730.984375
1821.911133	38207.546875
1820.910156	37462.777344
1819.909180	37822.703125
1818.908203	37711.683594
1817.906250	37724.449219
1816.904297	37484.902344
1815.903320	38043.468750
1814.900391	38017.363281
1813.898438	37785.160156
1812.896484	38115.484375
1811.893555	38062.714844
1810.891602	38116.593750
1809.888672	38262.527344
1808.885742	37902.078125
1807.881836	38084.328125
1806.878906	38101.832031
1805.875000	38714.980469
1804.871094	38383.753906
1803.867188	38209.968750
1802.863281	38517.843750
1801.859375	38397.328125
1800.854492	38274.433594
1799.849609	38666.785156
1798.844727	38517.281250
1797.839844	38798.222656
1796.834961	38890.500000
1795.830078	38690.273438
1794.824219	39048.363281
1793.818359	38884.417969
1792.812500	38785.757813
1791.806641	39003.546875
1790.799805	38904.898438
1789.793945	39115.339844
1788.787109	39081.882813
1787.780273	39164.292969
1786.773438	38795.394531
1785.766602	39307.304688
1784.758789	38909.558594
1783.751953	39172.832031
1782.744141	38816.246094
1781.736328	39578.539063
1780.728516	39132.808594
1779.719727	39670.621094
1778.711914	39678.078125
1777.703125	39615.656250
1776.694336	39733.929688
1775.685547	39724.503906
1774.676758	39823.449219
1773.666992	40069.226563
1772.657227	39987.523438
1771.648438	40538.855469
1770.638672	40416.187500
1769.627930	40187.695313
1768.618164	40120.457031
1767.607422	40370.722656
1766.597656	40743.539063
1765.586914	40534.378906
1764.576172	40794.050781
1763.564453	40940.664063
1762.553711	40577.781250
1761.541992	40647.496094
1760.530273	41034.269531
1759.518555	40894.921875
1758.506836	41228.687500
1757.495117	41353.449219
1756.482422	41295.730469
1755.469727	41593.242188
1754.457031	41415.515625
1753.444336	41744.085938
1752.431641	41408.070313
1751.417969	41947.578125
1750.405273	42093.632813
1749.391602	42045.429688
1748.377930	42165.042969
1747.364258	42236.679688
1746.349609	42138.152344
1745.335938	42231.324219
1744.321289	42310.089844
1743.306641	42010.417969
1742.291992	42730.933594
1741.276367	42627.613281
1740.261719	42756.511719
1739.246094	42667.578125
1738.230469	42533.207031
1737.214844	43123.792969
1736.199219	43565.863281
1735.182617	43374.003906
1734.166992	43777.609375
1733.150391	44114.128906
1732.133789	44247.351563
1731.117188	44356.628906
1730.099609	44602.062500
1729.083008	45048.089844
1728.065430	45004.285156
1727.047852	45454.855469
1726.030273	45375.175781
1725.012695	46157.363281
1723.994141	46464.269531
1722.976563	45852.250000
1721.958008	45739.144531
1720.939453	46878.558594
1719.920898	46686.589844
1718.901367	47105.207031
1717.882813	47154.093750
1716.863281	47279.246094
1715.843750	47392.433594
1714.824219	47229.132813
1713.803711	47587.707031
1712.784180	47779.390625
1711.763672	47904.312500
1710.743164	47662.441406
1709.722656	47661.140625
1708.702148	48071.683594
1707.681641	47837.050781
1706.660156	47742.902344
1705.638672	47313.296875
1704.617188	47390.554688
1703.595703	47696.117188
1702.574219	47973.031250
1701.551758	47134.726563
1700.529297	47887.089844
1699.507813	47507.816406
1698.484375	47397.210938
1697.461914	47341.289063
1696.439453	47446.921875
1695.416016	47300.750000
1694.392578	47472.843750
1693.369141	47488.167969
1692.345703	47351.558594
1691.322266	47428.605469
1690.297852	47534.097656
1689.273438	47539.902344
1688.249023	47607.382813
1687.224609	47354.644531
1686.200195	47415.015625
1685.174805	47283.316406
1684.150391	47941.039063
1683.125000	47908.832031
1682.099609	47679.953125
1681.073242	47951.062500
1680.047852	48129.691406
1679.021484	48305.886719
1677.995117	48458.335938
1676.968750	48302.949219
1675.942383	48812.781250
1674.916016	48647.914063
1673.888672	48693.703125
1672.862305	48843.574219
1671.834961	48794.687500
1670.806641	49107.671875
1669.779297	48793.917969
1668.751953	48792.347656
1667.723633	49362.808594
1666.695313	49143.707031
1665.666992	49118.437500
1664.638672	49764.136719
1663.609375	49571.054688
1662.581055	49961.375000
1661.551758	49463.718750
1660.522461	49480.902344
1659.493164	49793.128906
1658.462891	49798.445313
1657.433594	49990.164063
1656.403320	50014.312500
1655.373047	50033.730469
1654.342773	50008.332031
1653.312500	50216.375000
1652.281250	49997.632813
1651.250977	50116.031250
1650.219727	51009.722656
1649.188477	50757.964844
1648.156250	50541.632813
1647.125000	50876.535156
1646.092773	50634.347656
1645.060547	51006.785156
1644.028320	51364.964844
1642.996094	50423.757813
1641.963867	51372.589844
1640.930664	51363.453125
1639.898438	51554.281250
1638.865234	51187.601563
1637.832031	51778.164063
1636.797852	51150.589844
1635.764648	52093.562500
1634.730469	52293.480469
1633.696289	52093.832031
1632.662109	52176.199219
1631.627930	52406.527344
1630.592773	53141.742188
1629.558594	52817.621094
1628.523438	53294.230469
1627.488281	54150.957031
1626.453125	54122.546875
1625.416992	54305.335938
1624.381836	54703.910156
1623.345703	55189.136719
1622.309570	56452.843750
1621.273438	57406.570313
1620.237305	58195.835938
1619.200195	58928.558594
1618.163086	59942.261719
1617.125977	61508.613281
1616.088867	63238.406250
1615.051758	64698.203125
1614.014648	66365.914063
1612.976563	67934.679688
1611.938477	68676.445313
1610.900391	69120.664063
1609.862305	69443.031250
1608.823242	69119.445313
1607.785156	68080.085938
1606.746094	66645.789063
1605.707031	65675.054688
1604.667969	63339.109375
1603.628906	62240.722656
1602.588867	60927.683594
1601.548828	59713.261719
1600.508789	58821.722656
1599.468750	58928.050781
1598.428711	58011.269531
1597.387695	57092.476563
1596.347656	56657.343750
1595.306641	57090.804688
1594.265625	56849.554688
1593.224609	56160.316406
1592.182617	55888.976563
1591.140625	55515.089844
1590.099609	55582.164063
1589.057617	54872.644531
1588.014648	55072.707031
1586.972656	54512.726563
1585.929688	54764.054688
1584.887695	54423.375000
1583.844727	54392.699219
1582.800781	54389.988281
1581.757813	54068.187500
1580.714844	54147.035156
1579.670898	53981.378906
1578.626953	54197.554688
1577.583008	54434.597656
1576.538086	54448.156250
1575.494141	54210.433594
1574.449219	54149.585938
1573.404297	54142.250000
1572.359375	54488.371094
1571.314453	54834.371094
1570.269531	54764.144531
1569.223633	54573.089844
1568.177734	53782.578125
1567.131836	54460.679688
1566.085938	53879.527344
1565.040039	53795.589844
1563.993164	53184.570313
1562.946289	53625.476563
1561.899414	53263.074219
1560.852539	53204.828125
1559.805664	53297.425781
1558.757813	52638.312500
1557.709961	53392.054688
1556.662109	53760.542969
1555.614258	53219.945313
1554.566406	53293.902344
1553.517578	52927.421875
1552.469727	53026.890625
1551.420898	53395.105469
1550.372070	53427.269531
1549.322266	53496.476563
1548.273438	52901.007813
1547.223633	52903.132813
1546.173828	53578.929688
1545.124023	53458.253906
1544.074219	53018.261719
1543.024414	53217.027344
1541.973633	53499.000000
1540.922852	53568.078125
1539.872070	53114.496094
1538.821289	52765.117188
1537.770508	52381.187500
1536.718750	52369.511719
1535.666992	53014.132813
1534.615234	52824.437500
1533.563477	52851.953125
1532.511719	52650.800781
1531.458984	53262.574219
1530.407227	52955.210938
1529.354492	52209.355469
1528.300781	53143.992188
1527.248047	52259.910156
1526.195313	52919.644531
1525.141602	52746.398438
1524.087891	52402.542969
1523.034180	52028.828125
1521.980469	52367.656250
1520.925781	52155.437500
1519.871094	52395.011719
1518.817383	52120.644531
1517.762695	52143.570313
1516.707031	52293.179688
1515.652344	51657.390625
1514.596680	51468.539063
1513.541016	52391.730469
1512.485352	51862.140625
1511.429688	52430.511719
1510.374023	51965.527344
1509.317383	52384.132813
1508.260742	52045.832031
1507.204102	51967.519531
1506.147461	52556.042969
1505.090820	52461.574219
1504.033203	52252.207031
1502.975586	52281.917969
1501.917969	52536.789063
1500.860352	52380.355469
1499.802734	52416.910156
1498.744141	52621.093750
1497.686523	52297.109375
1496.627930	52462.207031
1495.569336	52468.875000
1494.509766	52257.531250
1493.451172	52429.425781
1492.391602	52757.250000
1491.332031	52676.695313
1490.272461	52495.269531
1489.212891	52428.542969
1488.152344	52815.722656
1487.092773	52588.519531
1486.032227	52854.078125
1484.971680	52773.578125
1483.910156	52060.875000
1482.849609	52747.789063
1481.788086	53074.945313
1480.726563	52893.718750
1479.665039	53145.191406
1478.603516	53103.621094
1477.541992	53062.062500
1476.479492	53173.800781
1475.416992	53372.421875
1474.354492	52990.066406
1473.291992	53147.484375
1472.229492	53442.015625
1471.166016	53142.132813
1470.102539	53121.171875
1469.039063	53545.785156
1467.975586	53888.000000
1466.912109	53490.027344
1465.847656	53676.832031
1464.783203	53648.933594
1463.718750	53840.203125
1462.654297	54754.953125
1461.589844	54069.628906
1460.524414	53852.289063
1459.458984	53911.062500
1458.393555	54790.921875
1457.328125	54434.457031
1456.262695	54433.808594
1455.196289	54462.789063
1454.130859	54188.621094
1453.064453	54436.398438
1451.998047	54520.039063
1450.930664	54635.539063
1449.864258	54655.335938
1448.796875	54672.847656
1447.729492	54886.148438
1446.662109	55181.324219
1445.594727	55150.929688
1444.526367	55245.699219
1443.458008	55219.847656
1442.390625	55764.960938
1441.321289	55795.882813
1440.252930	56140.585938
1439.184570	56646.585938
1438.115234	56527.296875
1437.045898	57169.398438
1435.976563	57090.957031
1434.907227	57201.105469
1433.836914	57781.406250
1432.767578	58386.476563
1431.697266	58914.125000
1430.626953	58535.753906
1429.555664	59004.164063
1428.485352	59170.574219
1427.414063	59262.039063
1426.342773	60458.281250
1425.271484	60052.746094
1424.200195	60230.171875
1423.128906	60294.164063
1422.056641	60759.386719
1420.984375	60870.855469
1419.912109	61000.406250
1418.839844	61048.343750
1417.767578	60842.542969
1416.694336	60596.046875
1415.621094	61291.675781
1414.547852	60402.171875
1413.474609	59952.144531
1412.400391	59961.726563
1411.327148	59803.851563
1410.252930	59089.453125
1409.178711	58997.386719
1408.104492	58575.140625
1407.029297	58863.085938
1405.955078	58786.929688
1404.879883	59117.675781
1403.804688	59057.312500
1402.729492	58947.257813
1401.653320	58947.941406
1400.578125	59280.667969
1399.501953	59586.175781
1398.425781	59376.742188
1397.349609	59424.746094
1396.272461	59797.769531
1395.196289	60710.027344
1394.119141	61069.144531
1393.041992	61175.453125
1391.964844	61534.351563
1390.886719	61696.914063
1389.809570	62346.445313
1388.731445	63254.992188
1387.653320	63931.050781
1386.575195	64025.449219
1385.497070	63482.171875
1384.417969	63439.195313
1383.338867	63535.875000
1382.259766	63416.332031
1381.180664	62889.304688
1380.101563	63334.945313
1379.021484	62945.410156
1377.941406	63147.843750
1376.861328	63345.699219
1375.781250	62789.906250
1374.701172	62544.679688
1373.620117	62542.398438
1372.539063	62256.832031
1371.458008	62090.503906
1370.376953	61935.472656
1369.295898	61966.996094
1368.213867	61627.808594
1367.132813	61744.730469
1366.050781	61327.097656
1364.967773	62014.367188
1363.885742	62009.914063
1362.802734	62714.761719
1361.720703	62761.796875
1360.637695	63493.175781
1359.554688	63163.156250
1358.470703	63346.902344
1357.387695	63248.007813
1356.303711	62371.109375
1355.219727	62113.257813
1354.135742	61761.355469
1353.050781	61100.324219
1351.966797	60829.390625
1350.881836	59649.039063
1349.796875	59853.289063
1348.711914	59726.039063
1347.626953	59157.753906
1346.541016	59064.246094
1345.455078	58292.609375
1344.369141	58626.699219
1343.283203	58750.351563
1342.197266	58048.527344
1341.110352	57966.476563
1340.023438	58550.816406
1338.936523	57979.074219
1337.849609	58107.191406
1336.762695	58358.179688
1335.674805	58282.835938
1334.586914	57780.800781
1333.499023	58089.781250
1332.411133	57855.957031
1331.323242	58673.910156
1330.234375	58341.828125
1329.145508	58400.476563
1328.056641	58534.984375
1326.967773	59077.761719
1325.878906	59058.160156
1324.789063	59781.312500
1323.699219	60029.195313
1322.609375	60294.824219
1321.519531	61131.046875
1320.429688	62238.886719
1319.338867	62602.015625
1318.248047	63646.796875
1317.157227	64564.218750
1316.066406	65441.218750
1314.975586	66353.531250
1313.883789	66918.179688
1312.791992	67429.195313
1311.700195	67532.734375
1310.608398	67609.523438
1309.516602	66742.960938
1308.423828	66352.726563
1307.331055	65769.148438
1306.238281	64447.527344
1305.145508	63760.003906
1304.051758	62930.468750
1302.958984	62279.019531
1301.865234	62289.968750
1300.771484	61989.886719
1299.677734	61705.457031
1298.583008	60974.742188
1297.489258	61958.453125
1296.394531	62082.656250
1295.299805	62311.136719
1294.204102	62408.593750
1293.109375	62186.507813
1292.013672	62250.675781
1290.917969	62217.222656
1289.822266	62709.351563
1288.726563	62214.644531
1287.630859	62090.320313
1286.534180	61629.148438
1285.437500	61385.304688
1284.340820	61267.835938
1283.244141	61041.863281
1282.146484	60277.777344
1281.048828	60353.218750
1279.951172	60514.972656
1278.853516	60152.046875
1277.755859	59658.671875
1276.658203	59428.796875
1275.559570	59406.964844
1274.460938	58856.472656
1273.362305	58938.695313
1272.262695	58333.203125
1271.164063	57778.777344
1270.064453	58228.062500
1268.964844	57587.660156
1267.865234	58111.941406
1266.765625	57465.160156
1265.665039	56946.722656
1264.564453	57026.937500
1263.463867	56941.527344
1262.363281	56589.027344
1261.262695	56739.886719
1260.161133	56491.265625
1259.059570	56439.097656
1257.958008	56069.285156
1256.856445	55869.433594
1255.754883	55940.890625
1254.652344	56215.156250
1253.549805	55889.734375
1252.447266	55996.402344
1251.344727	55682.148438
1250.242188	55802.031250
1249.138672	55946.101563
1248.035156	55737.734375
1246.931641	55335.664063
1245.828125	55376.257813
1244.724609	55526.890625
1243.620117	55081.058594
1242.515625	55618.953125
1241.411133	55602.253906
1240.306641	55757.128906
1239.201172	56109.871094
1238.096680	55714.894531
1236.991211	56179.628906
1235.885742	56206.792969
1234.779297	56179.003906
1233.673828	56041.363281
1232.567383	55954.296875
1231.460938	55924.363281
1230.354492	55712.175781
1229.248047	55438.585938
1228.140625	55564.613281
1227.033203	55451.363281
1225.926758	55522.480469
1224.818359	55569.437500
1223.710938	55489.144531
1222.602539	55428.617188
1221.495117	55712.378906
1220.386719	55320.773438
1219.278320	55409.359375
1218.168945	55088.078125
1217.060547	55341.011719
1215.951172	55300.277344
1214.841797	55743.640625
1213.731445	55039.273438
1212.622070	55622.648438
1211.511719	55115.582031
1210.402344	55245.644531
1209.291992	55631.703125
1208.180664	55833.820313
1207.070313	55790.851563
1205.958984	55918.500000
1204.847656	56557.816406
1203.736328	56066.511719
1202.625000	56565.660156
1201.512695	56745.515625
1200.401367	56586.597656
1199.289063	56633.105469
1198.176758	56965.757813
1197.063477	57549.453125
1195.951172	57287.859375
1194.837891	57430.261719
1193.724609	57858.562500
1192.611328	58131.750000
1191.498047	58217.175781
1190.383789	57578.261719
1189.269531	57356.199219
1188.155273	56957.562500
1187.041016	57169.601563
1185.926758	56363.464844
1184.811523	55973.941406
1183.696289	56260.128906
1182.581055	55831.539063
1181.465820	55753.839844
1180.350586	55671.808594
1179.234375	55454.785156
1178.118164	55300.984375
1177.001953	55288.734375
1175.885742	55666.078125
1174.768555	54835.546875
1173.652344	54886.476563
1172.535156	55294.132813
1171.417969	54577.210938
1170.299805	54391.132813
