#Wave		#Intensity
2001.242188	41876.492188
2000.272461	41881.503906
1999.302734	41518.328125
1998.333008	42044.785156
1997.363281	42297.984375
1996.392578	42077.695313
1995.422852	41774.835938
1994.452148	42280.843750
1993.481445	42473.738281
1992.510742	42043.308594
1991.540039	42431.375000
1990.568359	42008.609375
1989.596680	42434.070313
1988.625977	42096.488281
1987.654297	42841.890625
1986.681641	42266.812500
1985.709961	42346.929688
1984.738281	42074.582031
1983.765625	42552.054688
1982.792969	42654.562500
1981.820313	42914.421875
1980.847656	42694.609375
1979.874023	42762.070313
1978.901367	42916.898438
1977.927734	42597.339844
1976.954102	42752.136719
1975.980469	43099.039063
1975.006836	43041.605469
1974.032227	43236.156250
1973.058594	43176.218750
1972.083984	42999.085938
1971.109375	43313.222656
1970.134766	43210.917969
1969.160156	43108.644531
1968.184570	42906.722656
1967.209961	43190.746094
1966.234375	43105.968750
1965.258789	43434.687500
1964.283203	43320.007813
1963.306641	43412.027344
1962.331055	43364.605469
1961.354492	43202.699219
1960.377930	43396.722656
1959.401367	43730.011719
1958.424805	43734.800781
1957.447266	43162.527344
1956.470703	43582.722656
1955.493164	43594.988281
1954.515625	43398.425781
1953.538086	43559.851563
1952.560547	43693.882813
1951.582031	43984.402344
1950.604492	43971.738281
1949.625977	43678.402344
1948.647461	43554.035156
1947.668945	43797.195313
1946.689453	43923.585938
1945.710938	43714.847656
1944.731445	44168.785156
1943.751953	44146.167969
1942.772461	44217.824219
1941.792969	44229.925781
1940.813477	43760.914063
1939.833008	44264.027344
1938.852539	43904.250000
1937.873047	44293.144531
1936.891602	44151.566406
1935.911133	44111.621094
1934.930664	43806.617188
1933.949219	43967.375000
1932.967773	43952.242188
1931.986328	44281.285156
1931.004883	44139.847656
1930.023438	44443.984375
1929.041016	44295.136719
1928.059570	44341.812500
1927.077148	44413.207031
1926.094727	44304.015625
1925.112305	44855.148438
1924.128906	44899.210938
1923.146484	44527.941406
1922.163086	44033.214844
1921.179688	44603.773438
1920.196289	44783.738281
1919.212891	44810.472656
1918.228516	44523.515625
1917.245117	44836.750000
1916.260742	44527.660156
1915.276367	44974.085938
1914.291992	44494.769531
1913.307617	44975.593750
1912.322266	44915.894531
1911.336914	44875.945313
1910.352539	44942.074219
1909.367188	44571.679688
1908.380859	44904.121094
1907.395508	44854.335938
1906.409180	45088.019531
1905.423828	45474.402344
1904.437500	45160.902344
1903.451172	44933.730469
1902.463867	45519.441406
1901.477539	45112.515625
1900.490234	45626.582031
1899.503906	45323.167969
1898.516602	45334.906250
1897.528320	45351.558594
1896.541016	45070.492188
1895.553711	44966.640625
1894.565430	45005.480469
1893.577148	45388.589844
1892.588867	45324.070313
1891.600586	45606.195313
1890.611328	45762.867188
1889.623047	45555.781250
1888.633789	45235.746094
1887.644531	45399.765625
1886.655273	45455.652344
1885.666016	45307.695313
1884.675781	45741.691406
1883.686523	46096.976563
1882.696289	45796.804688
1881.706055	45815.757813
1880.715820	45817.523438
1879.724609	45868.351563
1878.734375	45791.621094
1877.743164	45732.082031
1876.751953	45559.777344
1875.760742	45860.648438
1874.769531	45651.613281
1873.778320	45891.097656
1872.786133	46015.339844
1871.793945	45767.187500
1870.801758	46018.765625
1869.809570	45809.875000
1868.817383	46100.527344
1867.824219	46060.605469
1866.832031	45927.687500
1865.838867	45714.058594
1864.845703	45953.136719
1863.851563	45859.441406
1862.858398	45870.945313
1861.865234	46041.394531
1860.871094	45891.496094
1859.876953	45690.308594
1858.882813	45826.476563
1857.887695	46150.757813
1856.893555	46140.199219
1855.898438	45748.566406
1854.904297	45950.566406
1853.909180	45976.671875
1852.913086	46417.824219
1851.917969	46509.742188
1850.922852	46950.640625
1849.926758	46647.117188
1848.930664	46494.964844
1847.934570	46999.050781
1846.938477	46800.542969
1845.941406	46884.972656
1844.945313	47122.968750
1843.948242	46944.042969
1842.951172	46830.984375
1841.954102	46910.914063
1840.956055	46990.917969
1839.958984	47070.847656
1838.960938	47150.855469
1837.962891	47230.863281
1836.964844	47310.867188
1835.966797	47390.875000
1834.968750	47470.882813
1833.969727	47499.027344
1832.970703	47833.707031
1831.971680	47523.656250
1830.972656	48135.464844
1829.973633	47519.082031
1828.973633	47530.164063
1827.974609	47806.195313
1826.974609	47596.054688
1825.974609	47791.789063
1824.974609	47992.308594
1823.973633	48462.382813
1822.973633	48116.265625
1821.972656	47694.992188
1820.971680	47907.519531
1819.970703	47913.644531
1818.968750	48196.433594
1817.967773	47998.675781
1816.965820	48798.101563
1815.964844	48612.429688
1814.961914	48662.070313
1813.959961	48752.914063
1812.958008	48579.464844
1811.955078	48406.074219
1810.953125	48537.156250
1809.950195	48668.367188
1808.947266	48799.574219
1807.943359	48930.910156
1806.940430	49062.121094
1805.936523	49193.457031
1804.932617	49324.796875
1803.928711	49456.132813
1802.924805	49694.265625
1801.920898	49334.648438
1800.916016	49879.957031
1799.911133	49946.144531
1798.907227	49867.203125
1797.901367	49914.019531
1796.896484	50021.257813
1795.891602	50097.035156
1794.885742	50349.199219
1793.879883	50519.121094
1792.874023	50425.656250
1791.868164	50793.562500
1790.862305	50417.523438
1789.855469	50517.281250
1788.848633	50853.589844
1787.842773	50702.207031
1786.834961	50973.199219
1785.828125	50862.867188
1784.821289	51259.175781
1783.813477	51254.953125
1782.805664	51190.441406
1781.797852	51051.203125
1780.790039	51770.230469
1779.782227	51495.957031
1778.773438	51732.671875
1777.764648	51374.171875
1776.755859	52567.199219
1775.747070	51635.425781
1774.738281	51782.839844
1773.729492	51862.785156
1772.719727	51923.437500
1771.709961	51767.445313
1770.700195	52172.214844
1769.690430	52398.792969
1768.680664	52353.453125
1767.669922	52356.234375
1766.659180	52527.339844
1765.648438	52498.828125
1764.637695	52674.652344
1763.626953	52670.156250
1762.615234	52723.328125
1761.604492	53146.488281
1760.592773	53290.839844
1759.581055	52527.257813
1758.569336	52981.441406
1757.556641	52957.671875
1756.544922	53025.128906
1755.532227	53334.968750
1754.519531	53491.117188
1753.506836	53440.875000
1752.494141	53992.753906
1751.480469	53700.199219
1750.466797	53949.683594
1749.454102	53295.203125
1748.440430	54251.824219
1747.425781	54136.777344
1746.412109	54021.765625
1745.397461	54036.171875
1744.383789	54189.503906
1743.369141	54258.957031
1742.353516	54907.871094
1741.338867	54804.785156
1740.324219	55158.941406
1739.308594	55077.382813
1738.292969	55503.144531
1737.277344	55443.085938
1736.261719	55715.535156
1735.245117	56016.589844
1734.229492	55796.253906
1733.212891	56869.402344
1732.196289	56986.027344
1731.179688	57226.882813
1730.162109	57271.714844
1729.145508	57557.824219
1728.127930	57898.769531
1727.110352	58007.933594
1726.092773	58191.078125
1725.075195	58825.371094
1724.056641	58757.671875
1723.039063	58885.687500
1722.020508	59746.199219
1721.001953	59883.531250
1719.983398	60066.136719
1718.963867	59788.394531
1717.945313	60397.761719
1716.925781	60947.308594
1715.906250	60957.964844
1714.886719	60861.375000
1713.867188	60819.617188
1712.846680	60868.402344
1711.826172	60736.140625
1710.806641	61092.128906
1709.786133	60781.292969
1708.764648	60699.105469
1707.744141	60578.859375
1706.722656	60679.976563
1705.701172	60704.914063
1704.679688	60546.660156
1703.658203	60697.671875
1702.636719	60877.160156
1701.614258	60290.972656
1700.592773	60689.175781
1699.570313	60792.503906
1698.547852	60185.246094
1697.524414	59675.617188
1696.501953	59885.964844
1695.478516	60248.246094
1694.456055	59833.859375
1693.432617	59889.730469
1692.408203	59010.265625
1691.384766	59567.062500
1690.360352	59509.035156
1689.336914	59636.093750
1688.312500	59755.988281
1687.288086	59619.683594
1686.262695	59542.710938
1685.238281	59038.992188
1684.212891	59561.886719
1683.187500	59207.652344
1682.162109	59358.289063
1681.136719	59473.328125
1680.110352	59330.117188
1679.084961	59499.589844
1678.058594	59470.089844
1677.032227	59270.128906
1676.005859	59550.769531
1674.978516	60333.058594
1673.952148	59437.343750
1672.924805	59959.125000
1671.897461	59957.941406
1670.870117	59434.078125
1669.842773	59790.046875
1668.814453	59978.027344
1667.787109	60272.308594
1666.758789	59715.664063
1665.730469	60038.238281
1664.701172	60216.582031
1663.672852	60255.492188
1662.643555	60462.066406
1661.615234	60559.949219
1660.585938	60051.046875
1659.555664	60436.937500
1658.526367	60697.605469
1657.497070	60214.898438
1656.466797	60871.851563
1655.436523	60563.832031
1654.406250	60383.269531
1653.375977	61176.597656
1652.344727	61436.839844
1651.313477	61324.566406
1650.282227	61518.699219
1649.250977	61536.042969
1648.219727	62012.761719
1647.188477	61787.398438
1646.156250	61757.574219
1645.124023	62344.660156
1644.091797	62109.933594
1643.059570	62684.972656
1642.027344	62622.054688
1640.994141	62759.152344
1639.961914	62715.058594
1638.928711	63061.421875
1637.895508	63487.617188
1636.861328	63478.675781
1635.828125	63382.757813
1634.793945	63691.140625
1633.759766	64163.906250
1632.725586	64622.406250
1631.691406	64286.730469
1630.656250	64860.125000
1629.622070	65381.656250
1628.586914	65262.019531
1627.551758	65053.218750
1626.516602	65954.648438
1625.480469	66269.093750
1624.445313	66717.164063
1623.409180	67040.742188
1622.373047	67195.328125
1621.336914	67441.320313
1620.300781	68252.250000
1619.263672	69470.773438
1618.227539	70585.734375
1617.190430	71620.625000
1616.153320	72781.656250
1615.115234	74178.867188
1614.078125	75282.812500
1613.040039	75997.656250
1612.001953	77454.406250
1610.963867	77840.890625
1609.925781	77784.898438
1608.887695	77518.335938
1607.848633	76706.742188
1606.809570	75469.710938
1605.770508	74373.445313
1604.731445	73614.281250
1603.692383	71536.820313
1602.652344	71187.476563
1601.613281	70609.226563
1600.573242	69601.242188
1599.533203	68927.695313
1598.492188	68308.101563
1597.452148	68011.015625
1596.411133	67760.726563
1595.370117	67323.765625
1594.329102	66793.585938
1593.288086	67199.414063
1592.247070	66921.437500
1591.205078	66811.531250
1590.163086	66757.632813
1589.121094	66769.054688
1588.079102	66556.632813
1587.036133	66460.835938
1585.994141	66742.671875
1584.951172	66898.554688
1583.908203	66895.945313
1582.865234	66520.601563
1581.822266	67139.937500
1580.778320	67104.679688
1579.734375	66601.437500
1578.691406	67339.140625
1577.646484	67671.593750
1576.602539	67801.468750
1575.558594	68459.453125
1574.513672	68761.281250
1573.468750	68795.523438
1572.423828	69318.093750
1571.378906	69156.929688
1570.333008	69828.007813
1569.288086	69924.789063
1568.242188	69993.640625
1567.196289	69437.484375
1566.150391	68846.679688
1565.103516	69106.125000
1564.057617	68829.070313
1563.010742	68470.859375
1561.963867	68057.054688
1560.916992	67752.476563
1559.869141	68076.843750
1558.822266	67540.359375
1557.774414	67368.250000
1556.726563	67615.968750
1555.678711	67156.367188
1554.630859	66868.492188
1553.582031	66840.320313
1552.534180	66849.242188
1551.485352	66712.171875
1550.436523	66253.132813
1549.386719	66276.039063
1548.337891	66447.156250
1547.288086	66115.750000
1546.238281	66550.742188
1545.188477	66504.125000
1544.138672	66327.937500
1543.088867	66147.171875
1542.038086	66505.492188
1540.987305	65693.312500
1539.936523	65857.328125
1538.885742	65353.070313
1537.834961	64999.250000
1536.783203	65387.488281
1535.731445	65135.464844
1534.679688	65105.335938
1533.627930	64749.492188
1532.576172	64985.050781
1531.523438	64049.722656
1530.471680	64744.777344
1529.418945	63904.472656
1528.366211	64405.421875
1527.312500	64003.917969
1526.259766	63950.941406
1525.206055	63932.582031
1524.152344	64250.957031
1523.098633	63510.777344
1522.044922	63321.890625
1520.990234	64082.781250
1519.936523	63790.136719
1518.881836	63983.808594
1517.827148	63421.726563
1516.772461	63113.226563
1515.716797	63465.820313
1514.662109	62846.558594
1513.606445	63417.777344
1512.550781	63592.875000
1511.495117	62891.066406
1510.438477	62578.375000
1509.382813	63188.335938
1508.326172	62783.687500
1507.269531	63007.027344
1506.212891	62809.496094
1505.155273	63016.648438
1504.098633	63361.640625
1503.041016	63083.710938
1501.983398	63212.574219
1500.925781	63185.171875
1499.867188	63302.480469
1498.809570	63334.773438
1497.750977	62894.062500
1496.692383	62825.406250
1495.633789	63309.925781
1494.575195	63429.386719
1493.515625	63044.031250
1492.457031	62789.570313
1491.397461	62762.261719
1490.337891	63081.234375
1489.277344	63010.320313
1488.217773	63047.167969
1487.157227	62804.378906
1486.096680	62884.785156
1485.036133	62935.371094
1483.975586	63004.265625
1482.915039	63006.714844
1481.853516	62940.460938
1480.791992	62665.882813
1479.730469	62805.726563
1478.668945	62732.671875
1477.606445	62314.109375
1476.544922	62284.632813
1475.482422	62518.218750
1474.419922	62008.433594
1473.357422	62779.339844
1472.293945	62505.164063
1471.231445	62487.093750
1470.167969	62110.222656
1469.104492	62693.175781
1468.041016	62837.277344
1466.976563	62545.050781
1465.913086	62481.304688
1464.848633	62789.761719
1463.784180	63098.105469
1462.719727	63237.429688
1461.655273	63429.187500
1460.589844	63744.085938
1459.524414	63860.398438
1458.458984	63096.242188
1457.393555	63281.039063
1456.328125	63488.566406
1455.261719	63835.074219
1454.196289	63552.382813
1453.129883	63205.980469
1452.063477	63846.265625
1450.996094	63953.257813
1449.929688	64160.425781
1448.862305	64306.027344
1447.794922	64185.195313
1446.727539	64458.214844
1445.660156	64671.957031
1444.591797	64612.554688
1443.524414	65083.281250
1442.456055	64878.234375
1441.387695	64811.996094
1440.318359	65382.480469
1439.250000	65541.250000
1438.180664	65438.542969
1437.111328	65867.687500
1436.041992	66042.179688
1434.972656	66489.234375
1433.903320	66665.820313
1432.833008	66799.187500
1431.762695	66830.320313
1430.692383	66897.765625
1429.622070	67099.109375
1428.550781	67545.476563
1427.480469	67267.851563
1426.409180	67639.156250
1425.337891	67127.984375
1424.266602	67594.421875
1423.194336	66972.335938
1422.122070	67601.851563
1421.050781	66694.390625
1419.978516	67235.343750
1418.905273	66305.609375
1417.833008	66687.859375
1416.759766	66968.039063
1415.687500	66847.296875
1414.614258	66955.273438
1413.540039	66956.804688
1412.466797	66883.648438
1411.392578	66810.515625
1410.319336	66974.968750
1409.245117	66587.406250
1408.169922	66842.304688
1407.095703	67296.101563
1406.020508	67231.984375
1404.946289	67414.289063
1403.871094	67680.140625
1402.794922	67229.578125
1401.719727	67452.437500
1400.643555	67580.343750
1399.568359	67721.750000
1398.492188	67833.750000
1397.415039	68036.007813
1396.338867	68409.742188
1395.261719	68257.500000
1394.185547	68371.570313
1393.108398	68607.414063
1392.031250	68563.476563
1390.953125	68997.656250
1389.875977	68843.171875
1388.797852	69978.250000
1387.719727	69981.421875
1386.641602	70345.164063
1385.562500	70884.507813
1384.484375	71015.914063
1383.405273	71014.382813
1382.326172	71548.804688
1381.247070	71713.781250
1380.166992	72310.914063
1379.087891	72678.250000
1378.007813	72089.070313
1376.927734	72042.328125
1375.847656	72357.765625
1374.767578	72203.031250
1373.686523	71623.335938
1372.605469	71693.609375
1371.524414	71570.539063
1370.443359	70876.648438
1369.362305	70949.250000
1368.280273	70927.468750
1367.199219	70860.765625
1366.117188	70425.765625
1365.034180	69463.234375
1363.952148	69219.460938
1362.870117	69150.859375
1361.787109	68566.101563
1360.704102	69125.914063
1359.621094	68859.929688
1358.537109	68751.054688
1357.454102	68299.093750
1356.370117	68109.632813
1355.286133	68332.734375
1354.202148	67943.843750
1353.118164	67785.914063
1352.033203	67247.140625
1350.948242	67732.328125
1349.863281	67195.984375
1348.778320	67062.929688
1347.693359	67147.101563
1346.607422	67052.148438
1345.521484	67149.710938
1344.435547	67444.164063
1343.349609	67047.156250
1342.263672	67028.335938
1341.176758	66709.820313
1340.090820	66787.218750
1339.003906	66873.531250
1337.916016	66582.031250
1336.829102	66891.835938
1335.741211	67375.820313
1334.654297	66869.906250
1333.566406	66679.125000
1332.478516	67124.906250
1331.389648	66630.468750
1330.301758	67091.718750
1329.212891	67338.523438
1328.124023	66819.750000
1327.035156	66914.781250
1325.945313	66844.679688
1324.856445	67066.804688
1323.766602	66610.890625
1322.676758	66788.375000
1321.586914	67177.570313
1320.496094	67085.187500
1319.406250	66861.351563
1318.315430	67259.226563
1317.224609	67345.085938
1316.133789	66689.218750
1315.041992	66659.343750
1313.951172	66992.390625
1312.859375	67262.984375
1311.767578	67395.492188
1310.675781	66953.820313
1309.583008	67188.671875
1308.491211	67405.632813
1307.398438	67695.914063
1306.305664	67656.976563
1305.212891	67346.820313
1304.119141	67445.773438
1303.026367	67584.695313
1301.932617	67859.109375
1300.838867	67175.890625
1299.744141	67905.632813
1298.650391	67509.132813
1297.555664	68183.031250
1296.461914	68561.414063
1295.366211	68677.742188
1294.271484	68754.078125
1293.176758	68743.843750
1292.081055	69148.460938
1290.985352	69564.023438
1289.889648	69005.890625
1288.793945	69439.054688
1287.697266	69273.515625
1286.601563	70127.593750
1285.504883	70048.406250
1284.408203	69710.023438
1283.311523	69949.929688
1282.213867	69450.000000
1281.116211	69260.265625
1280.018555	69134.796875
1278.920898	68761.453125
1277.823242	68580.789063
1276.725586	68805.132813
1275.626953	68613.460938
1274.528320	68070.140625
1273.429688	67909.625000
1272.330078	68974.179688
1271.231445	67946.914063
1270.131836	68051.750000
1269.032227	67977.531250
1267.932617	68179.539063
1266.833008	67734.171875
1265.732422	67399.406250
1264.632813	67566.070313
1263.532227	67677.460938
1262.430664	67638.695313
1261.330078	67354.945313
1260.228516	67177.218750
1259.127930	66589.164063
1258.026367	66932.250000
1256.924805	66426.054688
1255.822266	66621.296875
1254.720703	66364.476563
1253.618164	66063.656250
1252.515625	66073.710938
1251.413086	66290.898438
1250.309570	65628.921875
1249.207031	66037.750000
1248.103516	65924.453125
1247.000000	65467.683594
1245.895508	65797.046875
1244.791992	65912.773438
1243.687500	65192.152344
1242.583008	65116.507813
1241.478516	65507.285156
1240.374023	65207.246094
1239.269531	66024.507813
1238.164063	65150.585938
1237.058594	65101.382813
1235.953125	65109.339844
1234.847656	64816.222656
1233.741211	65349.359375
1232.635742	65152.957031
1231.529297	64875.355469
1230.422852	65059.015625
1229.315430	64840.808594
1228.208984	64870.738281
1227.101563	64942.355469
1225.994141	64809.863281
1224.886719	64177.179688
1223.779297	64891.605469
1222.670898	64840.335938
1221.562500	64085.187500
1220.454102	64472.558594
1219.345703	64480.570313
1218.237305	64317.625000
1217.127930	63569.683594
1216.018555	64243.855469
1214.909180	63458.953125
1213.799805	63493.406250
1212.690430	63803.738281
1211.580078	63260.152344
1210.469727	63605.429688
1209.359375	63865.230469
1208.249023	63063.730469
1207.138672	63494.167969
1206.027344	63399.503906
1204.916016	63823.152344
1203.804688	63378.625000
1202.693359	63456.722656
1201.581055	63869.195313
1200.469727	63785.464844
1199.357422	64068.812500
1198.245117	64319.289063
1197.131836	64106.652344
1196.019531	63856.968750
1194.906250	64151.003906
1193.792969	64222.277344
1192.679688	64271.695313
1191.566406	64314.550781
1190.452148	64553.734375
1189.337891	64803.738281
1188.223633	64964.230469
1187.109375	64823.753906
1185.995117	65165.125000
1184.879883	65299.296875
1183.764648	65389.835938
1182.649414	65789.742188
1181.534180	64991.316406
1180.418945	65467.375000
1179.302734	65231.148438
1178.186523	65049.437500
1177.070313	64800.300781
1175.954102	64409.781250
1174.837891	64495.972656
1173.720703	64586.480469
1172.603516	64555.136719
1171.486328	64154.058594
1170.369141	64364.171875
