#Wave		#Intensity
2001.221680	32559.623047
2000.251953	32329.023438
1999.282227	32518.853516
1998.312500	32307.714844
1997.342773	32545.078125
1996.372070	32003.376953
1995.402344	31827.496094
1994.431641	32092.357422
1993.460938	32164.361328
1992.490234	32406.542969
1991.518555	32178.154297
1990.547852	32535.345703
1989.576172	32509.650391
1988.604492	32236.335938
1987.632813	32333.240234
1986.661133	32625.138672
1985.689453	32204.447266
1984.716797	32166.328125
1983.745117	32240.679688
1982.772461	32110.115234
1981.799805	32256.894531
1980.827148	32388.636719
1979.853516	32065.814453
1978.880859	32202.535156
1977.907227	32209.390625
1976.933594	32088.943359
1975.959961	32445.197266
1974.986328	32107.669922
1974.011719	32376.478516
1973.038086	31814.593750
1972.063477	32315.283203
1971.088867	32122.628906
1970.114258	32396.226563
1969.138672	32004.218750
1968.164063	31669.666016
1967.188477	32177.412109
1966.212891	32166.802734
1965.237305	31892.171875
1964.261719	31744.644531
1963.286133	31806.320313
1962.309570	32009.875000
1961.333984	32392.570313
1960.357422	32210.212891
1959.380859	32012.988281
1958.404297	32104.410156
1957.426758	32051.535156
1956.450195	32466.210938
1955.472656	31955.783203
1954.495117	32151.558594
1953.517578	31994.312500
1952.540039	32204.921875
1951.561523	32181.894531
1950.583008	32161.357422
1949.605469	32319.662109
1948.626953	32214.669922
1947.647461	32628.652344
1946.668945	32523.640625
1945.690430	32262.291016
1944.710938	32440.287109
1943.731445	32310.546875
1942.751953	32535.603516
1941.772461	32090.884766
1940.791992	32209.261719
1939.812500	32379.666016
1938.832031	32252.523438
1937.851563	31731.322266
1936.871094	32077.667969
1935.890625	32218.238281
1934.909180	32252.232422
1933.928711	32055.863281
1932.947266	32481.152344
1931.965820	32262.525391
1930.984375	32160.326172
1930.002930	31887.375000
1929.020508	32136.685547
1928.038086	31826.718750
1927.056641	32320.859375
1926.074219	32102.484375
1925.090820	32054.818359
1924.108398	32207.443359
1923.125000	31979.308594
1922.142578	32035.498047
1921.159180	32222.640625
1920.175781	32142.869141
1919.191406	32073.003906
1918.208008	31973.525391
1917.223633	32577.890625
1916.240234	32246.261719
1915.255859	31759.220703
1914.271484	32378.113281
1913.286133	32490.888672
1912.301758	31816.539063
1911.316406	32240.205078
1910.331055	32572.460938
1909.345703	32332.472656
1908.360352	32119.691406
1907.375000	31980.937500
1906.388672	32226.734375
1905.402344	32233.402344
1904.416016	32161.224609
1903.429688	32190.070313
1902.443359	32509.544922
1901.457031	32272.357422
1900.469727	32530.146484
1899.482422	32470.281250
1898.495117	32513.810547
1897.507813	32318.617188
1896.520508	32273.580078
1895.532227	32565.576172
1894.543945	32409.828125
1893.556641	32217.244141
1892.568359	32383.701172
1891.579102	32508.304688
1890.590820	32534.550781
1889.601563	32523.925781
1888.613281	32102.984375
1887.624023	32021.195313
1886.634766	32659.078125
1885.644531	32643.521484
1884.655273	32534.669922
1883.665039	32384.121094
1882.674805	32510.972656
1881.684570	32532.255859
1880.694336	32582.974609
1879.704102	32329.488281
1878.712891	32134.955078
1877.722656	32955.714844
1876.731445	32609.125000
1875.740234	32887.757813
1874.748047	32710.414063
1873.756836	32648.304688
1872.764648	32270.156250
1871.773438	32325.726563
1870.781250	32440.058594
1869.788086	32507.824219
1868.795898	32720.015625
1867.803711	32515.982422
1866.810547	32488.240234
1865.817383	33060.042969
1864.824219	32733.720703
1863.831055	32253.400391
1862.837891	32436.056641
1861.843750	32503.714844
1860.849609	32634.916016
1859.855469	32499.621094
1858.861328	32599.001953
1857.867188	32727.669922
1856.872070	32528.902344
1855.877930	32540.281250
1854.882813	32563.867188
1853.887695	32614.304688
1852.892578	32755.058594
1851.896484	32588.187500
1850.901367	32660.556641
1849.905273	32645.050781
1848.909180	32531.958984
1847.913086	32372.556641
1846.916992	33010.734375
1845.919922	32361.167969
1844.923828	32348.160156
1843.926758	32708.113281
1842.929688	32648.738281
1841.932617	32374.949219
1840.935547	33097.718750
1839.937500	32758.173828
1838.939453	32623.328125
1837.942383	32761.253906
1836.943359	32843.132813
1835.945313	32603.669922
1834.947266	32690.414063
1833.948242	33295.429688
1832.949219	32749.458984
1831.951172	32624.501953
1830.951172	33375.128906
1829.952148	32780.796875
1828.953125	33064.339844
1827.953125	33039.070313
1826.953125	32965.203125
1825.953125	32774.722656
1824.953125	32885.566406
1823.952148	32976.937500
1822.952148	33012.414063
1821.951172	33191.144531
1820.950195	33238.707031
1819.949219	32757.089844
1818.948242	33093.515625
1817.946289	33335.187500
1816.945313	33152.210938
1815.943359	32770.394531
1814.941406	33169.632813
1813.939453	33464.460938
1812.936523	33109.457031
1811.934570	33125.433594
1810.931641	33461.312500
1809.928711	33280.953125
1808.925781	33379.257813
1807.921875	33574.421875
1806.918945	33459.519531
1805.915039	33673.964844
1804.912109	33847.179688
1803.908203	33456.351563
1802.903320	33644.058594
1801.899414	33938.164063
1800.894531	33757.992188
1799.890625	33570.628906
1798.885742	34009.691406
1797.880859	33897.304688
1796.875000	33550.453125
1795.870117	33757.242188
1794.864258	33840.703125
1793.858398	33914.468750
1792.852539	33925.398438
1791.846680	33805.890625
1790.840820	33819.246094
1789.833984	34368.621094
1788.828125	33795.242188
1787.821289	34028.234375
1786.814453	33802.621094
1785.806641	34074.132813
1784.799805	34285.234375
1783.791992	34197.175781
1782.784180	33783.585938
1781.776367	34539.542969
1780.768555	34323.714844
1779.760742	34192.320313
1778.751953	34060.972656
1777.743164	34259.761719
1776.735352	34417.523438
1775.725586	34156.136719
1774.716797	34436.675781
1773.708008	34233.160156
1772.698242	34438.960938
1771.688477	34435.285156
1770.678711	34089.890625
1769.668945	34747.937500
1768.659180	34592.652344
1767.648438	34689.964844
1766.637695	34556.382813
1765.626953	34668.089844
1764.616211	34832.644531
1763.605469	34778.417969
1762.593750	35147.152344
1761.583008	35203.410156
1760.571289	35499.867188
1759.559570	34710.613281
1758.547852	34910.996094
1757.535156	34928.835938
1756.523438	35433.972656
1755.510742	34986.093750
1754.498047	35246.269531
1753.485352	35276.027344
1752.472656	35524.066406
1751.458984	35306.726563
1750.445313	35451.558594
1749.432617	35375.761719
1748.417969	35863.312500
1747.404297	36139.781250
1746.390625	35869.800781
1745.375977	35928.144531
1744.361328	36031.980469
1743.346680	36111.828125
1742.332031	36002.476563
1741.317383	36264.253906
1740.302734	36044.796875
1739.287109	36634.351563
1738.271484	37032.269531
1737.255859	36803.218750
1736.240234	37224.882813
1735.223633	37895.121094
1734.208008	37627.777344
1733.191406	37535.050781
1732.174805	37922.816406
1731.158203	38186.164063
1730.140625	38595.179688
1729.124023	38843.980469
1728.106445	38810.828125
1727.088867	39338.921875
1726.071289	39680.578125
1725.053711	39582.832031
1724.035156	40026.960938
1723.017578	39805.085938
1721.999023	39769.406250
1720.980469	40325.386719
1719.961914	40292.007813
1718.942383	39974.843750
1717.923828	40661.632813
1716.904297	40928.589844
1715.884766	40594.792969
1714.865234	40895.031250
1713.844727	40630.449219
1712.825195	40508.902344
1711.804688	40954.285156
1710.784180	41239.949219
1709.763672	40706.433594
1708.743164	40703.980469
1707.722656	40903.847656
1706.701172	40753.812500
1705.679688	41015.457031
1704.658203	40311.160156
1703.636719	40294.500000
1702.615234	40803.406250
1701.592773	40696.312500
1700.571289	40458.503906
1699.548828	40620.089844
1698.526367	40346.730469
1697.502930	40365.714844
1696.480469	40850.300781
1695.457031	40151.890625
1694.433594	40968.800781
1693.410156	40600.640625
1692.386719	40277.714844
1691.363281	40833.082031
1690.338867	40716.679688
1689.314453	40761.656250
1688.290039	40367.757813
1687.265625	40633.355469
1686.241211	40652.230469
1685.215820	40682.953125
1684.191406	40772.929688
1683.166016	40538.164063
1682.140625	41277.421875
1681.115234	40905.230469
1680.088867	41186.972656
1679.062500	41338.347656
1678.037109	41281.285156
1677.010742	41082.183594
1675.983398	41247.695313
1674.957031	41247.472656
1673.930664	41559.605469
1672.903320	41142.929688
1671.875977	41436.039063
1670.848633	41691.207031
1669.820313	41861.152344
1668.792969	41718.960938
1667.764648	42134.671875
1666.736328	42387.160156
1665.708008	42247.308594
1664.679688	42636.714844
1663.651367	42482.691406
1662.622070	42893.164063
1661.592773	42925.687500
1660.563477	42615.875000
1659.534180	42627.187500
1658.504883	43228.500000
1657.474609	42685.191406
1656.444336	43071.593750
1655.415039	43252.640625
1654.383789	43542.109375
1653.353516	43284.429688
1652.323242	43604.433594
1651.291992	43629.683594
1650.260742	43937.722656
1649.229492	44146.687500
1648.198242	44421.542969
1647.166016	44253.480469
1646.134766	44749.582031
1645.102539	44494.394531
1644.070313	44874.921875
1643.038086	45015.230469
1642.004883	45310.804688
1640.972656	45330.984375
1639.939453	45913.394531
1638.906250	45691.195313
1637.873047	46390.914063
1636.839844	47076.277344
1635.805664	47227.757813
1634.772461	47228.761719
1633.738281	47702.105469
1632.704102	48170.578125
1631.668945	48458.000000
1630.634766	49165.742188
1629.599609	49314.328125
1628.565430	50352.710938
1627.530273	50630.144531
1626.494141	51036.562500
1625.458984	52092.851563
1624.422852	53249.648438
1623.387695	54333.312500
1622.351563	55423.625000
1621.315430	56415.058594
1620.278320	58723.773438
1619.242188	59901.789063
1618.205078	61892.656250
1617.167969	63468.042969
1616.130859	65145.957031
1615.093750	67591.593750
1614.055664	68364.148438
1613.018555	69609.421875
1611.980469	70706.757813
1610.942383	71801.359375
1609.904297	71428.156250
1608.865234	70902.984375
1607.827148	70008.351563
1606.788086	68856.734375
1605.749023	67364.062500
1604.709961	65567.953125
1603.669922	63685.972656
1602.630859	62230.078125
1601.590820	61452.445313
1600.550781	60803.597656
1599.510742	60374.582031
1598.470703	59578.996094
1597.429688	58690.281250
1596.389648	58924.992188
1595.348633	58244.476563
1594.307617	57963.335938
1593.265625	56951.843750
1592.224609	56514.699219
1591.182617	56108.035156
1590.140625	55671.191406
1589.098633	54933.671875
1588.056641	54693.042969
1587.014648	54741.574219
1585.971680	53948.664063
1584.928711	53731.640625
1583.886719	53209.464844
1582.842773	52962.363281
1581.799805	53397.781250
1580.755859	52887.582031
1579.712891	52603.410156
1578.668945	52887.339844
1577.625000	52996.605469
1576.580078	52205.261719
1575.536133	52747.363281
1574.491211	52984.531250
1573.446289	52828.550781
1572.401367	53386.523438
1571.356445	53458.371094
1570.311523	53811.464844
1569.265625	53997.089844
1568.219727	53292.652344
1567.173828	53234.351563
1566.127930	53113.351563
1565.082031	52757.816406
1564.035156	52369.902344
1562.988281	52736.660156
1561.941406	51956.589844
1560.894531	51759.328125
1559.847656	51469.312500
1558.799805	51986.765625
1557.751953	51492.687500
1556.704102	51727.003906
1555.656250	51780.375000
1554.608398	52181.472656
1553.560547	51745.652344
1552.511719	52406.175781
1551.462891	52118.761719
1550.414063	51824.496094
1549.365234	52044.550781
1548.315430	52095.464844
1547.265625	52083.839844
1546.216797	52160.191406
1545.166992	52118.464844
1544.116211	51930.957031
1543.066406	51910.109375
1542.015625	51977.175781
1540.965820	51632.503906
1539.915039	51299.515625
1538.863281	51607.109375
1537.812500	51852.175781
1536.760742	51459.226563
1535.709961	51112.636719
1534.658203	51061.910156
1533.605469	51283.789063
1532.553711	50766.492188
1531.501953	50602.691406
1530.449219	51408.664063
1529.396484	51085.523438
1528.343750	51057.925781
1527.290039	50753.417969
1526.237305	51247.308594
1525.183594	51092.816406
1524.129883	50970.664063
1523.076172	50816.269531
1522.022461	51284.425781
1520.968750	51286.777344
1519.914063	51208.457031
1518.859375	50070.187500
1517.804688	50187.941406
1516.750000	50015.414063
1515.694336	50169.980469
1514.639648	49345.863281
1513.583984	49242.640625
1512.528320	49298.277344
1511.472656	49022.488281
1510.416016	48960.789063
1509.360352	49308.617188
1508.303711	49447.000000
1507.247070	49511.738281
1506.190430	48847.558594
1505.132813	49020.425781
1504.076172	48574.925781
1503.018555	48835.109375
1501.960938	49014.777344
1500.903320	48695.863281
1499.844727	48558.515625
1498.787109	48593.449219
1497.728516	49156.464844
1496.669922	48941.050781
1495.611328	48886.378906
1494.552734	49497.222656
1493.493164	49075.359375
1492.434570	48846.343750
1491.375000	48532.539063
1490.315430	48746.281250
1489.254883	48547.246094
1488.195313	48286.386719
1487.134766	48674.238281
1486.074219	48569.269531
1485.013672	49027.957031
1483.953125	48462.523438
1482.892578	49040.152344
1481.831055	48458.886719
1480.769531	49182.835938
1479.708008	49013.781250
1478.646484	48918.023438
1477.583984	48925.269531
1476.522461	49326.019531
1475.459961	48479.972656
1474.397461	49434.117188
1473.334961	49143.996094
1472.271484	49322.652344
1471.208984	49014.363281
1470.145508	49512.925781
1469.082031	49147.589844
1468.018555	49259.851563
1466.954102	48506.378906
1465.890625	49299.273438
1464.826172	49116.890625
1463.761719	48920.878906
1462.697266	49350.343750
1461.631836	49254.765625
1460.567383	49220.828125
1459.501953	48951.925781
1458.436523	48993.316406
1457.371094	48701.746094
1456.305664	48734.042969
1455.239258	49208.582031
1454.172852	48677.800781
1453.107422	48593.859375
1452.040039	48421.085938
1450.973633	48505.789063
1449.907227	48305.761719
1448.839844	48593.121094
1447.772461	48454.617188
1446.705078	48409.492188
1445.637695	48744.468750
1444.569336	48792.601563
1443.500977	49002.250000
1442.432617	48925.207031
1441.364258	49146.125000
1440.295898	48543.800781
1439.227539	49251.234375
1438.158203	49346.949219
1437.088867	49594.898438
1436.019531	50285.851563
1434.950195	50138.226563
1433.879883	50131.488281
1432.810547	50081.597656
1431.740234	51053.523438
1430.669922	51337.207031
1429.598633	51357.488281
1428.528320	51906.535156
1427.457031	52375.968750
1426.386719	52981.347656
1425.314453	53756.621094
1424.243164	54003.218750
1423.171875	54589.832031
1422.099609	55248.773438
1421.027344	55617.359375
1419.955078	55301.421875
1418.882813	55642.667969
1417.810547	55265.671875
1416.737305	56071.113281
1415.664063	55775.691406
1414.590820	55220.000000
1413.517578	54521.894531
1412.444336	54552.824219
1411.370117	53735.144531
1410.295898	53306.914063
1409.221680	53150.285156
1408.147461	52125.218750
1407.073242	52032.167969
1405.998047	51274.453125
1404.922852	51321.734375
1403.847656	50998.347656
1402.772461	51142.824219
1401.697266	51009.359375
1400.621094	51402.250000
1399.544922	51537.535156
1398.468750	51857.925781
1397.392578	51528.007813
1396.316406	52733.109375
1395.239258	53019.253906
1394.162109	54036.371094
1393.084961	55447.917969
1392.007813	56475.500000
1390.930664	57462.121094
1389.852539	58286.039063
1388.774414	59274.222656
1387.696289	59317.640625
1386.618164	59047.792969
1385.540039	59379.632813
1384.460938	58411.515625
1383.382813	57328.875000
1382.303711	56724.031250
1381.223633	56517.925781
1380.144531	56228.601563
1379.064453	55437.464844
1377.985352	55233.945313
1376.905273	55433.230469
1375.825195	54788.878906
1374.744141	54191.988281
1373.664063	54159.730469
1372.583008	54260.128906
1371.501953	54057.027344
1370.420898	53829.277344
1369.338867	54147.640625
1368.257813	54582.714844
1367.175781	54500.992188
1366.093750	55342.339844
1365.011719	56129.492188
1363.929688	56994.933594
1362.846680	57909.445313
1361.763672	59101.906250
1360.680664	60186.230469
1359.597656	60419.906250
1358.514648	61113.312500
1357.430664	61389.339844
1356.346680	60867.035156
1355.262695	59966.054688
1354.178711	59294.019531
1353.094727	58026.117188
1352.009766	56781.078125
1350.925781	56215.261719
1349.840820	55515.261719
1348.755859	53787.636719
1347.669922	53542.832031
1346.584961	52812.347656
1345.499023	52326.082031
1344.413086	51819.851563
1343.327148	51508.449219
1342.240234	51118.863281
1341.154297	51284.082031
1340.067383	50805.230469
1338.980469	50892.191406
1337.893555	50561.109375
1336.805664	50350.832031
1335.718750	51130.527344
1334.630859	50940.324219
1333.542969	51163.425781
1332.455078	51033.585938
1331.367188	51439.683594
1330.278320	51508.527344
1329.189453	51628.679688
1328.100586	52404.511719
1327.011719	53180.343750
1325.922852	53956.175781
1324.833008	54732.707031
1323.743164	55509.234375
1322.653320	56602.894531
1321.563477	58434.050781
1320.473633	60112.980469
1319.382813	62791.886719
1318.291992	65238.101563
1317.201172	68053.226563
1316.110352	70504.281250
1315.019531	73166.000000
1313.927734	74533.179688
1312.835938	75572.625000
1311.744141	76171.007813
1310.652344	75413.992188
1309.560547	74056.539063
1308.467773	71723.039063
1307.375000	69663.937500
1306.282227	66871.773438
1305.189453	65036.609375
1304.095703	63095.414063
1303.002930	60663.757813
1301.909180	59252.894531
1300.815430	58255.761719
1299.721680	56945.796875
1298.626953	56184.847656
1297.533203	55608.468750
1296.438477	55651.683594
1295.343750	55703.757813
1294.248047	55578.273438
1293.153320	55867.750000
1292.057617	55615.828125
1290.961914	55936.242188
1289.866211	55693.261719
1288.770508	56618.839844
1287.674805	56710.562500
1286.578125	56343.445313
1285.481445	56557.058594
1284.384766	56280.941406
1283.288086	56769.167969
1282.190430	56382.367188
1281.092773	55282.664063
1279.996094	55361.207031
1278.897461	55058.980469
1277.799805	54803.339844
1276.702148	54771.281250
1275.603516	54243.652344
1274.504883	53691.882813
1273.406250	53556.089844
1272.307617	53015.695313
1271.208008	53370.867188
1270.108398	52897.007813
1269.008789	52635.476563
1267.909180	52418.234375
1266.809570	52854.988281
1265.708984	52260.074219
1264.609375	51819.960938
1263.508789	51768.613281
1262.407227	51542.878906
1261.306641	51047.949219
1260.206055	50626.019531
1259.104492	51223.597656
1258.002930	50770.898438
1256.901367	50468.347656
1255.798828	50459.191406
1254.697266	50465.468750
1253.594727	50656.914063
1252.492188	49964.484375
1251.389648	49933.382813
1250.286133	50646.968750
1249.183594	49869.003906
1248.080078	50014.121094
1246.976563	49723.187500
1245.872070	50002.570313
1244.768555	50262.042969
1243.664063	50706.281250
1242.560547	51079.945313
1241.455078	51396.269531
1240.350586	51371.542969
1239.246094	51733.878906
1238.140625	51838.820313
1237.035156	51952.519531
1235.929688	52198.050781
1234.824219	52476.457031
1233.717773	52321.910156
1232.612305	51664.351563
1231.505859	52164.531250
1230.399414	51663.152344
1229.291992	51049.976563
1228.185547	51304.125000
1227.078125	50563.933594
1225.970703	50631.550781
1224.863281	50001.449219
1223.755859	49966.039063
1222.647461	50487.714844
1221.539063	49849.203125
1220.430664	49395.082031
1219.322266	49489.128906
1218.213867	49142.625000
1217.104492	49214.765625
1215.995117	49495.007813
1214.885742	49269.156250
1213.776367	49332.472656
1212.666992	49599.394531
1211.556641	49934.082031
1210.446289	50043.199219
1209.335938	49896.230469
1208.225586	50239.425781
1207.115234	50090.281250
1206.003906	50400.507813
1204.892578	50997.093750
1203.781250	51042.480469
1202.669922	51264.914063
1201.557617	51784.515625
1200.446289	51624.308594
1199.333984	52021.300781
1198.221680	52756.730469
1197.108398	53009.218750
1195.996094	52827.062500
1194.882813	53308.683594
1193.769531	53707.175781
1192.656250	53287.097656
1191.542969	53183.566406
1190.428711	52272.855469
1189.314453	52053.937500
1188.200195	51691.160156
1187.085938	51603.250000
1185.971680	51133.855469
1184.856445	50734.382813
1183.741211	50529.007813
1182.625977	50519.804688
1181.510742	50201.257813
1180.395508	50701.789063
1179.279297	50849.351563
1178.163086	50744.285156
1177.046875	50597.898438
1175.930664	50325.320313
1174.813477	50564.230469
1173.697266	50235.187500
1172.580078	50276.066406
1171.462891	50697.542969
1170.344727	50164.242188
