a#Wave		#Intensity
2001.182617	33218.601563
2000.212891	33213.589844
1999.243164	32806.824219
1998.273438	32766.017578
1997.303711	32725.224609
1996.333008	33055.148438
1995.363281	32681.242188
1994.392578	33066.140625
1993.421875	32905.152344
1992.451172	32874.378906
1991.479492	33131.406250
1990.508789	33108.105469
1989.537109	32897.183594
1988.566406	33236.613281
1987.594727	32763.154297
1986.622070	33109.984375
1985.650391	33074.203125
1984.677734	33235.890625
1983.706055	33075.140625
1982.733398	33009.394531
1981.760742	33073.578125
1980.788086	33362.535156
1979.814453	33566.480469
1978.841797	33233.523438
1977.868164	33417.445313
1976.894531	33166.996094
1975.920898	33123.765625
1974.947266	33394.937500
1973.972656	33381.617188
1972.999023	32951.757813
1972.024414	33078.167969
1971.049805	33079.867188
1970.075195	33106.492188
1969.099609	33541.882813
1968.125000	33374.031250
1967.149414	33375.671875
1966.173828	33579.097656
1965.198242	33386.417969
1964.222656	33156.449219
1963.247070	33359.800781
1962.270508	33102.531250
1961.294922	33547.257813
1960.318359	33556.320313
1959.341797	33244.406250
1958.364258	33557.019531
1957.387695	33314.859375
1956.410156	33226.964844
1955.433594	33206.230469
1954.456055	33600.667969
1953.478516	33303.976563
1952.500000	33380.160156
1951.522461	33443.890625
1950.543945	33202.031250
1949.565430	33402.378906
1948.586914	33572.855469
1947.608398	33703.539063
1946.629883	33571.031250
1945.650391	34004.484375
1944.671875	33737.960938
1943.692383	33719.648438
1942.712891	33616.996094
1941.733398	33727.683594
1940.752930	33816.015625
1939.773438	33415.859375
1938.792969	33722.367188
1937.812500	33652.019531
1936.832031	33532.128906
1935.851563	33461.835938
1934.870117	33666.546875
1933.888672	34123.824219
1932.908203	33867.726563
1931.926758	33874.175781
1930.945313	33662.769531
1929.962891	33958.839844
1928.981445	33650.976563
1927.999023	33739.105469
1927.016602	33718.347656
1926.034180	33561.562500
1925.051758	33464.183594
1924.069336	33797.058594
1923.085938	33274.464844
1922.102539	33664.101563
1921.119141	33823.773438
1920.135742	33595.472656
1919.152344	33856.386719
1918.168945	33615.808594
1917.184570	33711.164063
1916.200195	33579.332031
1915.215820	33783.277344
1914.231445	33903.234375
1913.247070	33796.113281
1912.261719	33777.847656
1911.276367	33537.570313
1910.291992	33509.492188
1909.306641	33681.171875
1908.320313	33877.445313
1907.334961	33886.292969
1906.348633	33695.496094
1905.363281	33886.730469
1904.376953	34262.687500
1903.390625	34283.773438
1902.403320	33735.898438
1901.416992	33749.679688
1900.429688	33852.093750
1899.443359	33806.765625
1898.456055	34019.886719
1897.467773	34208.328125
1896.480469	34180.179688
1895.493164	34110.222656
1894.504883	33936.984375
1893.516602	34058.906250
1892.528320	34079.972656
1891.540039	34115.781250
1890.550781	33881.214844
1889.562500	33693.417969
1888.573242	34296.832031
1887.583984	33843.722656
1886.594727	33818.132813
1885.605469	33826.929688
1884.615234	33887.281250
1883.625000	34391.929688
1882.635742	34076.640625
1881.645508	34171.265625
1880.654297	33745.714844
1879.664063	33958.113281
1878.673828	33910.453125
1877.682617	34076.152344
1876.691406	33900.992188
1875.700195	33863.171875
1874.708984	34332.703125
1873.716797	33968.898438
1872.725586	34474.996094
1871.733398	34010.855469
1870.741211	34431.042969
1869.749023	34260.921875
1868.755859	34240.210938
1867.763672	33935.550781
1866.770508	34367.687500
1865.777344	34016.609375
1864.784180	34294.441406
1863.791016	34207.687500
1862.797852	34607.671875
1861.803711	34073.394531
1860.809570	34101.632813
1859.815430	34188.531250
1858.821289	34182.519531
1857.827148	34362.222656
1856.832031	34243.796875
1855.837891	34257.316406
1854.842773	34607.871094
1853.847656	34057.242188
1852.852539	34327.136719
1851.856445	34682.375000
1850.861328	34205.238281
1849.865234	34487.164063
1848.869141	34666.519531
1847.873047	34409.167969
1846.876953	34571.398438
1845.879883	34489.722656
1844.883789	34949.320313
1843.886719	34436.148438
1842.889648	34515.390625
1841.892578	34816.347656
1840.895508	34844.332031
1839.897461	34623.839844
1838.899414	34737.085938
1837.901367	35054.832031
1836.903320	34710.250000
1835.905273	34803.941406
1834.907227	35170.179688
1833.908203	35000.953125
1832.909180	34700.414063
1831.910156	34903.496094
1830.911133	35196.492188
1829.912109	34857.164063
1828.912109	35038.226563
1827.913086	34830.304688
1826.913086	35101.226563
1825.913086	34798.597656
1824.913086	35254.070313
1823.912109	35415.464844
1822.912109	34916.214844
1821.911133	35356.851563
1820.910156	35421.031250
1819.909180	35230.312500
1818.908203	35289.632813
1817.906250	35344.078125
1816.904297	35655.660156
1815.903320	35132.722656
1814.900391	35082.878906
1813.898438	35566.496094
1812.896484	35635.382813
1811.893555	35350.355469
1810.891602	35458.027344
1809.888672	35749.812500
1808.885742	35566.660156
1807.881836	35470.769531
1806.878906	35483.890625
1805.875000	35782.726563
1804.871094	35674.738281
1803.867188	35506.273438
1802.863281	35584.718750
1801.859375	35716.363281
1800.854492	36043.914063
1799.849609	35539.289063
1798.844727	35772.437500
1797.839844	35526.753906
1796.834961	36105.527344
1795.830078	35823.609375
1794.824219	35923.625000
1793.818359	35707.074219
1792.812500	35901.289063
1791.806641	35965.000000
1790.799805	36349.875000
1789.793945	35916.093750
1788.787109	36040.117188
1787.780273	36002.378906
1786.773438	35967.066406
1785.766602	36083.773438
1784.758789	36171.488281
1783.751953	35547.640625
1782.744141	36508.394531
1781.736328	36053.484375
1780.728516	36189.351563
1779.719727	36019.062500
1778.711914	36530.820313
1777.703125	36399.082031
1776.694336	36281.839844
1775.685547	36468.121094
1774.676758	36748.250000
1773.666992	36623.781250
1772.657227	36593.242188
1771.648438	36690.273438
1770.638672	36823.367188
1769.627930	36686.941406
1768.618164	36764.656250
1767.607422	36972.222656
1766.597656	36886.332031
1765.586914	37060.140625
1764.576172	37166.578125
1763.564453	37417.179688
1762.553711	37610.023438
1761.541992	37329.480469
1760.530273	37236.402344
1759.518555	37448.382813
1758.506836	37830.785156
1757.495117	37605.613281
1756.482422	37178.882813
1755.469727	37969.132813
1754.457031	38250.378906
1753.444336	38365.980469
1752.431641	37865.042969
1751.417969	37515.382813
1750.405273	38182.574219
1749.391602	38173.425781
1748.377930	37922.171875
1747.364258	38037.695313
1746.349609	38071.707031
1745.335938	38328.515625
1744.321289	38194.781250
1743.306641	38518.531250
1742.291992	38382.414063
1741.276367	38682.074219
1740.261719	38538.789063
1739.246094	38508.039063
1738.230469	38790.765625
1737.214844	39185.832031
1736.199219	39152.585938
1735.182617	39310.679688
1734.166992	39200.902344
1733.150391	39406.742188
1732.133789	39550.359375
1731.117188	39760.839844
1730.099609	40128.953125
1729.083008	40324.921875
1728.065430	40286.730469
1727.047852	40465.878906
1726.030273	40358.429688
1725.012695	41167.765625
1723.994141	40905.074219
1722.976563	41148.417969
1721.958008	41145.902344
1720.939453	41727.878906
1719.920898	41691.867188
1718.901367	41863.347656
1717.882813	42308.972656
1716.863281	42024.937500
1715.843750	41941.218750
1714.824219	41988.601563
1713.803711	42367.164063
1712.784180	42504.980469
1711.763672	42511.195313
1710.743164	42517.410156
1709.722656	42523.621094
1708.702148	42529.835938
1707.681641	42536.050781
1706.660156	42542.269531
1705.638672	42548.488281
1704.617188	42554.710938
1703.595703	42560.929688
1702.574219	42432.105469
1701.551758	42322.343750
1700.529297	42293.445313
1699.507813	42186.125000
1698.484375	42729.968750
1697.461914	42522.812500
1696.439453	42246.835938
1695.416016	42049.335938
1694.392578	42440.828125
1693.369141	42207.746094
1692.345703	42413.910156
1691.322266	42493.277344
1690.297852	42572.718750
1689.273438	42652.164063
1688.249023	42731.605469
1687.224609	42811.050781
1686.200195	42890.492188
1685.174805	42830.722656
1684.150391	42989.058594
1683.125000	43320.355469
1682.099609	43030.679688
1681.073242	43520.582031
1680.047852	43399.156250
1679.021484	43310.929688
1677.995117	43513.996094
1676.968750	43915.859375
1675.942383	43945.941406
1674.916016	43618.632813
1673.888672	43942.171875
1672.862305	44241.937500
1671.834961	44073.234375
1670.806641	44330.292969
1669.779297	44093.054688
1668.751953	44066.312500
1667.723633	44285.410156
1666.695313	44060.121094
1665.666992	43905.792969
1664.638672	44883.167969
1663.609375	44433.484375
1662.581055	44350.019531
1661.551758	44918.289063
1660.522461	44553.824219
1659.493164	45499.519531
1658.462891	45099.675781
1657.433594	45018.519531
1656.403320	44998.726563
1655.373047	44919.968750
1654.342773	45209.136719
1653.312500	45276.554688
1652.281250	45336.878906
1651.250977	45705.953125
1650.219727	45464.519531
1649.188477	45081.800781
1648.156250	45728.703125
1647.125000	45753.550781
1646.092773	45333.296875
1645.060547	45803.214844
1644.028320	45338.367188
1642.996094	45730.441406
1641.963867	45329.308594
1640.930664	45584.773438
1639.898438	45818.968750
1638.865234	45900.199219
1637.832031	46153.070313
1636.797852	46123.699219
1635.764648	45727.617188
1634.730469	46386.988281
1633.696289	46035.644531
1632.662109	46354.042969
1631.627930	46662.929688
1630.592773	46483.171875
1629.558594	46744.957031
1628.523438	46506.546875
1627.488281	46512.359375
1626.453125	47295.031250
1625.416992	47685.539063
1624.381836	47667.667969
1623.345703	48623.300781
1622.309570	48532.558594
1621.273438	48793.589844
1620.237305	49195.199219
1619.200195	49831.070313
1618.163086	50975.296875
1617.125977	51298.968750
1616.088867	52824.406250
1615.051758	53681.703125
1614.014648	54585.535156
1612.976563	55299.371094
1611.938477	56666.144531
1610.900391	57171.023438
1609.862305	57032.121094
1608.823242	56750.531250
1607.785156	56134.488281
1606.746094	55032.128906
1605.707031	54521.847656
1604.667969	53644.636719
1603.628906	52108.460938
1602.588867	51472.742188
1601.548828	50601.210938
1600.508789	50169.269531
1599.468750	49737.480469
1598.428711	49004.527344
1597.387695	49168.609375
1596.347656	48564.437500
1595.306641	48137.902344
1594.265625	48122.320313
1593.224609	47735.683594
1592.182617	47827.507813
1591.140625	47378.070313
1590.099609	47336.968750
1589.057617	47365.843750
1588.014648	47145.222656
1586.972656	46416.476563
1585.929688	47200.664063
1584.887695	47688.617188
1583.844727	47132.574219
1582.800781	46951.781250
1581.757813	47388.269531
1580.714844	47514.882813
1579.670898	46980.214844
1578.626953	47642.261719
1577.583008	47622.128906
1576.538086	47676.460938
1575.494141	47670.281250
1574.449219	47866.484375
1573.404297	48469.628906
1572.359375	47947.070313
1571.314453	47954.789063
1570.269531	48285.617188
1569.223633	48065.503906
1568.177734	47970.945313
1567.131836	47381.558594
1566.085938	47275.539063
1565.040039	46988.402344
1563.993164	47321.359375
1562.946289	46871.796875
1561.899414	46498.992188
1560.852539	46328.234375
1559.805664	46575.207031
1558.757813	46833.691406
1557.709961	46059.867188
1556.662109	46232.535156
1555.614258	46555.859375
1554.566406	46413.082031
1553.517578	46244.855469
1552.469727	46060.464844
1551.420898	46200.531250
1550.372070	46315.062500
1549.322266	46485.140625
1548.273438	46321.671875
1547.223633	46535.679688
1546.173828	46277.339844
1545.124023	46248.242188
1544.074219	46834.726563
1543.024414	46419.128906
1541.973633	46281.285156
1540.922852	46585.261719
1539.872070	46597.750000
1538.821289	46390.578125
1537.770508	46354.542969
1536.718750	46863.988281
1535.666992	46407.296875
1534.615234	46470.625000
1533.563477	46464.628906
1532.511719	46410.125000
1531.458984	46420.300781
1530.407227	46356.589844
1529.354492	46396.773438
1528.300781	46120.750000
1527.248047	46283.261719
1526.195313	46205.769531
1525.141602	45830.726563
1524.087891	45921.703125
1523.034180	45973.441406
1521.980469	46195.769531
1520.925781	45927.027344
1519.871094	46024.824219
1518.817383	45970.503906
1517.762695	45895.464844
1516.707031	46103.777344
1515.652344	46259.042969
1514.596680	45658.988281
1513.541016	45853.410156
1512.485352	45709.398438
1511.429688	45528.609375
1510.374023	45653.917969
1509.317383	45820.585938
1508.260742	45430.558594
1507.204102	46034.156250
1506.147461	45598.238281
1505.090820	45744.101563
1504.033203	45531.339844
1502.975586	45458.839844
1501.917969	45806.843750
1500.860352	45741.207031
1499.802734	45919.058594
1498.744141	45924.613281
1497.686523	45723.519531
1496.627930	45621.207031
1495.569336	45812.718750
1494.509766	45820.574219
1493.451172	45697.644531
1492.391602	45602.285156
1491.332031	45573.472656
1490.272461	45796.914063
1489.212891	45761.195313
1488.152344	45835.519531
1487.092773	46171.093750
1486.032227	46029.910156
1484.971680	46209.531250
1483.910156	45339.941406
1482.849609	45904.386719
1481.788086	45870.968750
1480.726563	46151.218750
1479.665039	45959.820313
1478.603516	46416.175781
1477.541992	46300.304688
1476.479492	46269.121094
1475.416992	46320.296875
1474.354492	46122.167969
1473.291992	46310.542969
1472.229492	46414.261719
1471.166016	46287.074219
1470.102539	46877.539063
1469.039063	46754.882813
1467.975586	46534.031250
1466.912109	46655.875000
1465.847656	46460.238281
1464.783203	46915.417969
1463.718750	46452.699219
1462.654297	47097.156250
1461.589844	46988.292969
1460.524414	47128.167969
1459.458984	47226.929688
1458.393555	47316.531250
1457.328125	47556.605469
1456.262695	47450.027344
1455.196289	47452.906250
1454.130859	47066.035156
1453.064453	47944.046875
1451.998047	47525.324219
1450.930664	47414.281250
1449.864258	47649.468750
1448.796875	47727.441406
1447.729492	47493.468750
1446.662109	48404.589844
1445.594727	48213.820313
1444.526367	47850.175781
1443.458008	48601.476563
1442.390625	48733.777344
1441.321289	49082.089844
1440.252930	48641.226563
1439.184570	49262.250000
1438.115234	49992.152344
1437.045898	49714.992188
1435.976563	49976.460938
1434.907227	50564.980469
1433.836914	50181.101563
1432.767578	50780.722656
1431.697266	50474.140625
1430.626953	51000.843750
1429.555664	51477.417969
1428.485352	51082.363281
1427.414063	51227.472656
1426.342773	51259.093750
1425.271484	51404.117188
1424.200195	51621.652344
1423.128906	51569.289063
1422.056641	51423.996094
1420.984375	51453.277344
1419.912109	51566.398438
1418.839844	51806.355469
1417.767578	51237.496094
1416.694336	51275.843750
1415.621094	51810.105469
1414.547852	51021.925781
1413.474609	51610.367188
1412.400391	51116.734375
1411.327148	50820.148438
1410.252930	50772.539063
1409.178711	50623.152344
1408.104492	50693.203125
1407.029297	51156.683594
1405.955078	51477.562500
1404.879883	51237.730469
1403.804688	51759.617188
1402.729492	51784.195313
1401.653320	52082.128906
1400.578125	52571.953125
1399.501953	51932.386719
1398.425781	52388.187500
1397.349609	51943.035156
1396.272461	51762.132813
1395.196289	52116.156250
1394.119141	52591.894531
1393.041992	52492.179688
1391.964844	52365.437500
1390.886719	52856.652344
1389.809570	52761.449219
1388.731445	53322.296875
1387.653320	52402.093750
1386.575195	53399.984375
1385.497070	54005.472656
1384.417969	53986.730469
1383.338867	53977.000000
1382.259766	54048.343750
1381.180664	54211.968750
1380.101563	54188.691406
1379.021484	54064.136719
1377.941406	54099.398438
1376.861328	54116.644531
1375.781250	54453.308594
1374.701172	53800.257813
1373.620117	53781.562500
1372.539063	53409.894531
1371.458008	52674.203125
1370.376953	52599.527344
1369.295898	52825.984375
1368.213867	52618.750000
1367.132813	52384.636719
1366.050781	52498.707031
1364.967773	52287.152344
1363.885742	52345.070313
1362.802734	51808.140625
1361.720703	51850.410156
1360.637695	52249.429688
1359.554688	51950.601563
1358.470703	51521.789063
1357.387695	51721.050781
1356.303711	51619.789063
1355.219727	51507.351563
1354.135742	51233.570313
1353.050781	51175.023438
1351.966797	51078.988281
1350.881836	50982.863281
1349.796875	50886.738281
1348.711914	50790.617188
1347.626953	50694.492188
1346.541016	50436.859375
1345.455078	50100.984375
1344.369141	49966.621094
1343.283203	50378.218750
1342.197266	49928.445313
1341.110352	49979.812500
1340.023438	50196.636719
1338.936523	50015.417969
1337.849609	50241.093750
1336.762695	50113.566406
1335.674805	50160.375000
1334.586914	50441.750000
1333.499023	50562.191406
1332.411133	50852.316406
1331.323242	50785.074219
1330.234375	51267.046875
1329.145508	50967.609375
1328.056641	51418.125000
1326.967773	50933.570313
1325.878906	51212.148438
1324.789063	50908.464844
1323.699219	51463.472656
1322.609375	51882.265625
1321.519531	51279.902344
1320.429688	51959.351563
1319.338867	52273.082031
1318.248047	52299.281250
1317.157227	52412.343750
1316.066406	52534.273438
1314.975586	53453.371094
1313.883789	52927.167969
1312.791992	53158.007813
1311.700195	53146.167969
1310.608398	53074.246094
1309.516602	53396.144531
1308.423828	53464.339844
1307.331055	53347.914063
1306.238281	53731.843750
1305.145508	53106.289063
1304.051758	53465.667969
1302.958984	53249.308594
1301.865234	53133.011719
1300.771484	53883.191406
1299.677734	54115.550781
1298.583008	54290.085938
1297.489258	54857.566406
1296.394531	54967.515625
1295.299805	55854.285156
1294.204102	56383.441406
1293.109375	55685.402344
1292.013672	55928.218750
1290.917969	55747.304688
1289.822266	55417.875000
1288.726563	55230.464844
1287.630859	55058.632813
1286.534180	54501.210938
1285.437500	54480.261719
1284.340820	53679.425781
1283.244141	53439.320313
1282.146484	53245.812500
1281.048828	53320.312500
1279.951172	52378.562500
1278.853516	52946.816406
1277.755859	52284.332031
1276.658203	52035.878906
1275.559570	52179.101563
1274.460938	51417.570313
1273.362305	51324.210938
1272.262695	51604.574219
1271.164063	51566.480469
1270.064453	51579.238281
1268.964844	51063.800781
1267.865234	51056.753906
1266.765625	50638.796875
1265.665039	50910.128906
1264.564453	50839.066406
1263.463867	50483.191406
1262.363281	50683.757813
1261.262695	50422.949219
1260.161133	50133.542969
1259.059570	50446.578125
1257.958008	49919.023438
1256.856445	50185.667969
1255.754883	50114.816406
1254.652344	49790.441406
1253.549805	50239.917969
1252.447266	49823.066406
1251.344727	49540.785156
1250.242188	49705.843750
1249.138672	49392.839844
1248.035156	49498.402344
1246.931641	49449.781250
1245.828125	49630.140625
1244.724609	49471.453125
1243.620117	49418.457031
1242.515625	49396.285156
1241.411133	49279.515625
1240.306641	49481.730469
1239.201172	49397.972656
1238.096680	49789.179688
1236.991211	49314.082031
1235.885742	49338.097656
1234.779297	49445.609375
1233.673828	49203.726563
1232.567383	49306.828125
1231.460938	49273.710938
1230.354492	49400.910156
1229.248047	49330.460938
1228.140625	49382.964844
1227.033203	50297.996094
1225.926758	49729.289063
1224.818359	49779.492188
1223.710938	49888.898438
1222.602539	50094.765625
1221.495117	50182.144531
1220.386719	49852.933594
1219.278320	49615.906250
1218.168945	49243.082031
1217.060547	49356.835938
1215.951172	49176.980469
1214.841797	49321.367188
1213.731445	49135.011719
1212.622070	49097.613281
1211.511719	48990.171875
1210.402344	49121.347656
1209.291992	49300.617188
1208.180664	49296.027344
1207.070313	49337.375000
1205.958984	49354.648438
1204.847656	49500.937500
1203.736328	49743.371094
1202.625000	49437.019531
1201.512695	49889.195313
1200.401367	50105.199219
1199.289063	49897.261719
1198.176758	49966.820313
1197.063477	50243.839844
1195.951172	50418.121094
1194.837891	50649.101563
1193.724609	50506.730469
1192.611328	51278.855469
1191.498047	50481.796875
1190.383789	51251.460938
1189.269531	50755.710938
1188.155273	50548.011719
1187.041016	50464.671875
1185.926758	50374.820313
1184.811523	49816.371094
1183.696289	50070.992188
1182.581055	49802.585938
1181.465820	49728.164063
1180.350586	49790.980469
1179.234375	49801.511719
1178.118164	49463.671875
1177.001953	49465.542969
1175.885742	49556.652344
1174.768555	48949.195313
1173.652344	49038.183594
1172.535156	49111.910156
1171.417969	48881.121094
1170.299805	48741.742188
