#Wave		#Intensity
2001.242188	39718.375000
2000.272461	39467.722656
1999.302734	39270.371094
1998.333008	39431.394531
1997.363281	39760.207031
1996.392578	39194.703125
1995.422852	39626.117188
1994.452148	39358.792969
1993.481445	39226.746094
1992.510742	39835.640625
1991.540039	39345.683594
1990.568359	39591.531250
1989.596680	39752.230469
1988.625977	39660.246094
1987.654297	39573.292969
1986.681641	39576.378906
1985.709961	39804.464844
1984.738281	39715.027344
1983.765625	39875.527344
1982.792969	39778.609375
1981.820313	39896.570313
1980.847656	40079.429688
1979.874023	39832.683594
1978.901367	40092.890625
1977.927734	40190.738281
1976.954102	40008.992188
1975.980469	39987.023438
1975.006836	40247.019531
1974.032227	39915.667969
1973.058594	39921.164063
1972.083984	40390.511719
1971.109375	40174.003906
1970.134766	39518.804688
1969.160156	40140.019531
1968.184570	40571.613281
1967.209961	40150.902344
1966.234375	40255.984375
1965.258789	40224.039063
1964.283203	40314.128906
1963.306641	40533.664063
1962.331055	40514.128906
1961.354492	40638.960938
1960.377930	40320.773438
1959.401367	40542.636719
1958.424805	40475.839844
1957.447266	40558.300781
1956.470703	40496.496094
1955.493164	40713.191406
1954.515625	40586.738281
1953.538086	40693.972656
1952.560547	40597.386719
1951.582031	40900.875000
1950.604492	40841.546875
1949.625977	40412.144531
1948.647461	41073.109375
1947.668945	40730.718750
1946.689453	41138.175781
1945.710938	41260.042969
1944.731445	40744.078125
1943.751953	41178.605469
1942.772461	40898.511719
1941.792969	40916.152344
1940.813477	41377.695313
1939.833008	40936.539063
1938.852539	41040.929688
1937.873047	41412.972656
1936.891602	40843.171875
1935.911133	41120.960938
1934.930664	41321.855469
1933.949219	40920.792969
1932.967773	41329.671875
1931.986328	41258.054688
1931.004883	41374.605469
1930.023438	41483.691406
1929.041016	41669.453125
1928.059570	41399.878906
1927.077148	41605.375000
1926.094727	41694.550781
1925.112305	41793.582031
1924.128906	41489.554688
1923.146484	41499.585938
1922.163086	42028.671875
1921.179688	41823.605469
1920.196289	41905.226563
1919.212891	41717.542969
1918.228516	41900.417969
1917.245117	41833.800781
1916.260742	41905.480469
1915.276367	41910.476563
1914.291992	41668.648438
1913.307617	41878.507813
1912.322266	41737.929688
1911.336914	42475.621094
1910.352539	41812.085938
1909.367188	42258.511719
1908.380859	41684.003906
1907.395508	42374.343750
1906.409180	41681.707031
1905.423828	42438.339844
1904.437500	42048.992188
1903.451172	42238.695313
1902.463867	42061.332031
1901.477539	41940.675781
1900.490234	42356.812500
1899.503906	42376.460938
1898.516602	41921.066406
1897.528320	42135.187500
1896.541016	41928.500000
1895.553711	42172.062500
1894.565430	41889.187500
1893.577148	42093.324219
1892.588867	41913.824219
1891.600586	41719.636719
1890.611328	42312.031250
1889.623047	42031.832031
1888.633789	42589.562500
1887.644531	42302.035156
1886.655273	42301.976563
1885.666016	42238.070313
1884.675781	42218.378906
1883.686523	42399.988281
1882.696289	41970.382813
1881.706055	42269.757813
1880.715820	42642.636719
1879.724609	42640.054688
1878.734375	42068.445313
1877.743164	42443.609375
1876.751953	41754.546875
1875.760742	42046.281250
1874.769531	41857.523438
1873.778320	42683.351563
1872.786133	42156.429688
1871.793945	42376.843750
1870.801758	41933.433594
1869.809570	42462.355469
1868.817383	42481.824219
1867.824219	42454.777344
1866.832031	42767.937500
1865.838867	42503.480469
1864.845703	42740.675781
1863.851563	42405.367188
1862.858398	42630.265625
1861.865234	42424.695313
1860.871094	42913.558594
1859.876953	42554.003906
1858.882813	42751.828125
1857.887695	42341.109375
1856.893555	42387.414063
1855.898438	42685.308594
1854.904297	42428.683594
1853.909180	42711.812500
1852.913086	42980.187500
1851.917969	42938.453125
1850.922852	43155.441406
1849.926758	42691.531250
1848.930664	42796.250000
1847.934570	43025.339844
1846.938477	43510.433594
1845.941406	43241.859375
1844.945313	43036.769531
1843.948242	43158.390625
1842.951172	43270.218750
1841.954102	43684.167969
1840.956055	43574.156250
1839.958984	43033.019531
1838.960938	43264.125000
1837.962891	43836.054688
1836.964844	43560.531250
1835.966797	43764.636719
1834.968750	43671.753906
1833.969727	43328.261719
1832.970703	43804.785156
1831.971680	43801.937500
1830.972656	43925.558594
1829.973633	43720.859375
1828.973633	44211.562500
1827.974609	44152.730469
1826.974609	44222.726563
1825.974609	44151.757813
1824.974609	44085.675781
1823.973633	44056.046875
1822.973633	43863.710938
1821.972656	44239.644531
1820.971680	43957.511719
1819.970703	44173.082031
1818.968750	44495.363281
1817.967773	44788.410156
1816.965820	44351.105469
1815.964844	44282.648438
1814.961914	44117.207031
1813.959961	44516.796875
1812.958008	44908.972656
1811.955078	44624.726563
1810.953125	44614.441406
1809.950195	44609.000000
1808.947266	44804.640625
1807.943359	44762.832031
1806.940430	44389.246094
1805.936523	45318.496094
1804.932617	45015.148438
1803.928711	44757.898438
1802.924805	44766.949219
1801.920898	44831.644531
1800.916016	45203.558594
1799.911133	45275.410156
1798.907227	45359.324219
1797.901367	44935.433594
1796.896484	45323.984375
1795.891602	45168.546875
1794.885742	45237.914063
1793.879883	44995.554688
1792.874023	45371.734375
1791.868164	44965.187500
1790.862305	45401.613281
1789.855469	45335.652344
1788.848633	45477.328125
1787.842773	45611.710938
1786.834961	45384.054688
1785.828125	45795.882813
1784.821289	45715.425781
1783.813477	46057.097656
1782.805664	46075.496094
1781.797852	46067.363281
1780.790039	45736.195313
1779.782227	45904.074219
1778.773438	46163.464844
1777.764648	45748.117188
1776.755859	46125.484375
1775.747070	46013.769531
1774.738281	46193.484375
1773.729492	45920.472656
1772.719727	46278.277344
1771.709961	45822.421875
1770.700195	46562.742188
1769.690430	46061.277344
1768.680664	46377.898438
1767.669922	46983.031250
1766.659180	46717.421875
1765.648438	46552.886719
1764.637695	47236.992188
1763.626953	46459.527344
1762.615234	46927.125000
1761.604492	46894.808594
1760.592773	46737.585938
1759.581055	47140.031250
1758.569336	47297.394531
1757.556641	47034.535156
1756.544922	47079.035156
1755.532227	47157.117188
1754.519531	47496.734375
1753.506836	47389.968750
1752.494141	47523.121094
1751.480469	47533.910156
1750.466797	47712.546875
1749.454102	48509.687500
1748.440430	48390.843750
1747.425781	47744.761719
1746.412109	48263.503906
1745.397461	48175.902344
1744.383789	48629.703125
1743.369141	48513.328125
1742.353516	48004.277344
1741.338867	48637.421875
1740.324219	48772.441406
1739.308594	48632.183594
1738.292969	48980.121094
1737.277344	49682.019531
1736.261719	48723.585938
1735.245117	49480.285156
1734.229492	49638.914063
1733.212891	49979.183594
1732.196289	50551.195313
1731.179688	50296.085938
1730.162109	49995.664063
1729.145508	51057.125000
1728.127930	50699.343750
1727.110352	51175.179688
1726.092773	51973.203125
1725.075195	52040.398438
1724.056641	52129.054688
1723.039063	52547.015625
1722.020508	51993.675781
1721.001953	52926.820313
1719.983398	52771.949219
1718.963867	52636.207031
1717.945313	53203.917969
1716.925781	53513.953125
1715.906250	53299.484375
1714.886719	53764.296875
1713.867188	53318.730469
1712.846680	53173.492188
1711.826172	53666.656250
1710.806641	53521.402344
1709.786133	53545.253906
1708.764648	53888.101563
1707.744141	53490.578125
1706.722656	53376.390625
1705.701172	53654.835938
1704.679688	53735.726563
1703.658203	53700.039063
1702.636719	53000.871094
1701.614258	53272.042969
1700.592773	52687.304688
1699.570313	52991.707031
1698.547852	52777.941406
1697.524414	53056.082031
1696.501953	52521.671875
1695.478516	52388.851563
1694.456055	52999.367188
1693.432617	52185.078125
1692.408203	52802.531250
1691.384766	52617.531250
1690.360352	52313.941406
1689.336914	52416.175781
1688.312500	52364.179688
1687.288086	52362.007813
1686.262695	52684.710938
1685.238281	52585.269531
1684.212891	52462.156250
1683.187500	52459.957031
1682.162109	52498.042969
1681.136719	52825.164063
1680.110352	52621.546875
1679.084961	52363.523438
1678.058594	52477.367188
1677.032227	52546.187500
1676.005859	52835.121094
1674.978516	52906.214844
1673.952148	53183.148438
1672.924805	52622.453125
1671.897461	52475.914063
1670.870117	52393.281250
1669.842773	53005.878906
1668.814453	52838.066406
1667.787109	53150.164063
1666.758789	52616.054688
1665.730469	53152.554688
1664.701172	53436.074219
1663.672852	53882.472656
1662.643555	53350.964844
1661.615234	53417.050781
1660.585938	53405.203125
1659.555664	53832.398438
1658.526367	53657.636719
1657.497070	53652.820313
1656.466797	54157.593750
1655.436523	54487.636719
1654.406250	54131.277344
1653.375977	54508.359375
1652.344727	54644.839844
1651.313477	54760.054688
1650.282227	54648.984375
1649.250977	54825.417969
1648.219727	54742.640625
1647.188477	54584.519531
1646.156250	54497.101563
1645.124023	54972.460938
1644.091797	55252.250000
1643.059570	55138.863281
1642.027344	54863.132813
1640.994141	55601.601563
1639.961914	55245.902344
1638.928711	56242.765625
1637.895508	55887.070313
1636.861328	55698.437500
1635.828125	56048.207031
1634.793945	56341.437500
1633.759766	56152.820313
1632.725586	56666.785156
1631.691406	56706.035156
1630.656250	56536.234375
1629.622070	57075.679688
1628.586914	57206.398438
1627.551758	56952.085938
1626.516602	57359.726563
1625.480469	57448.078125
1624.445313	57893.023438
1623.409180	58553.621094
1622.373047	58700.339844
1621.336914	59665.398438
1620.300781	59877.511719
1619.263672	60232.539063
1618.227539	61653.828125
1617.190430	62514.558594
1616.153320	64047.390625
1615.115234	65303.261719
1614.078125	66830.359375
1613.040039	68005.671875
1612.001953	69035.398438
1610.963867	70095.195313
1609.925781	69495.273438
1608.887695	69225.500000
1607.848633	68239.921875
1606.809570	67359.945313
1605.770508	66078.023438
1604.731445	65168.347656
1603.692383	63690.890625
1602.652344	62800.656250
1601.613281	61892.039063
1600.573242	61243.113281
1599.533203	60706.550781
1598.492188	59997.332031
1597.452148	59129.554688
1596.411133	58638.011719
1595.370117	58466.476563
1594.329102	58397.703125
1593.288086	57932.218750
1592.247070	58068.890625
1591.205078	57967.558594
1590.163086	57441.750000
1589.121094	57389.531250
1588.079102	56826.699219
1587.036133	56795.585938
1585.994141	57048.839844
1584.951172	56724.066406
1583.908203	56765.210938
1582.865234	56776.050781
1581.822266	56859.093750
1580.778320	56802.375000
1579.734375	56869.078125
1578.691406	57066.117188
1577.646484	56725.437500
1576.602539	56906.136719
1575.558594	56768.019531
1574.513672	57064.953125
1573.468750	57224.554688
1572.423828	56970.175781
1571.378906	57311.085938
1570.333008	57551.914063
1569.288086	57674.121094
1568.242188	57789.308594
1567.196289	57586.156250
1566.150391	57150.785156
1565.103516	56885.109375
1564.057617	56668.285156
1563.010742	56774.253906
1561.963867	56313.792969
1560.916992	56589.203125
1559.869141	56467.718750
1558.822266	56434.437500
1557.774414	56841.886719
1556.726563	57089.167969
1555.678711	57276.066406
1554.630859	56934.312500
1553.582031	57056.265625
1552.534180	57127.187500
1551.485352	56702.218750
1550.436523	57111.414063
1549.386719	56688.910156
1548.337891	56827.000000
1547.288086	56807.585938
1546.238281	56790.488281
1545.188477	56447.035156
1544.138672	56626.710938
1543.088867	56662.871094
1542.038086	56479.238281
1540.987305	56783.710938
1539.936523	57129.695313
1538.885742	56832.777344
1537.834961	56582.195313
1536.783203	56417.222656
1535.731445	56531.925781
1534.679688	56852.222656
1533.627930	56735.792969
1532.576172	57180.652344
1531.523438	57027.253906
1530.471680	57261.796875
1529.418945	56923.757813
1528.366211	57199.769531
1527.312500	57166.464844
1526.259766	56870.148438
1525.206055	56742.328125
1524.152344	56633.003906
1523.098633	56572.140625
1522.044922	56368.355469
1520.990234	56457.390625
1519.936523	56223.730469
1518.881836	56206.757813
1517.827148	56014.691406
1516.772461	56909.937500
1515.716797	56409.199219
1514.662109	56808.976563
1513.606445	56389.007813
1512.550781	56157.941406
1511.495117	56355.015625
1510.438477	56135.535156
1509.382813	55950.640625
1508.326172	56163.742188
1507.269531	55728.226563
1506.212891	56113.738281
1505.155273	55607.117188
1504.098633	55328.230469
1503.041016	55168.945313
1501.983398	55577.250000
1500.925781	55151.484375
1499.867188	55380.480469
1498.809570	55478.496094
1497.750977	55163.179688
1496.692383	54948.984375
1495.633789	54895.531250
1494.575195	55023.386719
1493.515625	54685.425781
1492.457031	54629.746094
1491.397461	54007.566406
1490.337891	54651.449219
1489.277344	54770.050781
1488.217773	54911.531250
1487.157227	54356.203125
1486.096680	54731.441406
1485.036133	55051.554688
1483.975586	55263.886719
1482.915039	55286.042969
1481.853516	54660.144531
1480.791992	54826.636719
1479.730469	54944.996094
1478.668945	55308.199219
1477.606445	54577.476563
1476.544922	54663.781250
1475.482422	54656.265625
1474.419922	54813.414063
1473.357422	55162.585938
1472.293945	55150.402344
1471.231445	54957.648438
1470.167969	55071.199219
1469.104492	55429.203125
1468.041016	55442.105469
1466.976563	55290.539063
1465.913086	55403.941406
1464.848633	55359.750000
1463.784180	55600.937500
1462.719727	55271.406250
1461.655273	55966.660156
1460.589844	56072.984375
1459.524414	55540.503906
1458.458984	55968.464844
1457.393555	55974.378906
1456.328125	56178.660156
1455.261719	56152.617188
1454.196289	56281.570313
1453.129883	56428.703125
1452.063477	56416.292969
1450.996094	56419.832031
1449.929688	56735.398438
1448.862305	56470.164063
1447.794922	56541.984375
1446.727539	56704.835938
1445.660156	56626.371094
1444.591797	56823.277344
1443.524414	57031.484375
1442.456055	57335.156250
1441.387695	57534.093750
1440.318359	57598.796875
1439.250000	57922.656250
1438.180664	58030.449219
1437.111328	58226.839844
1436.041992	57941.425781
1434.972656	58910.199219
1433.903320	58942.769531
1432.833008	59061.628906
1431.762695	59234.937500
1430.692383	59287.855469
1429.622070	59427.007813
1428.550781	59382.281250
1427.480469	59798.183594
1426.409180	59796.507813
1425.337891	60037.527344
1424.266602	59296.496094
1423.194336	59174.730469
1422.122070	59281.972656
1421.050781	59554.636719
1419.978516	58979.644531
1418.905273	58937.316406
1417.833008	58756.812500
1416.759766	58934.234375
1415.687500	59231.609375
1414.614258	59587.746094
1413.540039	59131.066406
1412.466797	59124.957031
1411.392578	58958.175781
1410.319336	59309.566406
1409.245117	59534.152344
1408.169922	59394.523438
1407.095703	59908.453125
1406.020508	59284.968750
1404.946289	59751.261719
1403.871094	59905.488281
1402.794922	59838.214844
1401.719727	59898.750000
1400.643555	59959.339844
1399.568359	60019.878906
1398.492188	60080.468750
1397.415039	60141.113281
1396.338867	60201.703125
1395.261719	60262.351563
1394.185547	60322.941406
1393.108398	60609.871094
1392.031250	60668.878906
1390.953125	61077.414063
1389.875977	61542.171875
1388.797852	61682.128906
1387.719727	61822.035156
1386.641602	62164.703125
1385.562500	62441.910156
1384.484375	63219.121094
1383.405273	62775.277344
1382.326172	63284.164063
1381.247070	63308.785156
1380.166992	63792.625000
1379.087891	64105.230469
1378.007813	64091.425781
1376.927734	63794.132813
1375.847656	63978.339844
1374.767578	63620.441406
1373.686523	63462.808594
1372.605469	62884.792969
1371.524414	62765.558594
1370.443359	62592.421875
1369.362305	62244.070313
1368.280273	62005.929688
1367.199219	61828.523438
1366.117188	61426.593750
1365.034180	61287.523438
1363.952148	61204.625000
1362.870117	61108.289063
1361.787109	60744.917969
1360.704102	60805.761719
1359.621094	60119.515625
1358.537109	60220.820313
1357.454102	60088.851563
1356.370117	59997.289063
1355.286133	59795.906250
1354.202148	59796.320313
1353.118164	59953.605469
1352.033203	59738.886719
1350.948242	59855.796875
1349.863281	59202.171875
1348.778320	59321.367188
1347.693359	59518.882813
1346.607422	59380.539063
1345.521484	59295.957031
1344.435547	59415.039063
1343.349609	58768.898438
1342.263672	59011.062500
1341.176758	58720.835938
1340.090820	58976.332031
1339.003906	59142.304688
1337.916016	58912.558594
1336.829102	59614.863281
1335.741211	59152.714844
1334.654297	58992.343750
1333.566406	58883.398438
1332.478516	59024.625000
1331.389648	59583.355469
1330.301758	59251.105469
1329.212891	59532.808594
1328.124023	59057.851563
1327.035156	59232.375000
1325.945313	59168.128906
1324.856445	59014.683594
1323.766602	59140.050781
1322.676758	59321.113281
1321.586914	59459.750000
1320.496094	59761.046875
1319.406250	59547.449219
1318.315430	59193.554688
1317.224609	58935.578125
1316.133789	60089.789063
1315.041992	59584.554688
1313.951172	59397.886719
1312.859375	59489.542969
1311.767578	59527.746094
1310.675781	59886.375000
1309.583008	59917.812500
1308.491211	59646.710938
1307.398438	59862.773438
1306.305664	59907.535156
1305.212891	59605.449219
1304.119141	60510.476563
1303.026367	59941.691406
1301.932617	59715.304688
1300.838867	60328.781250
1299.744141	60191.250000
1298.650391	60735.566406
1297.555664	60404.828125
1296.461914	60245.152344
1295.366211	60611.585938
1294.271484	60616.144531
1293.176758	60835.929688
1292.081055	61000.167969
1290.985352	61337.355469
1289.889648	61539.140625
1288.793945	61643.289063
1287.697266	61689.765625
1286.601563	61798.277344
1285.504883	61911.179688
1284.408203	61722.718750
1283.311523	61735.902344
1282.213867	61439.007813
1281.116211	60998.281250
1280.018555	61421.175781
1278.920898	61190.898438
1277.823242	61002.753906
1276.725586	61283.789063
1275.626953	60841.265625
1274.528320	60622.308594
1273.429688	60648.917969
1272.330078	60087.335938
1271.231445	60295.316406
1270.131836	60368.378906
1269.032227	60242.515625
1267.932617	59962.023438
1266.833008	59814.179688
1265.732422	59856.347656
1264.632813	59989.039063
1263.532227	59207.566406
1262.430664	59095.281250
1261.330078	59517.175781
1260.228516	58901.718750
1259.127930	58877.796875
1258.026367	59048.007813
1256.924805	59043.914063
1255.822266	58684.781250
1254.720703	59022.492188
1253.618164	58853.066406
1252.515625	58926.140625
1251.413086	58633.386719
1250.309570	58572.074219
1249.207031	58557.039063
1248.103516	58594.863281
1247.000000	58181.265625
1245.895508	57998.980469
1244.791992	58212.972656
1243.687500	58334.453125
1242.583008	57738.558594
1241.478516	57692.875000
1240.374023	57825.375000
1239.269531	57766.492188
1238.164063	57571.304688
1237.058594	57668.570313
1235.953125	57473.468750
1234.847656	57258.652344
1233.741211	57426.226563
1232.635742	57158.769531
1231.529297	57543.742188
1230.422852	57111.652344
1229.315430	56648.980469
1228.208984	57464.089844
1227.101563	57330.742188
1225.994141	56934.105469
1224.886719	56559.554688
1223.779297	56889.289063
1222.670898	56824.121094
1221.562500	56851.070313
1220.454102	56724.539063
1219.345703	56836.984375
1218.237305	56311.621094
1217.127930	56384.648438
1216.018555	56722.742188
1214.909180	56878.902344
1213.799805	56494.066406
1212.690430	56825.375000
1211.580078	56326.843750
1210.469727	56504.839844
1209.359375	56713.410156
1208.249023	56512.734375
1207.138672	56447.765625
1206.027344	56509.679688
1204.916016	56156.066406
1203.804688	56615.937500
1202.693359	56463.542969
1201.581055	56693.691406
1200.469727	57133.542969
1199.357422	56428.359375
1198.245117	56826.585938
1197.131836	57124.199219
1196.019531	57271.027344
1194.906250	57664.511719
1193.792969	57368.058594
1192.679688	57510.390625
1191.566406	57587.203125
1190.452148	57227.652344
1189.337891	57437.542969
1188.223633	57673.527344
1187.109375	57178.960938
1185.995117	57168.546875
1184.879883	57578.820313
1183.764648	57051.839844
1182.649414	57592.714844
1181.534180	57100.773438
1180.418945	56587.234375
1179.302734	57382.679688
1178.186523	56912.812500
1177.070313	56654.277344
1175.954102	56717.957031
1174.837891	56629.285156
1173.720703	56418.800781
1172.603516	56602.125000
1171.486328	56154.648438
1170.369141	56635.863281
