#Wave		#Intensity
2001.221680	44412.929688
2000.251953	44493.136719
1999.282227	44718.437500
1998.312500	44590.359375
1997.342773	44720.359375
1996.372070	44467.085938
1995.402344	44707.250000
1994.431641	44416.503906
1993.460938	44766.742188
1992.490234	44488.601563
1991.518555	44358.203125
1990.547852	44885.917969
1989.576172	44465.296875
1988.604492	45110.359375
1987.632813	44794.878906
1986.661133	45162.113281
1985.689453	45164.226563
1984.716797	44633.937500
1983.745117	45115.957031
1982.772461	44918.179688
1981.799805	44625.535156
1980.827148	45177.238281
1979.853516	44947.082031
1978.880859	45151.464844
1977.907227	45398.214844
1976.933594	45497.609375
1975.959961	44985.550781
1974.986328	45274.609375
1974.011719	45052.152344
1973.038086	44672.628906
1972.063477	45188.527344
1971.088867	45200.574219
1970.114258	44891.023438
1969.138672	45351.773438
1968.164063	45493.371094
1967.188477	44688.082031
1966.212891	45671.777344
1965.237305	45041.093750
1964.261719	45386.847656
1963.286133	45411.281250
1962.309570	45420.765625
1961.333984	45071.820313
1960.357422	45454.648438
1959.380859	45424.304688
1958.404297	45426.308594
1957.426758	45440.750000
1956.450195	45537.250000
1955.472656	45357.718750
1954.495117	45648.101563
1953.517578	45254.851563
1952.540039	45314.031250
1951.561523	45301.132813
1950.583008	45208.742188
1949.605469	45198.347656
1948.626953	45749.199219
1947.647461	45644.359375
1946.668945	45879.656250
1945.690430	45392.582031
1944.710938	45610.468750
1943.731445	45699.250000
1942.751953	45271.996094
1941.772461	46032.980469
1940.791992	45595.894531
1939.812500	45632.542969
1938.832031	45914.601563
1937.851563	45631.437500
1936.871094	45782.050781
1935.890625	45848.363281
1934.909180	45835.378906
1933.928711	45961.105469
1932.947266	45504.816406
1931.965820	45860.820313
1930.984375	45991.421875
1930.002930	45758.125000
1929.020508	45735.261719
1928.038086	45665.390625
1927.056641	45954.250000
1926.074219	46005.562500
1925.090820	45708.160156
1924.108398	45808.945313
1923.125000	45917.105469
1922.142578	45609.988281
1921.159180	45601.992188
1920.175781	45954.738281
1919.191406	46057.851563
1918.208008	45573.078125
1917.223633	45624.359375
1916.240234	46095.363281
1915.255859	45758.953125
1914.271484	46076.734375
1913.286133	46211.789063
1912.301758	46381.335938
1911.316406	46190.648438
1910.331055	45864.375000
1909.345703	45881.191406
1908.360352	45898.007813
1907.375000	45914.824219
1906.388672	45931.656250
1905.402344	45948.488281
1904.416016	45965.320313
1903.429688	45982.152344
1902.443359	45998.984375
1901.457031	46015.820313
1900.469727	46032.667969
1899.482422	46386.468750
1898.495117	46311.875000
1897.507813	46168.398438
1896.520508	46310.386719
1895.532227	46164.496094
1894.543945	46326.105469
1893.556641	45988.453125
1892.568359	46137.738281
1891.579102	45896.101563
1890.590820	46192.820313
1889.601563	46265.804688
1888.613281	46090.609375
1887.624023	46293.781250
1886.634766	45973.726563
1885.644531	46105.628906
1884.655273	45763.617188
1883.665039	45502.734375
1882.674805	45696.003906
1881.684570	45708.570313
1880.694336	45721.132813
1879.704102	45733.699219
1878.712891	45746.273438
1877.722656	45758.839844
1876.731445	45771.417969
1875.740234	45783.996094
1874.748047	45796.582031
1873.756836	45809.160156
1872.764648	45821.750000
1871.773438	45834.328125
1870.781250	45846.917969
1869.788086	45859.519531
1868.795898	45872.109375
1867.803711	45884.699219
1866.810547	45897.300781
1865.817383	45909.902344
1864.824219	45922.503906
1863.831055	45935.105469
1862.837891	45692.234375
1861.843750	45498.355469
1860.849609	46020.906250
1859.855469	45805.031250
1858.861328	45718.769531
1857.867188	45615.429688
1856.872070	46191.335938
1855.877930	46007.332031
1854.882813	45774.546875
1853.887695	45993.593750
1852.892578	45770.652344
1851.896484	45838.277344
1850.901367	45993.738281
1849.905273	45997.847656
1848.909180	46202.015625
1847.913086	45759.687500
1846.916992	46124.789063
1845.919922	45826.496094
1844.923828	46249.968750
1843.926758	45890.812500
1842.929688	46284.875000
1841.932617	46101.285156
1840.935547	46193.062500
1839.937500	46331.085938
1838.939453	46308.320313
1837.942383	46224.683594
1836.943359	46124.031250
1835.945313	46337.425781
1834.947266	46358.472656
1833.948242	46506.046875
1832.949219	46592.742188
1831.951172	46513.996094
1830.951172	46238.281250
1829.952148	46816.164063
1828.953125	46635.304688
1827.953125	46240.597656
1826.953125	46655.335938
1825.953125	46569.363281
1824.953125	47136.949219
1823.952148	46739.996094
1822.952148	46593.332031
1821.951172	46529.277344
1820.950195	47208.140625
1819.949219	46855.140625
1818.948242	46720.687500
1817.946289	46418.847656
1816.945313	46861.917969
1815.943359	46395.214844
1814.941406	46374.914063
1813.939453	46357.042969
1812.936523	46833.746094
1811.934570	46500.683594
1810.931641	46940.835938
1809.928711	46556.988281
1808.925781	46325.894531
1807.921875	46564.796875
1806.918945	46617.132813
1805.915039	46865.578125
1804.912109	46559.542969
1803.908203	46512.605469
1802.903320	46344.675781
1801.899414	46682.515625
1800.894531	46446.878906
1799.890625	46537.859375
1798.885742	46604.621094
1797.880859	46366.695313
1796.875000	46571.257813
1795.870117	46490.531250
1794.864258	46436.414063
1793.858398	46713.339844
1792.852539	46405.539063
1791.846680	46723.429688
1790.840820	46502.667969
1789.833984	46501.707031
1788.828125	46536.957031
1787.821289	46709.773438
1786.814453	46674.984375
1785.806641	46379.617188
1784.799805	47020.371094
1783.791992	46720.222656
1782.784180	46994.128906
1781.776367	47009.945313
1780.768555	47114.953125
1779.760742	46935.503906
1778.751953	46806.726563
1777.743164	47092.414063
1776.735352	46917.875000
1775.725586	47186.578125
1774.716797	46980.777344
1773.708008	47478.105469
1772.698242	47472.128906
1771.688477	47523.917969
1770.678711	47534.777344
1769.668945	47266.527344
1768.659180	47479.496094
1767.648438	47391.738281
1766.637695	47693.582031
1765.626953	47586.578125
1764.616211	47948.371094
1763.605469	47598.605469
1762.593750	47758.410156
1761.583008	47367.953125
1760.571289	47289.917969
1759.559570	47291.167969
1758.547852	47710.253906
1757.535156	47432.917969
1756.523438	48123.082031
1755.510742	47555.355469
1754.498047	48125.269531
1753.485352	47888.835938
1752.472656	48244.988281
1751.458984	48306.011719
1750.445313	47885.023438
1749.432617	48272.152344
1748.417969	47875.281250
1747.404297	48626.570313
1746.390625	48749.765625
1745.375977	48611.769531
1744.361328	48531.308594
1743.346680	48735.878906
1742.332031	48909.250000
1741.317383	49317.179688
1740.302734	49387.449219
1739.287109	49807.113281
1738.271484	49532.695313
1737.255859	49622.019531
1736.240234	50507.863281
1735.223633	51022.691406
1734.208008	50456.515625
1733.191406	51193.507813
1732.174805	51335.039063
1731.158203	51842.175781
1730.140625	51849.726563
1729.124023	52459.320313
1728.106445	52247.000000
1727.088867	52536.281250
1726.071289	53188.402344
1725.053711	53510.835938
1724.035156	53463.167969
1723.017578	53830.777344
1721.999023	54276.996094
1720.980469	54238.753906
1719.961914	54696.664063
1718.942383	54694.132813
1717.923828	54693.984375
1716.904297	54815.417969
1715.884766	55120.343750
1714.865234	54958.058594
1713.844727	55517.796875
1712.825195	55386.464844
1711.804688	54993.167969
1710.784180	55528.781250
1709.763672	54821.296875
1708.743164	55580.527344
1707.722656	55285.054688
1706.701172	55620.328125
1705.679688	55274.980469
1704.658203	55269.941406
1703.636719	55498.000000
1702.615234	54834.187500
1701.592773	54717.472656
1700.571289	55050.097656
1699.548828	54662.421875
1698.526367	54828.585938
1697.502930	55008.945313
1696.480469	54623.855469
1695.457031	54471.660156
1694.433594	54680.476563
1693.410156	53858.769531
1692.386719	54435.566406
1691.363281	54940.957031
1690.338867	54598.984375
1689.314453	54719.796875
1688.290039	54944.941406
1687.265625	54906.734375
1686.241211	54733.367188
1685.215820	54685.726563
1684.191406	55060.046875
1683.166016	54581.000000
1682.140625	55047.621094
1681.115234	54651.664063
1680.088867	55606.085938
1679.062500	55141.480469
1678.037109	55079.601563
1677.010742	55860.593750
1675.983398	55176.042969
1674.957031	55653.796875
1673.930664	55755.136719
1672.903320	55461.332031
1671.875977	55633.625000
1670.848633	55713.621094
1669.820313	55942.558594
1668.792969	55748.218750
1667.764648	56286.722656
1666.736328	56274.363281
1665.708008	56243.105469
1664.679688	56682.000000
1663.651367	56641.222656
1662.622070	56900.398438
1661.592773	56422.757813
1660.563477	56821.167969
1659.534180	57212.347656
1658.504883	57315.464844
1657.474609	57661.582031
1656.444336	57929.722656
1655.415039	57393.425781
1654.383789	58090.734375
1653.353516	58292.625000
1652.323242	58477.937500
1651.291992	58684.398438
1650.260742	58626.835938
1649.229492	58369.011719
1648.198242	58921.679688
1647.166016	59285.718750
1646.134766	59534.230469
1645.102539	59782.648438
1644.070313	60193.414063
1643.038086	60714.660156
1642.004883	61016.855469
1640.972656	60502.488281
1639.939453	60997.511719
1638.906250	61548.808594
1637.873047	61297.996094
1636.839844	61870.199219
1635.805664	62218.871094
1634.772461	62572.113281
1633.738281	62908.781250
1632.704102	63757.527344
1631.668945	63732.089844
1630.634766	64509.921875
1629.599609	64214.300781
1628.565430	64627.843750
1627.530273	65055.320313
1626.494141	65560.093750
1625.458984	65994.289063
1624.422852	66728.640625
1623.387695	67092.093750
1622.351563	67779.078125
1621.315430	68390.773438
1620.278320	69956.476563
1619.242188	70220.632813
1618.205078	71522.953125
1617.167969	72801.375000
1616.130859	74901.687500
1615.093750	76244.632813
1614.055664	77106.984375
1613.018555	79181.976563
1611.980469	80312.726563
1610.942383	81216.015625
1609.904297	81540.906250
1608.865234	81486.601563
1607.827148	80749.171875
1606.788086	79817.859375
1605.749023	78482.273438
1604.709961	77843.968750
1603.669922	75866.289063
1602.630859	74812.601563
1601.590820	74476.765625
1600.550781	73535.851563
1599.510742	72606.960938
1598.470703	73047.164063
1597.429688	72863.664063
1596.389648	72318.304688
1595.348633	71761.468750
1594.307617	71484.921875
1593.265625	71350.828125
1592.224609	71408.109375
1591.182617	71439.703125
1590.140625	71261.367188
1589.098633	71792.031250
1588.056641	72149.960938
1587.014648	71910.968750
1585.971680	72527.460938
1584.928711	73087.804688
1583.886719	73312.421875
1582.842773	72824.125000
1581.799805	73582.078125
1580.755859	73764.562500
1579.712891	74072.718750
1578.668945	74681.046875
1577.625000	75172.789063
1576.580078	75264.093750
1575.536133	75199.484375
1574.491211	75009.273438
1573.446289	76137.867188
1572.401367	76394.023438
1571.356445	76529.195313
1570.311523	76680.578125
1569.265625	76852.828125
1568.219727	76618.359375
1567.173828	76586.093750
1566.127930	76449.312500
1565.082031	76163.929688
1564.035156	76240.898438
1562.988281	76171.562500
1561.941406	75742.460938
1560.894531	75299.585938
1559.847656	75300.062500
1558.799805	75075.492188
1557.751953	74767.500000
1556.704102	74339.015625
1555.656250	74258.492188
1554.608398	74115.406250
1553.560547	73450.828125
1552.511719	73398.312500
1551.462891	73304.101563
1550.414063	72007.554688
1549.365234	72020.171875
1548.315430	72526.054688
1547.265625	71443.359375
1546.216797	71222.242188
1545.166992	71781.226563
1544.116211	71134.304688
1543.066406	70598.671875
1542.015625	70391.734375
1540.965820	70161.734375
1539.915039	70109.875000
1538.863281	69674.226563
1537.812500	69393.609375
1536.760742	69688.609375
1535.709961	69045.273438
1534.658203	68861.953125
1533.605469	68255.945313
1532.553711	68571.718750
1531.501953	67760.453125
1530.449219	67256.554688
1529.396484	66900.570313
1528.343750	67437.914063
1527.290039	66982.789063
1526.237305	66560.132813
1525.183594	66359.070313
1524.129883	66480.968750
1523.076172	66757.320313
1522.022461	66318.851563
1520.968750	66309.289063
1519.914063	65553.007813
1518.859375	66082.789063
1517.804688	65527.242188
1516.750000	65504.000000
1515.694336	65508.398438
1514.639648	64948.640625
1513.583984	64633.121094
1512.528320	65051.996094
1511.472656	64603.082031
1510.416016	63254.632813
1509.360352	63602.203125
1508.303711	63811.632813
1507.247070	63006.785156
1506.190430	62724.179688
1505.132813	63177.335938
1504.076172	62373.031250
1503.018555	62336.582031
1501.960938	61907.234375
1500.903320	61689.390625
1499.844727	61620.917969
1498.787109	60519.054688
1497.728516	60981.203125
1496.669922	60740.710938
1495.611328	60284.554688
1494.552734	60746.488281
1493.493164	59631.988281
1492.434570	59781.882813
1491.375000	59523.464844
1490.315430	59194.042969
1489.254883	59593.843750
1488.195313	58803.757813
1487.134766	58625.906250
1486.074219	59158.496094
1485.013672	58820.257813
1483.953125	58628.746094
1482.892578	58590.753906
1481.831055	58566.511719
1480.769531	58604.089844
1479.708008	58566.113281
1478.646484	58422.867188
1477.583984	57959.316406
1476.522461	58642.140625
1475.459961	57629.726563
1474.397461	57605.667969
1473.334961	57945.191406
1472.271484	57749.613281
1471.208984	57709.539063
1470.145508	57959.722656
1469.082031	57638.566406
1468.018555	57534.558594
1466.954102	58074.718750
1465.890625	57922.703125
1464.826172	57640.593750
1463.761719	57888.222656
1462.697266	57918.917969
1461.631836	57205.632813
1460.567383	57373.339844
1459.501953	57276.351563
1458.436523	57339.062500
1457.371094	57130.367188
1456.305664	57295.675781
1455.239258	57397.093750
1454.172852	57213.566406
1453.107422	56850.074219
1452.040039	56641.644531
1450.973633	56964.062500
1449.907227	56514.253906
1448.839844	56549.648438
1447.772461	56261.726563
1446.705078	56677.304688
1445.637695	56475.941406
1444.569336	56279.199219
1443.500977	56385.125000
1442.432617	56290.828125
1441.364258	56321.652344
1440.295898	56866.375000
1439.227539	56767.488281
1438.158203	56566.347656
1437.088867	56769.816406
1436.019531	56855.050781
1434.950195	56894.812500
1433.879883	57032.234375
1432.810547	56547.332031
1431.740234	57281.941406
1430.669922	57328.402344
1429.598633	57467.906250
1428.528320	57432.609375
1427.457031	57127.312500
1426.386719	57250.890625
1425.314453	56870.875000
1424.243164	56652.011719
1423.171875	56217.820313
1422.099609	56448.011719
1421.027344	57083.835938
1419.955078	56400.515625
1418.882813	56166.058594
1417.810547	56194.468750
1416.737305	56082.437500
1415.664063	56192.367188
1414.590820	56571.691406
1413.517578	56083.863281
1412.444336	55808.964844
1411.370117	56079.523438
1410.295898	56157.671875
1409.221680	56215.429688
1408.147461	56257.328125
1407.073242	56586.398438
1405.998047	56506.125000
1404.922852	56771.730469
1403.847656	57274.546875
1402.772461	57214.523438
1401.697266	57023.484375
1400.621094	57295.574219
1399.544922	57120.390625
1398.468750	57263.652344
1397.392578	56774.722656
1396.316406	56685.496094
1395.239258	57715.679688
1394.162109	57583.437500
1393.084961	57593.371094
1392.007813	57995.769531
1390.930664	57910.902344
1389.852539	58207.121094
1388.774414	58848.148438
1387.696289	59423.578125
1386.618164	59282.164063
1385.540039	60100.644531
1384.460938	60202.453125
1383.382813	60243.406250
1382.303711	61149.089844
1381.223633	60642.730469
1380.144531	61012.242188
1379.064453	61365.859375
1377.985352	60891.234375
1376.905273	61514.734375
1375.825195	60963.761719
1374.744141	60977.511719
1373.664063	61247.605469
1372.583008	60649.757813
1371.501953	60476.976563
1370.420898	60452.585938
1369.338867	60151.812500
1368.257813	59954.488281
1367.175781	59862.812500
1366.093750	59054.738281
1365.011719	59450.511719
1363.929688	59085.070313
1362.846680	59339.277344
1361.763672	58410.679688
1360.680664	58954.371094
1359.597656	58788.937500
1358.514648	58558.511719
1357.430664	58420.117188
1356.346680	58808.687500
1355.262695	58571.652344
1354.178711	57978.316406
1353.094727	57851.320313
1352.009766	57554.082031
1350.925781	57982.769531
1349.840820	57423.558594
1348.755859	57637.128906
1347.669922	58076.757813
1346.584961	57804.359375
1345.499023	57411.195313
1344.413086	57255.375000
1343.327148	57517.992188
1342.240234	57440.496094
1341.154297	57222.125000
1340.067383	57283.343750
1338.980469	57579.296875
1337.893555	57186.652344
1336.805664	57951.843750
1335.718750	57427.433594
1334.630859	57452.804688
1333.542969	57806.519531
1332.455078	57461.078125
1331.367188	57327.882813
1330.278320	57808.675781
1329.189453	57570.554688
1328.100586	57769.933594
1327.011719	57710.402344
1325.922852	57708.894531
1324.833008	57738.613281
1323.743164	58160.812500
1322.653320	58110.164063
1321.563477	58115.265625
1320.473633	57859.582031
1319.382813	58227.960938
1318.291992	58384.539063
1317.201172	58944.265625
1316.110352	58766.558594
1315.019531	58907.359375
1313.927734	58805.421875
1312.835938	58792.558594
1311.744141	59247.085938
1310.652344	59496.726563
1309.560547	59285.726563
1308.467773	59931.214844
1307.375000	59348.789063
1306.282227	60314.234375
1305.189453	60467.839844
1304.095703	60070.125000
1303.002930	60083.699219
1301.909180	60297.253906
1300.815430	60057.511719
1299.721680	60752.992188
1298.626953	60875.246094
1297.533203	60773.191406
1296.438477	61190.652344
1295.343750	60935.417969
1294.248047	61024.250000
1293.153320	61255.054688
1292.057617	61476.898438
1290.961914	61765.199219
1289.866211	62133.226563
1288.770508	61718.441406
1287.674805	61931.160156
1286.578125	62538.324219
1285.481445	62808.429688
1284.384766	62249.796875
1283.288086	62535.359375
1282.190430	62043.414063
1281.092773	62169.468750
1279.996094	62266.691406
1278.897461	62011.910156
1277.799805	61863.457031
1276.702148	61675.222656
1275.603516	62064.488281
1274.504883	61714.804688
1273.406250	61703.621094
1272.307617	62021.906250
1271.208008	61349.632813
1270.108398	61537.449219
1269.008789	61318.554688
1267.909180	60801.437500
1266.809570	60978.195313
1265.708984	60942.843750
1264.609375	60576.242188
1263.508789	61185.703125
1262.407227	60627.125000
1261.306641	60236.492188
1260.206055	60148.328125
1259.104492	60194.785156
1258.002930	59813.261719
1256.901367	59890.632813
1255.798828	59440.937500
1254.697266	59741.027344
1253.594727	59582.496094
1252.492188	59651.027344
1251.389648	59856.156250
1250.286133	58787.761719
1249.183594	58885.031250
1248.080078	58676.128906
1246.976563	58451.886719
1245.872070	58256.343750
1244.768555	58604.562500
1243.664063	58543.304688
1242.560547	58486.468750
1241.455078	57774.054688
1240.350586	57785.558594
1239.246094	57915.816406
1238.140625	57575.480469
1237.035156	57875.000000
1235.929688	57747.996094
1234.824219	57526.539063
1233.717773	57573.218750
1232.612305	57382.625000
1231.505859	56812.117188
1230.399414	57607.730469
1229.291992	57327.207031
1228.185547	57040.195313
1227.078125	57396.363281
1225.970703	57137.968750
1224.863281	56794.097656
1223.755859	56915.394531
1222.647461	56453.250000
1221.539063	56482.460938
1220.430664	57121.148438
1219.322266	56915.675781
1218.213867	56699.320313
1217.104492	57160.125000
1215.995117	56641.464844
1214.885742	56545.738281
1213.776367	56616.488281
1212.666992	56531.746094
1211.556641	56462.359375
1210.446289	56320.761719
1209.335938	56424.320313
1208.225586	56462.195313
1207.115234	55981.582031
1206.003906	55982.335938
1204.892578	56490.433594
1203.781250	56202.480469
1202.669922	56150.722656
1201.557617	55939.425781
1200.446289	56414.375000
1199.333984	56491.503906
1198.221680	56597.000000
1197.108398	56477.500000
1195.996094	56502.160156
1194.882813	57131.574219
1193.769531	57145.187500
1192.656250	56927.449219
1191.542969	57340.410156
1190.428711	57371.421875
1189.314453	56713.140625
1188.200195	57095.375000
1187.085938	56875.652344
1185.971680	57578.183594
1184.856445	57168.816406
1183.741211	57672.718750
1182.625977	57514.050781
1181.510742	57370.687500
1180.395508	57085.800781
1179.279297	57452.144531
1178.163086	57615.863281
1177.046875	57809.996094
1175.930664	58398.007813
1174.813477	57738.886719
1173.697266	57713.136719
1172.580078	57983.238281
1171.462891	57415.890625
1170.344727	57531.550781
