#Wave		#Intensity
2001.221680	39184.339844
2000.251953	39059.015625
1999.282227	38926.890625
1998.312500	39255.851563
1997.342773	39527.078125
1996.372070	38738.687500
1995.402344	39488.234375
1994.431641	38797.777344
1993.460938	39018.816406
1992.490234	39214.746094
1991.518555	39247.941406
1990.547852	38928.316406
1989.576172	39229.230469
1988.604492	39272.402344
1987.632813	39225.531250
1986.661133	39633.742188
1985.689453	39364.324219
1984.716797	39137.492188
1983.745117	39313.085938
1982.772461	39111.324219
1981.799805	39614.125000
1980.827148	39272.503906
1979.853516	39775.097656
1978.880859	39408.593750
1977.907227	39097.136719
1976.933594	39414.789063
1975.959961	39230.714844
1974.986328	39493.332031
1974.011719	39416.578125
1973.038086	39499.484375
1972.063477	39936.484375
1971.088867	39939.476563
1970.114258	39910.054688
1969.138672	39329.792969
1968.164063	39838.785156
1967.188477	38977.175781
1966.212891	39446.187500
1965.237305	39553.867188
1964.261719	39629.128906
1963.286133	39315.937500
1962.309570	39358.851563
1961.333984	39553.582031
1960.357422	39554.128906
1959.380859	39589.511719
1958.404297	39308.933594
1957.426758	39797.031250
1956.450195	39795.042969
1955.472656	39750.785156
1954.495117	40002.375000
1953.517578	40099.769531
1952.540039	39645.429688
1951.561523	39934.171875
1950.583008	39986.804688
1949.605469	39664.363281
1948.626953	39870.992188
1947.647461	39936.019531
1946.668945	40092.878906
1945.690430	39649.011719
1944.710938	39560.175781
1943.731445	40391.906250
1942.751953	39943.253906
1941.772461	39901.535156
1940.791992	40110.300781
1939.812500	40403.296875
1938.832031	39949.992188
1937.851563	39898.382813
1936.871094	40277.992188
1935.890625	40038.031250
1934.909180	40085.519531
1933.928711	40175.097656
1932.947266	39883.269531
1931.965820	40257.589844
1930.984375	40277.769531
1930.002930	40080.128906
1929.020508	39862.753906
1928.038086	40098.250000
1927.056641	39833.945313
1926.074219	40007.523438
1925.090820	40453.070313
1924.108398	39924.273438
1923.125000	40228.765625
1922.142578	40103.074219
1921.159180	40058.976563
1920.175781	40022.304688
1919.191406	40230.214844
1918.208008	40304.671875
1917.223633	40225.992188
1916.240234	40522.636719
1915.255859	40310.632813
1914.271484	40636.777344
1913.286133	39997.898438
1912.301758	39956.343750
1911.316406	40538.929688
1910.331055	40105.121094
1909.345703	40226.320313
1908.360352	40113.246094
1907.375000	40150.585938
1906.388672	40441.777344
1905.402344	40567.757813
1904.416016	40356.140625
1903.429688	40940.292969
1902.443359	40662.175781
1901.457031	40226.550781
1900.469727	40729.160156
1899.482422	40608.777344
1898.495117	40916.699219
1897.507813	40550.230469
1896.520508	40336.437500
1895.532227	40791.839844
1894.543945	40927.339844
1893.556641	40553.742188
1892.568359	40723.652344
1891.579102	41063.121094
1890.590820	41051.000000
1889.601563	40633.402344
1888.613281	40496.050781
1887.624023	41125.187500
1886.634766	40837.972656
1885.644531	41449.636719
1884.655273	41366.246094
1883.665039	41015.304688
1882.674805	41010.558594
1881.684570	41010.718750
1880.694336	41187.531250
1879.704102	41464.855469
1878.712891	41489.457031
1877.722656	41207.519531
1876.731445	41425.847656
1875.740234	41190.593750
1874.748047	41153.945313
1873.756836	41435.878906
1872.764648	40994.929688
1871.773438	41313.535156
1870.781250	41269.535156
1869.788086	41607.566406
1868.795898	41330.933594
1867.803711	41573.359375
1866.810547	41847.515625
1865.817383	41057.097656
1864.824219	41101.261719
1863.831055	41774.085938
1862.837891	41942.839844
1861.843750	41859.660156
1860.849609	41715.382813
1859.855469	41629.828125
1858.861328	41627.394531
1857.867188	41656.730469
1856.872070	41788.667969
1855.877930	41942.546875
1854.882813	41905.859375
1853.887695	41349.058594
1852.892578	41903.332031
1851.896484	41937.457031
1850.901367	42310.820313
1849.905273	41759.214844
1848.909180	41890.933594
1847.913086	41517.664063
1846.916992	41634.746094
1845.919922	41988.316406
1844.923828	41927.292969
1843.926758	41688.339844
1842.929688	42131.886719
1841.932617	42358.402344
1840.935547	42131.679688
1839.937500	42270.417969
1838.939453	42141.203125
1837.942383	42155.703125
1836.943359	42489.132813
1835.945313	42226.062500
1834.947266	42230.796875
1833.948242	42700.296875
1832.949219	42342.441406
1831.951172	42281.472656
1830.951172	42826.105469
1829.952148	42451.386719
1828.953125	42324.785156
1827.953125	42579.855469
1826.953125	42416.812500
1825.953125	42472.523438
1824.953125	43033.542969
1823.952148	42219.515625
1822.952148	42741.519531
1821.951172	42190.074219
1820.950195	42558.945313
1819.949219	42774.765625
1818.948242	43143.402344
1817.946289	42740.281250
1816.945313	42706.066406
1815.943359	42713.093750
1814.941406	42351.488281
1813.939453	42702.890625
1812.936523	43068.718750
1811.934570	43032.039063
1810.931641	42927.515625
1809.928711	43028.988281
1808.925781	43212.792969
1807.921875	43379.574219
1806.918945	43233.886719
1805.915039	42892.113281
1804.912109	43327.585938
1803.908203	43051.269531
1802.903320	43171.941406
1801.899414	43699.074219
1800.894531	43580.085938
1799.890625	43098.312500
1798.885742	44019.371094
1797.880859	43615.062500
1796.875000	43428.472656
1795.870117	43471.574219
1794.864258	43695.906250
1793.858398	43685.781250
1792.852539	43844.765625
1791.846680	44283.878906
1790.840820	43843.785156
1789.833984	44454.175781
1788.828125	43895.910156
1787.821289	43912.300781
1786.814453	44075.894531
1785.806641	44475.886719
1784.799805	43990.378906
1783.791992	44624.203125
1782.784180	44582.566406
1781.776367	44586.753906
1780.768555	44354.687500
1779.760742	44980.761719
1778.751953	44811.359375
1777.743164	44899.824219
1776.735352	45036.437500
1775.725586	44676.835938
1774.716797	44885.679688
1773.708008	45164.273438
1772.698242	45103.335938
1771.688477	45357.722656
1770.678711	45106.660156
1769.668945	44920.644531
1768.659180	45172.515625
1767.648438	45551.773438
1766.637695	45310.464844
1765.626953	45646.281250
1764.616211	45325.707031
1763.605469	45500.363281
1762.593750	45783.093750
1761.583008	45755.785156
1760.571289	45445.019531
1759.559570	46020.625000
1758.547852	46279.042969
1757.535156	46366.898438
1756.523438	46615.558594
1755.510742	46043.300781
1754.498047	45984.769531
1753.485352	46617.238281
1752.472656	46688.156250
1751.458984	46418.476563
1750.445313	46525.375000
1749.432617	46610.652344
1748.417969	46801.371094
1747.404297	47159.789063
1746.390625	47256.886719
1745.375977	47092.800781
1744.361328	47661.769531
1743.346680	47612.625000
1742.332031	47860.421875
1741.317383	47988.425781
1740.302734	48386.871094
1739.287109	48883.296875
1738.271484	48513.324219
1737.255859	49291.863281
1736.240234	49335.765625
1735.223633	50518.058594
1734.208008	49653.074219
1733.191406	50332.828125
1732.174805	50197.234375
1731.158203	51251.867188
1730.140625	51926.191406
1729.124023	51360.347656
1728.106445	51826.597656
1727.088867	52139.835938
1726.071289	53011.707031
1725.053711	52479.484375
1724.035156	53200.605469
1723.017578	53632.695313
1721.999023	53083.937500
1720.980469	53325.035156
1719.961914	53740.171875
1718.942383	53637.644531
1717.923828	54200.410156
1716.904297	54040.617188
1715.884766	54007.210938
1714.865234	54123.953125
1713.844727	53816.523438
1712.825195	54095.250000
1711.804688	53806.984375
1710.784180	54040.363281
1709.763672	53733.156250
1708.743164	53697.449219
1707.722656	53647.472656
1706.701172	53726.019531
1705.679688	53340.558594
1704.658203	53319.210938
1703.636719	53236.027344
1702.615234	52698.652344
1701.592773	52843.863281
1700.571289	52658.578125
1699.548828	52687.273438
1698.526367	52751.601563
1697.502930	52283.683594
1696.480469	52554.734375
1695.457031	52474.160156
1694.433594	52030.281250
1693.410156	52016.304688
1692.386719	52196.992188
1691.363281	52145.015625
1690.338867	51979.144531
1689.314453	52003.144531
1688.290039	51899.031250
1687.265625	52179.183594
1686.241211	52383.351563
1685.215820	52660.941406
1684.191406	52388.472656
1683.166016	52649.371094
1682.140625	51867.511719
1681.115234	52284.777344
1680.088867	52777.691406
1679.062500	52259.117188
1678.037109	52361.140625
1677.010742	52444.183594
1675.983398	52524.828125
1674.957031	53121.390625
1673.930664	52638.695313
1672.903320	53005.531250
1671.875977	53052.894531
1670.848633	52889.746094
1669.820313	52636.796875
1668.792969	53372.179688
1667.764648	53239.789063
1666.736328	53620.292969
1665.708008	53209.066406
1664.679688	53674.488281
1663.651367	53950.773438
1662.622070	53856.167969
1661.592773	53848.964844
1660.563477	53806.347656
1659.534180	54344.414063
1658.504883	54622.683594
1657.474609	54452.527344
1656.444336	54365.000000
1655.415039	54657.261719
1654.383789	54763.109375
1653.353516	54802.894531
1652.323242	54953.468750
1651.291992	55059.199219
1650.260742	55556.097656
1649.229492	55529.730469
1648.198242	55545.773438
1647.166016	55778.507813
1646.134766	56211.332031
1645.102539	56187.214844
1644.070313	56511.515625
1643.038086	56477.929688
1642.004883	56926.789063
1640.972656	56479.027344
1639.939453	57217.074219
1638.906250	57155.152344
1637.873047	57481.273438
1636.839844	57640.339844
1635.805664	57902.785156
1634.772461	58223.890625
1633.738281	59000.777344
1632.704102	59220.535156
1631.668945	59395.585938
1630.634766	59951.058594
1629.599609	60034.324219
1628.565430	60645.835938
1627.530273	60447.246094
1626.494141	60624.253906
1625.458984	61355.003906
1624.422852	62047.949219
1623.387695	62065.054688
1622.351563	62621.589844
1621.315430	63473.390625
1620.278320	63816.121094
1619.242188	65403.453125
1618.205078	66737.101563
1617.167969	68044.492188
1616.130859	70098.796875
1615.093750	71726.031250
1614.055664	73418.265625
1613.018555	75128.632813
1611.980469	76660.445313
1610.942383	77208.585938
1609.904297	77639.507813
1608.865234	77164.710938
1607.827148	76465.476563
1606.788086	75322.062500
1605.749023	72588.734375
1604.709961	71565.664063
1603.669922	69530.656250
1602.630859	68625.359375
1601.590820	66998.234375
1600.550781	66175.492188
1599.510742	65689.453125
1598.470703	64549.558594
1597.429688	64393.261719
1596.389648	62866.398438
1595.348633	63964.101563
1594.307617	62963.035156
1593.265625	62296.039063
1592.224609	62791.257813
1591.182617	62798.730469
1590.140625	62785.203125
1589.098633	62657.406250
1588.056641	62713.851563
1587.014648	63164.250000
1585.971680	63043.441406
1584.928711	63204.648438
1583.886719	63260.945313
1582.842773	63133.183594
1581.799805	63387.449219
1580.755859	63136.285156
1579.712891	62859.593750
1578.668945	62990.382813
1577.625000	62937.253906
1576.580078	63449.613281
1575.536133	63363.839844
1574.491211	63457.214844
1573.446289	63245.875000
1572.401367	63532.238281
1571.356445	64162.597656
1570.311523	63607.199219
1569.265625	64260.554688
1568.219727	64028.332031
1567.173828	64028.519531
1566.127930	63287.699219
1565.082031	63455.234375
1564.035156	62988.777344
1562.988281	62357.648438
1561.941406	62957.003906
1560.894531	63008.425781
1559.847656	62593.421875
1558.799805	62445.367188
1557.751953	62475.968750
1556.704102	62205.062500
1555.656250	62404.960938
1554.608398	62576.964844
1553.560547	62983.019531
1552.511719	62181.492188
1551.462891	62608.320313
1550.414063	62247.312500
1549.365234	62178.285156
1548.315430	62579.402344
1547.265625	62561.273438
1546.216797	62670.480469
1545.166992	62592.156250
1544.116211	62039.445313
1543.066406	62248.167969
1542.015625	62958.820313
1540.965820	62898.996094
1539.915039	62385.929688
1538.863281	62323.910156
1537.812500	61834.242188
1536.760742	62174.507813
1535.709961	61765.917969
1534.658203	61281.222656
1533.605469	61683.769531
1532.553711	61009.867188
1531.501953	60680.281250
1530.449219	60697.132813
1529.396484	60129.949219
1528.343750	59791.457031
1527.290039	59183.093750
1526.237305	58881.800781
1525.183594	59000.449219
1524.129883	59294.335938
1523.076172	58771.804688
1522.022461	58991.847656
1520.968750	58432.671875
1519.914063	58825.542969
1518.859375	58374.894531
1517.804688	58346.015625
1516.750000	58683.402344
1515.694336	58311.316406
1514.639648	58496.605469
1513.583984	57836.906250
1512.528320	58088.960938
1511.472656	57885.246094
1510.416016	57966.921875
1509.360352	57478.023438
1508.303711	57667.847656
1507.247070	57547.132813
1506.190430	57141.339844
1505.132813	57069.039063
1504.076172	56964.578125
1503.018555	56830.277344
1501.960938	57054.468750
1500.903320	57237.222656
1499.844727	57204.000000
1498.787109	57326.949219
1497.728516	57188.101563
1496.669922	56854.171875
1495.611328	56687.910156
1494.552734	57152.781250
1493.493164	56472.570313
1492.434570	56127.527344
1491.375000	56651.878906
1490.315430	56178.503906
1489.254883	56578.843750
1488.195313	56144.613281
1487.134766	56657.117188
1486.074219	56605.714844
1485.013672	56109.847656
1483.953125	55980.671875
1482.892578	55927.121094
1481.831055	56175.855469
1480.769531	56115.414063
1479.708008	55745.964844
1478.646484	56422.570313
1477.583984	55865.558594
1476.522461	55786.906250
1475.459961	55957.609375
1474.397461	55963.582031
1473.334961	55996.992188
1472.271484	55794.906250
1471.208984	55919.757813
1470.145508	55918.871094
1469.082031	56057.363281
1468.018555	56115.839844
1466.954102	55934.460938
1465.890625	56424.566406
1464.826172	56202.089844
1463.761719	56548.144531
1462.697266	56275.503906
1461.631836	56313.328125
1460.567383	56002.039063
1459.501953	56587.402344
1458.436523	56595.492188
1457.371094	56738.125000
1456.305664	56830.542969
1455.239258	56441.917969
1454.172852	56534.351563
1453.107422	56578.890625
1452.040039	56263.425781
1450.973633	56688.421875
1449.907227	56354.824219
1448.839844	56360.640625
1447.772461	56150.164063
1446.705078	56497.468750
1445.637695	56639.812500
1444.569336	57287.273438
1443.500977	57145.023438
1442.432617	57102.914063
1441.364258	57736.292969
1440.295898	57437.128906
1439.227539	57808.761719
1438.158203	58016.589844
1437.088867	57724.351563
1436.019531	57957.113281
1434.950195	58317.015625
1433.879883	58311.074219
1432.810547	58173.414063
1431.740234	58344.613281
1430.669922	58493.042969
1429.598633	58793.496094
1428.528320	58444.781250
1427.457031	58361.664063
1426.386719	58832.117188
1425.314453	58547.085938
1424.243164	58244.011719
1423.171875	57782.324219
1422.099609	58100.648438
1421.027344	58110.597656
1419.955078	57513.207031
1418.882813	57672.792969
1417.810547	57261.453125
1416.737305	57253.414063
1415.664063	57662.054688
1414.590820	57255.457031
1413.517578	57186.300781
1412.444336	57517.773438
1411.370117	57326.390625
1410.295898	57709.750000
1409.221680	57658.648438
1408.147461	57881.226563
1407.073242	57925.078125
1405.998047	57729.261719
1404.922852	57709.828125
1403.847656	57859.902344
1402.772461	57643.859375
1401.697266	57850.371094
1400.621094	57871.578125
1399.544922	58409.957031
1398.468750	58446.859375
1397.392578	58779.492188
1396.316406	58633.476563
1395.239258	59047.195313
1394.162109	58926.000000
1393.084961	59366.585938
1392.007813	59721.296875
1390.930664	59784.960938
1389.852539	59904.968750
1388.774414	60696.734375
1387.696289	61107.289063
1386.618164	61443.328125
1385.540039	61686.863281
1384.460938	62103.769531
1383.382813	62034.019531
1382.303711	62335.859375
1381.223633	62871.746094
1380.144531	63407.437500
1379.064453	62855.835938
1377.985352	63101.042969
1376.905273	63078.417969
1375.825195	63235.761719
1374.744141	62893.742188
1373.664063	62880.156250
1372.583008	62326.980469
1371.501953	62358.453125
1370.420898	61711.171875
1369.338867	61920.253906
1368.257813	61282.269531
1367.175781	61266.722656
1366.093750	59935.109375
1365.011719	60346.445313
1363.929688	59682.250000
1362.846680	59992.468750
1361.763672	59375.703125
1360.680664	59387.429688
1359.597656	59013.277344
1358.514648	59431.046875
1357.430664	58855.183594
1356.346680	58844.562500
1355.262695	58970.695313
1354.178711	58729.187500
1353.094727	57996.984375
1352.009766	58286.757813
1350.925781	58356.882813
1349.840820	57714.730469
1348.755859	57939.445313
1347.669922	57991.675781
1346.584961	57560.355469
1345.499023	58046.832031
1344.413086	57850.617188
1343.327148	57878.207031
1342.240234	57729.062500
1341.154297	57307.113281
1340.067383	57697.031250
1338.980469	57811.812500
1337.893555	57188.886719
1336.805664	57471.332031
1335.718750	57438.605469
1334.630859	57410.355469
1333.542969	57694.832031
1332.455078	57842.976563
1331.367188	57347.980469
1330.278320	57636.773438
1329.189453	58043.761719
1328.100586	57723.066406
1327.011719	57984.851563
1325.922852	58081.453125
1324.833008	57760.917969
1323.743164	57661.273438
1322.653320	57847.062500
1321.563477	58119.722656
1320.473633	57979.941406
1319.382813	58397.324219
1318.291992	58355.574219
1317.201172	58483.136719
1316.110352	58989.289063
1315.019531	58738.117188
1313.927734	58622.851563
1312.835938	58728.003906
1311.744141	59235.957031
1310.652344	59167.386719
1309.560547	59276.824219
1308.467773	59079.246094
1307.375000	59386.597656
1306.282227	59237.988281
1305.189453	59611.890625
1304.095703	59523.304688
1303.002930	59954.796875
1301.909180	60419.464844
1300.815430	59799.800781
1299.721680	59677.914063
1298.626953	60182.347656
1297.533203	60144.808594
1296.438477	60606.785156
1295.343750	60635.769531
1294.248047	60959.894531
1293.153320	60884.511719
1292.057617	61514.609375
1290.961914	61414.750000
1289.866211	61294.964844
1288.770508	61747.261719
1287.674805	61707.261719
1286.578125	61806.906250
1285.481445	61645.023438
1284.384766	62023.804688
1283.288086	62240.734375
1282.190430	61398.906250
1281.092773	61748.730469
1279.996094	61502.859375
1278.897461	61130.898438
1277.799805	61252.613281
1276.702148	60467.031250
1275.603516	60648.554688
1274.504883	61115.355469
1273.406250	60770.324219
1272.307617	60790.265625
1271.208008	60655.445313
1270.108398	60153.738281
1269.008789	59873.214844
1267.909180	60059.015625
1266.809570	59411.878906
1265.708984	59975.390625
1264.609375	59573.632813
1263.508789	58960.046875
1262.407227	58695.480469
1261.306641	58770.917969
1260.206055	59380.367188
1259.104492	58480.417969
1258.002930	58247.007813
1256.901367	58247.468750
1255.798828	58688.964844
1254.697266	58175.625000
1253.594727	58032.808594
1252.492188	58031.093750
1251.389648	57996.324219
1250.286133	58023.253906
1249.183594	58072.199219
1248.080078	57400.945313
1246.976563	57051.417969
1245.872070	57325.070313
1244.768555	56759.964844
1243.664063	56870.703125
1242.560547	57025.410156
1241.455078	56773.054688
1240.350586	56668.167969
1239.246094	56343.390625
1238.140625	56269.394531
1237.035156	56349.312500
1235.929688	56024.765625
1234.824219	55997.011719
1233.717773	55991.234375
1232.612305	56126.054688
1231.505859	56085.109375
1230.399414	56540.472656
1229.291992	55796.871094
1228.185547	56006.253906
1227.078125	55949.988281
1225.970703	55406.582031
1224.863281	55462.332031
1223.755859	55458.835938
1222.647461	55025.468750
1221.539063	55243.519531
1220.430664	55224.710938
1219.322266	55387.843750
1218.213867	55123.546875
1217.104492	55071.894531
1215.995117	55129.796875
1214.885742	54716.738281
1213.776367	54514.066406
1212.666992	54558.894531
1211.556641	54883.925781
1210.446289	54458.070313
1209.335938	54240.265625
1208.225586	54479.835938
1207.115234	54467.738281
1206.003906	54606.566406
1204.892578	54189.878906
1203.781250	54361.496094
1202.669922	55127.652344
1201.557617	54267.406250
1200.446289	55059.519531
1199.333984	54745.808594
1198.221680	54279.296875
1197.108398	54658.179688
1195.996094	54908.089844
1194.882813	55127.339844
1193.769531	55315.945313
1192.656250	55460.832031
1191.542969	55518.382813
1190.428711	55567.179688
1189.314453	55404.375000
1188.200195	55442.269531
1187.085938	55447.437500
1185.971680	55777.433594
1184.856445	55161.324219
1183.741211	56014.281250
1182.625977	56006.257813
1181.510742	56046.164063
1180.395508	55430.445313
1179.279297	56191.253906
1178.163086	56235.453125
1177.046875	56162.078125
1175.930664	56032.136719
1174.813477	55850.015625
1173.697266	56359.839844
1172.580078	55981.937500
1171.462891	55706.398438
1170.344727	55763.656250
