#Wave		#Intensity
2001.248047	37888.652344
2000.278320	38151.835938
1999.308594	38112.597656
1998.338867	38276.328125
1997.369141	38056.703125
1996.398438	38380.691406
1995.428711	38649.468750
1994.458008	37966.664063
1993.487305	38480.757813
1992.516602	38133.625000
1991.545898	37854.183594
1990.574219	38728.332031
1989.603516	38221.222656
1988.631836	38379.632813
1987.660156	38562.992188
1986.688477	38211.203125
1985.715820	38564.523438
1984.744141	38545.289063
1983.771484	38403.601563
1982.798828	38629.269531
1981.826172	38010.457031
1980.853516	38248.597656
1979.880859	38399.246094
1978.907227	38397.531250
1977.933594	38553.089844
1976.959961	38731.062500
1975.986328	38374.906250
1975.012695	38183.558594
1974.039063	38339.042969
1973.064453	38472.019531
1972.089844	38487.742188
1971.115234	38810.144531
1970.140625	38342.156250
1969.166016	37996.468750
1968.190430	38677.648438
1967.215820	38536.335938
1966.240234	38360.191406
1965.264648	38495.460938
1964.289063	38471.296875
1963.312500	38549.226563
1962.336914	38769.027344
1961.360352	38645.261719
1960.383789	38665.878906
1959.407227	38790.988281
1958.430664	38602.597656
1957.454102	39053.511719
1956.476563	38977.046875
1955.499023	38913.039063
1954.521484	39112.570313
1953.543945	38630.980469
1952.566406	38745.992188
1951.587891	38918.113281
1950.610352	39010.675781
1949.631836	38628.785156
1948.653320	38855.468750
1947.674805	39119.312500
1946.696289	38886.554688
1945.716797	38753.160156
1944.737305	39540.511719
1943.758789	39161.402344
1942.779297	39343.089844
1941.798828	38820.285156
1940.819336	39140.839844
1939.838867	38831.488281
1938.859375	39538.660156
1937.878906	39060.792969
1936.898438	39269.558594
1935.916992	39389.046875
1934.936523	38775.203125
1933.955078	39362.867188
1932.974609	39138.042969
1931.993164	38920.726563
1931.010742	39240.687500
1930.029297	39503.605469
1929.047852	39442.242188
1928.065430	39422.960938
1927.083008	39658.492188
1926.100586	39468.507813
1925.118164	39056.023438
1924.135742	39457.152344
1923.152344	39329.101563
1922.168945	39332.097656
1921.185547	39194.226563
1920.202148	39572.808594
1919.218750	39810.441406
1918.235352	39339.109375
1917.250977	39532.246094
1916.266602	39520.375000
1915.282227	39799.812500
1914.297852	39407.792969
1913.313477	39980.816406
1912.328125	39687.589844
1911.343750	39646.093750
1910.358398	39836.464844
1909.373047	39666.718750
1908.387695	39689.347656
1907.401367	40352.921875
1906.416016	40454.296875
1905.429688	39744.863281
1904.443359	39715.718750
1903.457031	39923.074219
1902.470703	39669.765625
1901.483398	39869.664063
1900.497070	39943.921875
1899.509766	40128.929688
1898.522461	40112.042969
1897.535156	40146.839844
1896.546875	39947.878906
1895.559570	40083.550781
1894.571289	40285.582031
1893.583008	40143.257813
1892.594727	40170.632813
1891.606445	40163.582031
1890.618164	40360.535156
1889.628906	39790.699219
1888.639648	40039.242188
1887.650391	40137.847656
1886.661133	39801.675781
1885.671875	40163.046875
1884.682617	40295.945313
1883.692383	40249.589844
1882.702148	40622.957031
1881.711914	39872.265625
1880.721680	40662.667969
1879.731445	40586.839844
1878.740234	40822.527344
1877.749023	40776.121094
1876.757813	40528.679688
1875.766602	40538.718750
1874.775391	40828.164063
1873.784180	40931.265625
1872.791992	40605.562500
1871.799805	40380.406250
1870.807617	40703.957031
1869.815430	40591.507813
1868.823242	40376.261719
1867.830078	40978.707031
1866.837891	41135.488281
1865.844727	40778.324219
1864.851563	40734.457031
1863.858398	40925.441406
1862.864258	40866.886719
1861.871094	40937.957031
1860.876953	41006.550781
1859.882813	41099.566406
1858.888672	40992.132813
1857.894531	41177.976563
1856.899414	40941.070313
1855.905273	41004.714844
1854.910156	41161.140625
1853.915039	41302.859375
1852.919922	41244.324219
1851.923828	41556.851563
1850.928711	41310.359375
1849.932617	41405.582031
1848.936523	41532.488281
1847.940430	41320.277344
1846.944336	41413.003906
1845.947266	41591.042969
1844.951172	41737.324219
1843.954102	41676.351563
1842.957031	41537.410156
1841.959961	41910.238281
1840.962891	41330.320313
1839.964844	41761.511719
1838.966797	41271.933594
1837.969727	41832.042969
1836.970703	41846.589844
1835.972656	41814.882813
1834.974609	41917.042969
1833.975586	42208.964844
1832.976563	41902.285156
1831.978516	41936.261719
1830.978516	41965.359375
1829.979492	41700.214844
1828.980469	41666.128906
1827.980469	41700.113281
1826.980469	42390.285156
1825.980469	42105.804688
1824.980469	42489.539063
1823.979492	42022.960938
1822.979492	42042.273438
1821.978516	42365.105469
1820.977539	41957.058594
1819.976563	42330.761719
1818.975586	42269.914063
1817.973633	42121.730469
1816.972656	42587.390625
1815.970703	42570.187500
1814.968750	42228.003906
1813.966797	42361.199219
1812.963867	42394.949219
1811.961914	42486.859375
1810.958984	43073.132813
1809.956055	42946.808594
1808.953125	43045.835938
1807.950195	42587.714844
1806.946289	42933.789063
1805.943359	43199.835938
1804.939453	42790.343750
1803.935547	42826.367188
1802.930664	43244.753906
1801.926758	42917.730469
1800.922852	43270.632813
1799.917969	42670.390625
1798.913086	43489.953125
1797.908203	43489.539063
1796.903320	43489.121094
1795.897461	43278.414063
1794.891602	42937.277344
1793.886719	43052.929688
1792.880859	43584.066406
1791.874023	43308.265625
1790.868164	43580.765625
1789.862305	43606.878906
1788.855469	43582.285156
1787.848633	43371.843750
1786.841797	43798.582031
1785.833984	43520.613281
1784.827148	43862.734375
1783.819336	44269.855469
1782.812500	43786.960938
1781.804688	44266.285156
1780.795898	43747.398438
1779.788086	44306.093750
1778.779297	44363.339844
1777.771484	44126.609375
1776.762695	44451.265625
1775.753906	44734.855469
1774.744141	44618.589844
1773.735352	44471.062500
1772.725586	44362.101563
1771.715820	44527.562500
1770.706055	44945.644531
1769.696289	44389.125000
1768.686523	44612.226563
1767.675781	44856.890625
1766.666016	44632.539063
1765.655273	45098.308594
1764.644531	45179.285156
1763.632813	45476.546875
1762.622070	44990.300781
1761.610352	45556.585938
1760.598633	45313.117188
1759.586914	45485.246094
1758.575195	45722.144531
1757.563477	45584.414063
1756.550781	45924.433594
1755.538086	45901.917969
1754.525391	46188.960938
1753.512695	46190.394531
1752.500000	46434.105469
1751.486328	46706.511719
1750.473633	45760.644531
1749.459961	46292.003906
1748.446289	45912.261719
1747.432617	46275.632813
1746.417969	46583.757813
1745.404297	46719.273438
1744.389648	45800.746094
1743.375000	46389.003906
1742.360352	46428.691406
1741.344727	46537.792969
1740.330078	46977.187500
1739.314453	47057.433594
1738.298828	47211.824219
1737.283203	46796.750000
1736.267578	47463.031250
1735.251953	47466.589844
1734.235352	47551.449219
1733.218750	48085.738281
1732.202148	47854.925781
1731.185547	48451.113281
1730.168945	48643.253906
1729.151367	48758.878906
1728.133789	49055.996094
1727.117188	49016.265625
1726.098633	49289.351563
1725.081055	49667.386719
1724.063477	49971.285156
1723.044922	50351.445313
1722.026367	50371.164063
1721.007813	50837.000000
1719.989258	50973.500000
1718.970703	50940.625000
1717.951172	51303.578125
1716.931641	51096.617188
1715.912109	50749.097656
1714.892578	51636.183594
1713.873047	51667.542969
1712.853516	52370.707031
1711.833008	51758.804688
1710.812500	52354.535156
1709.791992	52233.347656
1708.771484	51866.996094
1707.750000	52460.003906
1706.729492	52224.625000
1705.708008	52370.031250
1704.686523	52358.371094
1703.665039	52508.453125
1702.642578	52694.152344
1701.621094	52318.648438
1700.598633	52383.070313
1699.576172	52725.558594
1698.553711	52685.316406
1697.531250	52609.449219
1696.507813	52307.925781
1695.485352	52621.675781
1694.461914	52574.347656
1693.438477	52436.812500
1692.415039	53260.750000
1691.390625	53348.621094
1690.367188	52828.953125
1689.342773	52836.191406
1688.318359	53265.679688
1687.293945	53419.882813
1686.269531	53657.031250
1685.244141	54043.460938
1684.218750	53550.285156
1683.194336	53863.121094
1682.168945	54448.355469
1681.142578	54071.457031
1680.117188	54535.632813
1679.090820	54298.585938
1678.064453	54599.160156
1677.038086	54909.093750
1676.011719	54896.984375
1674.985352	54932.207031
1673.958008	55267.941406
1672.931641	55000.246094
1671.904297	55191.550781
1670.876953	55621.656250
1669.848633	55396.597656
1668.821289	55436.410156
1667.792969	55951.332031
1666.764648	55965.031250
1665.736328	55803.863281
1664.708008	55664.015625
1663.679688	55729.718750
1662.650391	56215.777344
1661.621094	55837.433594
1660.591797	56585.355469
1659.562500	56211.792969
1658.533203	56598.292969
1657.502930	55550.007813
1656.472656	55936.484375
1655.442383	55751.996094
1654.412109	56013.304688
1653.381836	56324.031250
1652.351563	55995.757813
1651.320313	55641.667969
1650.289063	56013.562500
1649.257813	55812.750000
1648.226563	56384.722656
1647.194336	55905.972656
1646.163086	55750.023438
1645.130859	56020.312500
1644.098633	56064.496094
1643.066406	55802.679688
1642.033203	56345.789063
1641.000977	56152.246094
1639.967773	55918.773438
1638.934570	55934.703125
1637.901367	55889.480469
1636.868164	56733.042969
1635.833984	56793.476563
1634.800781	56562.437500
1633.766602	56651.078125
1632.732422	56810.167969
1631.697266	56703.750000
1630.663086	56858.070313
1629.627930	56815.082031
1628.593750	56758.015625
1627.558594	57494.414063
1626.522461	57183.757813
1625.487305	57403.554688
1624.451172	58036.207031
1623.416016	58117.363281
1622.379883	58008.515625
1621.343750	58612.574219
1620.306641	59174.210938
1619.270508	60110.710938
1618.233398	60231.257813
1617.196289	61661.667969
1616.159180	62210.636719
1615.122070	63879.113281
1614.083984	64380.648438
1613.046875	65710.937500
1612.008789	66609.976563
1610.970703	67192.671875
1609.932617	67503.679688
1608.893555	67386.359375
1607.855469	66590.609375
1606.816406	66101.570313
1605.777344	64649.144531
1604.738281	63386.636719
1603.698242	62811.914063
1602.659180	61987.285156
1601.619141	61123.218750
1600.579102	60404.328125
1599.539063	60008.089844
1598.499023	59569.945313
1597.458008	58947.457031
1596.417969	58533.003906
1595.376953	58193.398438
1594.335938	58141.011719
1593.294922	57801.593750
1592.252930	57814.625000
1591.210938	57690.007813
1590.169922	57038.292969
1589.127930	57028.125000
1588.084961	57537.914063
1587.042969	56753.687500
1586.000000	57095.519531
1584.958008	57001.445313
1583.915039	57231.265625
1582.872070	57798.792969
1581.828125	57932.890625
1580.785156	58071.597656
1579.741211	58522.246094
1578.697266	58639.843750
1577.653320	58592.140625
1576.609375	59193.710938
1575.564453	59062.164063
1574.520508	59642.492188
1573.475586	59755.117188
1572.430664	59316.578125
1571.384766	59652.417969
1570.339844	58979.269531
1569.293945	59159.324219
1568.249023	58709.578125
1567.202148	58050.886719
1566.156250	57752.484375
1565.110352	57477.410156
1564.063477	56893.593750
1563.017578	56734.847656
1561.970703	56118.867188
1560.922852	55997.449219
1559.875977	56245.019531
1558.829102	56165.375000
1557.781250	55728.539063
1556.733398	55985.292969
1555.685547	55697.042969
1554.636719	55796.058594
1553.588867	55480.121094
1552.540039	55477.164063
1551.491211	55182.250000
1550.442383	55276.644531
1549.393555	55604.949219
1548.344727	55597.328125
1547.294922	55480.882813
1546.245117	55410.781250
1545.195313	55741.128906
1544.145508	55802.910156
1543.094727	55695.757813
1542.044922	55278.644531
1540.994141	55770.683594
1539.943359	55642.773438
1538.892578	55880.230469
1537.840820	56052.867188
1536.790039	55961.953125
1535.738281	55940.394531
1534.686523	56094.437500
1533.634766	55964.285156
1532.583008	56245.296875
1531.530273	56884.144531
1530.477539	56197.476563
1529.424805	56787.621094
1528.372070	56772.847656
1527.319336	56642.699219
1526.265625	56392.617188
1525.212891	56569.382813
1524.159180	56582.324219
1523.105469	56396.949219
1522.051758	56393.777344
1520.997070	56399.824219
1519.942383	56110.859375
1518.888672	56038.605469
1517.833984	56226.710938
1516.778320	56571.386719
1515.723633	55780.519531
1514.667969	56249.492188
1513.612305	55894.085938
1512.556641	55460.542969
1511.500977	56472.449219
1510.445313	55390.066406
1509.388672	55778.156250
1508.332031	55517.449219
1507.275391	55859.375000
1506.218750	55373.406250
1505.162109	55439.355469
1504.104492	55438.621094
1503.047852	55166.707031
1501.990234	55285.500000
1500.931641	55385.867188
1499.874023	55456.339844
1498.816406	55349.953125
1497.757813	55089.765625
1496.699219	55695.136719
1495.640625	55698.929688
1494.582031	55530.609375
1493.522461	55435.765625
1492.462891	55529.062500
1491.403320	55287.457031
1490.343750	55222.515625
1489.284180	55031.488281
1488.224609	55402.160156
1487.164063	55708.519531
1486.103516	55070.648438
1485.042969	54879.777344
1483.982422	55529.671875
1482.920898	55386.878906
1481.860352	55292.222656
1480.798828	55028.175781
1479.737305	55627.207031
1478.675781	55592.054688
1477.613281	55977.957031
1476.550781	55142.003906
1475.489258	55708.550781
1474.426758	55879.234375
1473.363281	55850.921875
1472.300781	55429.382813
1471.237305	55545.160156
1470.174805	55989.992188
1469.111328	55712.601563
1468.046875	55812.265625
1466.983398	55854.789063
1465.919922	56185.046875
1464.855469	56446.683594
1463.791016	56671.699219
1462.726563	56355.667969
1461.661133	56375.222656
1460.596680	56399.332031
1459.531250	56731.402344
1458.465820	57061.074219
1457.400391	56836.464844
1456.334961	56714.539063
1455.268555	57057.703125
1454.202148	57273.105469
1453.135742	57080.515625
1452.069336	57630.761719
1451.002930	57547.515625
1449.935547	57635.121094
1448.869141	57893.480469
1447.801758	57844.375000
1446.734375	58286.988281
1445.666016	58934.277344
1444.598633	58564.152344
1443.530273	58976.812500
1442.461914	58950.292969
1441.393555	59544.679688
1440.325195	60734.621094
1439.256836	60753.265625
1438.187500	61240.160156
1437.118164	61199.613281
1436.048828	61999.828125
1434.979492	61838.738281
1433.909180	62122.917969
1432.839844	62418.347656
1431.769531	62620.570313
1430.699219	62507.152344
1429.627930	63095.160156
1428.557617	62614.039063
1427.486328	62949.945313
1426.416016	62893.253906
1425.343750	62965.871094
1424.272461	63301.523438
1423.201172	63421.648438
1422.128906	63566.667969
1421.056641	63573.367188
1419.984375	63654.847656
1418.912109	63695.511719
1417.839844	64350.070313
1416.766602	64209.394531
1415.693359	63758.519531
1414.620117	63857.992188
1413.546875	63187.753906
1412.473633	63248.812500
1411.399414	62907.042969
1410.325195	62712.460938
1409.250977	63341.351563
1408.176758	63576.476563
1407.102539	63388.652344
1406.027344	64308.730469
1404.952148	64545.808594
1403.876953	65438.218750
1402.801758	65598.171875
1401.726563	65913.960938
1400.650391	65908.867188
1399.574219	66192.859375
1398.498047	66156.101563
1397.421875	65963.578125
1396.345703	65604.085938
1395.268555	65560.671875
1394.191406	64547.019531
1393.114258	64774.531250
1392.037109	64771.886719
1390.959961	64388.109375
1389.881836	64439.644531
1388.804688	64488.906250
1387.726563	64905.542969
1386.647461	65324.281250
1385.569336	65760.890625
1384.491211	66262.671875
1383.412109	66178.656250
1382.333008	66031.609375
1381.253906	66875.296875
1380.173828	66876.750000
1379.094727	67067.265625
1378.014648	66949.406250
1376.934570	66548.101563
1375.854492	66203.179688
1374.773438	66078.789063
1373.693359	65383.269531
1372.612305	65490.640625
1371.531250	65224.820313
1370.450195	64496.109375
1369.369141	63792.378906
1368.287109	64019.019531
1367.205078	63531.265625
1366.123047	63012.242188
1365.041016	63025.574219
1363.958984	62908.687500
1362.875977	62827.757813
1361.793945	62300.246094
1360.710938	62033.207031
1359.626953	62129.699219
1358.543945	61638.480469
1357.460938	61874.046875
1356.376953	61912.210938
1355.292969	61813.605469
1354.208984	61585.035156
1353.124023	61163.816406
1352.040039	61403.722656
1350.955078	61197.742188
1349.870117	60539.394531
1348.785156	60761.359375
1347.700195	60826.515625
1346.614258	60584.960938
1345.528320	60605.355469
1344.442383	60847.281250
1343.356445	60977.246094
1342.270508	61104.925781
1341.183594	61530.019531
1340.096680	61487.601563
1339.009766	61384.828125
1337.922852	61185.972656
1336.835938	61179.390625
1335.748047	62082.265625
1334.661133	61843.167969
1333.573242	61943.679688
1332.484375	61972.687500
1331.396484	62466.132813
1330.307617	61785.085938
1329.219727	62358.738281
1328.130859	62885.312500
1327.041992	62162.156250
1325.952148	63045.515625
1324.863281	62356.046875
1323.773438	62523.183594
1322.683594	63129.507813
1321.593750	62277.648438
1320.502930	62796.867188
1319.413086	62966.019531
1318.322266	62970.230469
1317.231445	62994.488281
1316.140625	62216.910156
1315.048828	62345.953125
1313.958008	62365.847656
1312.866211	62441.382813
1311.774414	62848.515625
1310.682617	62741.460938
1309.589844	63264.078125
1308.498047	63459.507813
1307.405273	63007.664063
1306.312500	64043.605469
1305.218750	65039.152344
1304.125977	65116.300781
1303.032227	65551.226563
1301.939453	66354.859375
1300.845703	67229.289063
1299.750977	68612.062500
1298.657227	69423.578125
1297.562500	71411.625000
1296.467773	72526.476563
1295.373047	72844.078125
1294.278320	73026.179688
1293.183594	72997.429688
1292.087891	72660.320313
1290.992188	71751.078125
1289.896484	70930.867188
1288.800781	70199.640625
1287.704102	69493.062500
1286.608398	68806.679688
1285.511719	67703.937500
1284.415039	67139.976563
1283.317383	66997.117188
1282.220703	66389.195313
1281.123047	66173.445313
1280.025391	65517.175781
1278.927734	65058.152344
1277.830078	64809.550781
1276.731445	64530.140625
1275.633789	64250.980469
1274.535156	63971.574219
1273.436523	63692.164063
1272.336914	63645.238281
1271.238281	62716.218750
1270.138672	62589.906250
1269.039063	62792.929688
1267.939453	62613.617188
1266.839844	62482.968750
1265.739258	61930.480469
1264.638672	61945.753906
1263.538086	62206.105469
1262.437500	61481.765625
1261.336914	61492.687500
1260.235352	61620.562500
1259.134766	61406.398438
1258.033203	61651.156250
1256.930664	61262.816406
1255.829102	60742.300781
1254.726563	60848.132813
1253.625000	61434.488281
1252.522461	60764.343750
1251.418945	60693.820313
1250.316406	60931.769531
1249.212891	60640.957031
1248.110352	60557.269531
1247.006836	60352.503906
1245.902344	60244.679688
1244.798828	60346.003906
1243.694336	59820.062500
1242.589844	59762.996094
1241.485352	59657.542969
1240.380859	59791.886719
1239.276367	59539.117188
1238.170898	59875.718750
1237.065430	60434.234375
1235.959961	59759.460938
1234.854492	59935.402344
1233.748047	60629.824219
1232.642578	60243.156250
1231.536133	60212.445313
1230.429688	60122.453125
1229.322266	60882.191406
1228.215820	61189.433594
1227.108398	61035.656250
1226.000977	61437.117188
1224.893555	61790.160156
1223.786133	62138.683594
1222.677734	62155.906250
1221.569336	62030.582031
1220.460938	62367.902344
1219.352539	61793.218750
1218.244141	61852.117188
1217.134766	61700.636719
1216.025391	61200.863281
1214.916016	60775.746094
1213.806641	60830.394531
1212.697266	60725.179688
1211.586914	60937.441406
1210.476563	60963.570313
1209.366211	60503.855469
1208.255859	60805.742188
1207.145508	61275.964844
1206.034180	61133.582031
1204.922852	61000.000000
1203.811523	60676.242188
1202.700195	60986.554688
1201.587891	61534.988281
1200.476563	61447.308594
1199.364258	61263.523438
1198.251953	62202.617188
1197.138672	62293.949219
1196.026367	62383.062500
1194.913086	62310.578125
1193.799805	62275.222656
1192.686523	62702.566406
1191.573242	62691.152344
1190.458984	62708.105469
1189.344727	62437.113281
1188.230469	62855.382813
1187.116211	61760.234375
1186.001953	61687.949219
1184.886719	62114.832031
1183.772461	61493.320313
1182.657227	61676.042969
1181.541016	61401.210938
1180.425781	61117.765625
1179.309570	60690.687500
1178.193359	60842.933594
1177.077148	60690.351563
1175.960938	60711.941406
1174.844727	60400.574219
1173.727539	60581.035156
1172.610352	60074.019531
1171.493164	60017.398438
1170.375977	59645.488281
