#Wave		#Intensity
2001.248047	39748.496094
2000.278320	39392.566406
1999.308594	39967.105469
1998.338867	39842.363281
1997.369141	40063.378906
1996.398438	40041.359375
1995.428711	39844.035156
1994.458008	39924.714844
1993.487305	39790.070313
1992.516602	39995.878906
1991.545898	39956.359375
1990.574219	40399.769531
1989.603516	40225.097656
1988.631836	39952.937500
1987.660156	39933.457031
1986.688477	39703.945313
1985.715820	40352.000000
1984.744141	39975.019531
1983.771484	40090.492188
1982.798828	40048.507813
1981.826172	40146.433594
1980.853516	40601.511719
1979.880859	40252.281250
1978.907227	40087.941406
1977.933594	40745.000000
1976.959961	40682.964844
1975.986328	40254.097656
1975.012695	40102.343750
1974.039063	40674.109375
1973.064453	40572.218750
1972.089844	40081.316406
1971.115234	40246.355469
1970.140625	40451.226563
1969.166016	40376.855469
1968.190430	40531.781250
1967.215820	40816.222656
1966.240234	40804.101563
1965.264648	40640.046875
1964.289063	40710.140625
1963.312500	40576.035156
1962.336914	40768.101563
1961.360352	40885.421875
1960.383789	40952.929688
1959.407227	40769.105469
1958.430664	41060.503906
1957.454102	40976.214844
1956.476563	40882.007813
1955.499023	40733.125000
1954.521484	40753.343750
1953.543945	40962.460938
1952.566406	40532.816406
1951.587891	40692.203125
1950.610352	40926.054688
1949.631836	40894.054688
1948.653320	41038.386719
1947.674805	41165.285156
1946.696289	40815.488281
1945.716797	41071.449219
1944.737305	40684.562500
1943.758789	40970.226563
1942.779297	41079.652344
1941.798828	41298.175781
1940.819336	40415.527344
1939.838867	41184.535156
1938.859375	41145.093750
1937.878906	41123.019531
1936.898438	41066.253906
1935.916992	41011.984375
1934.936523	41356.582031
1933.955078	41104.125000
1932.974609	41106.832031
1931.993164	41042.683594
1931.010742	41292.957031
1930.029297	40808.015625
1929.047852	41357.683594
1928.065430	40959.496094
1927.083008	41565.839844
1926.100586	41197.437500
1925.118164	41432.570313
1924.135742	41412.949219
1923.152344	41348.832031
1922.168945	41475.058594
1921.185547	41549.339844
1920.202148	41094.835938
1919.218750	41159.277344
1918.235352	40998.925781
1917.250977	41246.097656
1916.266602	41108.007813
1915.282227	41868.554688
1914.297852	41133.085938
1913.313477	41537.996094
1912.328125	41641.746094
1911.343750	41252.070313
1910.358398	41195.503906
1909.373047	41728.351563
1908.387695	41380.773438
1907.401367	41215.746094
1906.416016	41533.867188
1905.429688	41718.800781
1904.443359	41430.597656
1903.457031	41647.503906
1902.470703	41502.269531
1901.483398	41655.058594
1900.497070	41797.941406
1899.509766	41815.226563
1898.522461	41785.738281
1897.535156	41684.890625
1896.546875	41709.562500
1895.559570	41611.222656
1894.571289	41567.027344
1893.583008	41840.074219
1892.594727	41707.335938
1891.606445	41872.097656
1890.618164	41569.804688
1889.628906	42017.132813
1888.639648	42012.210938
1887.650391	41668.289063
1886.661133	41823.078125
1885.671875	41771.531250
1884.682617	41901.691406
1883.692383	42053.898438
1882.702148	41923.792969
1881.711914	41783.917969
1880.721680	41624.460938
1879.731445	41896.804688
1878.740234	42492.808594
1877.749023	41681.003906
1876.757813	42593.117188
1875.766602	41771.769531
1874.775391	42068.351563
1873.784180	41901.675781
1872.791992	42548.492188
1871.799805	42006.988281
1870.807617	41713.046875
1869.815430	42293.433594
1868.823242	41894.257813
1867.830078	42141.484375
1866.837891	42307.851563
1865.844727	42163.378906
1864.851563	41957.789063
1863.858398	42124.097656
1862.864258	42246.320313
1861.871094	42351.378906
1860.876953	42199.683594
1859.882813	42260.710938
1858.888672	42140.851563
1857.894531	42717.476563
1856.899414	42385.015625
1855.905273	42316.492188
1854.910156	42265.089844
1853.915039	42689.878906
1852.919922	42479.726563
1851.923828	42909.207031
1850.928711	42440.378906
1849.932617	42347.507813
1848.936523	42640.152344
1847.940430	43013.191406
1846.944336	43103.179688
1845.947266	42944.410156
1844.951172	42727.179688
1843.954102	42931.738281
1842.957031	42446.488281
1841.959961	42875.203125
1840.962891	42982.167969
1839.964844	43086.656250
1838.966797	43264.171875
1837.969727	43570.679688
1836.970703	43550.839844
1835.972656	43253.500000
1834.974609	42875.953125
1833.975586	43316.140625
1832.976563	43602.898438
1831.978516	43590.359375
1830.978516	43290.835938
1829.979492	43497.199219
1828.980469	43756.972656
1827.980469	43839.207031
1826.980469	43741.562500
1825.980469	43520.023438
1824.980469	43378.738281
1823.979492	43779.179688
1822.979492	43744.753906
1821.978516	43805.039063
1820.977539	43860.445313
1819.976563	44160.996094
1818.975586	44007.597656
1817.973633	44174.554688
1816.972656	43773.746094
1815.970703	43986.765625
1814.968750	43758.320313
1813.966797	44315.585938
1812.963867	43917.453125
1811.961914	44421.164063
1810.958984	43596.613281
1809.956055	44771.394531
1808.953125	44152.992188
1807.950195	44317.187500
1806.946289	44500.699219
1805.943359	44146.597656
1804.939453	44371.222656
1803.935547	44649.023438
1802.930664	44665.351563
1801.926758	44497.777344
1800.922852	44649.601563
1799.917969	44835.234375
1798.913086	44749.937500
1797.908203	45143.425781
1796.903320	44473.058594
1795.897461	44917.214844
1794.891602	45071.210938
1793.886719	45058.425781
1792.880859	45035.984375
1791.874023	44991.808594
1790.868164	44679.582031
1789.862305	45391.234375
1788.855469	45122.500000
1787.848633	45479.007813
1786.841797	45878.824219
1785.833984	45547.406250
1784.827148	45908.468750
1783.819336	46054.734375
1782.812500	46029.726563
1781.804688	45995.078125
1780.795898	45487.941406
1779.788086	46101.765625
1778.779297	46153.875000
1777.771484	46309.570313
1776.762695	46185.757813
1775.753906	46175.195313
1774.744141	46463.246094
1773.735352	46115.550781
1772.725586	46230.179688
1771.715820	46614.339844
1770.706055	46442.468750
1769.696289	46722.988281
1768.686523	46818.179688
1767.675781	46985.488281
1766.666016	46729.496094
1765.655273	47163.640625
1764.644531	47176.945313
1763.632813	46817.699219
1762.622070	47595.230469
1761.610352	47445.066406
1760.598633	47287.742188
1759.586914	48028.750000
1758.575195	47583.210938
1757.563477	47913.335938
1756.550781	47988.886719
1755.538086	48366.820313
1754.525391	48353.468750
1753.512695	48368.914063
1752.500000	48463.515625
1751.486328	48327.832031
1750.473633	48163.417969
1749.459961	48787.859375
1748.446289	48911.074219
1747.432617	49082.179688
1746.417969	48402.539063
1745.404297	49313.988281
1744.389648	48687.246094
1743.375000	49442.644531
1742.360352	49215.992188
1741.344727	49350.937500
1740.330078	49258.425781
1739.314453	49467.503906
1738.298828	49322.359375
1737.283203	49595.945313
1736.267578	49905.312500
1735.251953	50181.085938
1734.235352	50260.679688
1733.218750	50359.371094
1732.202148	50979.121094
1731.185547	50898.402344
1730.168945	51016.039063
1729.151367	51231.582031
1728.133789	52139.761719
1727.117188	51571.683594
1726.098633	52742.136719
1725.081055	53193.570313
1724.063477	53215.183594
1723.044922	53110.300781
1722.026367	53420.636719
1721.007813	54019.531250
1719.989258	54007.582031
1718.970703	54224.578125
1717.951172	54851.621094
1716.931641	55209.046875
1715.912109	55604.480469
1714.892578	55091.781250
1713.873047	55765.871094
1712.853516	55372.437500
1711.833008	55767.554688
1710.812500	55881.511719
1709.791992	56009.710938
1708.771484	55909.324219
1707.750000	56573.019531
1706.729492	56310.734375
1705.708008	55620.257813
1704.686523	55981.515625
1703.665039	55819.371094
1702.642578	55512.210938
1701.621094	55621.257813
1700.598633	55692.226563
1699.576172	55166.578125
1698.553711	55510.886719
1697.531250	55401.253906
1696.507813	55270.277344
1695.485352	55497.992188
1694.461914	55207.933594
1693.438477	55314.484375
1692.415039	55074.410156
1691.390625	55470.507813
1690.367188	55211.500000
1689.342773	55389.144531
1688.318359	55481.324219
1687.293945	55561.613281
1686.269531	55347.820313
1685.244141	55366.453125
1684.218750	55368.484375
1683.194336	55206.972656
1682.168945	55927.042969
1681.142578	55526.191406
1680.117188	55073.363281
1679.090820	55357.273438
1678.064453	55650.554688
1677.038086	55820.617188
1676.011719	55727.859375
1674.985352	55862.339844
1673.958008	55490.375000
1672.931641	55513.648438
1671.904297	56248.921875
1670.876953	56016.621094
1669.848633	56505.617188
1668.821289	56571.238281
1667.792969	56234.988281
1666.764648	56369.171875
1665.736328	56640.355469
1664.708008	56526.343750
1663.679688	56256.472656
1662.650391	56581.843750
1661.621094	56583.601563
1660.591797	56559.386719
1659.562500	57252.753906
1658.533203	56975.898438
1657.502930	57126.230469
1656.472656	57316.613281
1655.442383	57492.773438
1654.412109	57383.507813
1653.381836	57604.390625
1652.351563	57719.101563
1651.320313	57697.058594
1650.289063	57724.511719
1649.257813	58044.128906
1648.226563	57965.492188
1647.194336	58289.660156
1646.163086	57909.562500
1645.130859	58485.562500
1644.098633	58501.062500
1643.066406	58309.421875
1642.033203	59129.781250
1641.000977	58813.390625
1639.967773	58878.210938
1638.934570	59107.652344
1637.901367	58725.582031
1636.868164	59133.656250
1635.833984	59386.433594
1634.800781	59204.289063
1633.766602	59741.308594
1632.732422	59533.316406
1631.697266	59802.273438
1630.663086	59963.093750
1629.627930	59900.761719
1628.593750	60108.460938
1627.558594	60273.828125
1626.522461	60427.394531
1625.487305	60965.757813
1624.451172	61435.882813
1623.416016	61338.156250
1622.379883	61784.589844
1621.343750	62193.343750
1620.306641	62686.355469
1619.270508	63502.675781
1618.233398	64215.582031
1617.196289	65385.175781
1616.159180	66760.523438
1615.122070	68411.789063
1614.083984	69645.578125
1613.046875	70661.156250
1612.008789	72116.515625
1610.970703	72393.937500
1609.932617	73059.750000
1608.893555	72637.250000
1607.855469	71875.656250
1606.816406	70716.679688
1605.777344	69434.156250
1604.738281	68411.640625
1603.698242	66942.953125
1602.659180	66056.812500
1601.619141	65449.097656
1600.579102	64304.167969
1599.539063	63923.589844
1598.499023	63358.613281
1597.458008	62431.851563
1596.417969	62395.042969
1595.376953	61942.691406
1594.335938	62060.027344
1593.294922	61579.890625
1592.252930	61412.582031
1591.210938	61159.011719
1590.169922	61577.285156
1589.127930	61258.476563
1588.084961	61196.257813
1587.042969	61467.425781
1586.000000	61209.398438
1584.958008	61151.875000
1583.915039	61611.628906
1582.872070	60866.828125
1581.828125	60404.117188
1580.785156	60898.679688
1579.741211	61164.886719
1578.697266	61414.699219
1577.653320	60935.921875
1576.609375	61406.753906
1575.564453	61377.183594
1574.520508	62229.269531
1573.475586	61878.597656
1572.430664	62137.304688
1571.384766	62963.214844
1570.339844	62656.753906
1569.293945	62787.347656
1568.249023	62174.289063
1567.202148	62114.402344
1566.156250	61462.191406
1565.110352	61302.578125
1564.063477	60845.792969
1563.017578	60728.132813
1561.970703	60327.320313
1560.922852	60592.730469
1559.875977	60203.679688
1558.829102	60202.210938
1557.781250	60214.656250
1556.733398	59605.550781
1555.685547	60543.285156
1554.636719	60254.269531
1553.588867	60345.500000
1552.540039	59917.562500
1551.491211	60435.164063
1550.442383	59988.828125
1549.393555	60325.554688
1548.344727	60330.988281
1547.294922	60375.781250
1546.245117	59536.203125
1545.195313	59803.320313
1544.145508	59727.835938
1543.094727	59957.800781
1542.044922	59817.535156
1540.994141	59531.597656
1539.943359	59157.882813
1538.892578	58772.738281
1537.840820	59166.789063
1536.790039	59599.988281
1535.738281	58789.753906
1534.686523	58222.414063
1533.634766	59002.054688
1532.583008	58099.968750
1531.530273	58366.691406
1530.477539	58367.796875
1529.424805	58343.507813
1528.372070	58065.343750
1527.319336	57884.195313
1526.265625	57903.835938
1525.212891	57985.750000
1524.159180	57871.589844
1523.105469	57637.558594
1522.051758	57721.773438
1520.997070	57822.093750
1519.942383	57558.230469
1518.888672	57833.664063
1517.833984	57747.289063
1516.778320	57990.335938
1515.723633	57814.136719
1514.667969	57859.054688
1513.612305	57517.175781
1512.556641	57854.457031
1511.500977	57565.628906
1510.445313	57847.554688
1509.388672	57616.339844
1508.332031	57518.617188
1507.275391	57873.984375
1506.218750	57346.261719
1505.162109	57441.746094
1504.104492	57341.816406
1503.047852	57133.910156
1501.990234	57112.187500
1500.931641	57230.609375
1499.874023	56719.636719
1498.816406	57111.359375
1497.757813	56561.550781
1496.699219	56879.699219
1495.640625	56309.468750
1494.582031	56636.722656
1493.522461	55878.589844
1492.462891	56669.191406
1491.403320	56489.308594
1490.343750	56238.402344
1489.284180	56329.203125
1488.224609	56415.390625
1487.164063	56176.082031
1486.103516	55962.066406
1485.042969	56320.906250
1483.982422	56173.367188
1482.920898	56227.425781
1481.860352	56313.523438
1480.798828	56225.582031
1479.737305	56114.781250
1478.675781	56173.382813
1477.613281	56037.453125
1476.550781	56096.039063
1475.489258	56552.621094
1474.426758	56354.941406
1473.363281	56328.824219
1472.300781	56023.800781
1471.237305	56066.324219
1470.174805	56531.628906
1469.111328	56450.652344
1468.046875	56280.605469
1466.983398	56581.156250
1465.919922	56029.753906
1464.855469	57010.671875
1463.791016	56521.023438
1462.726563	57111.187500
1461.661133	56651.359375
1460.596680	57138.605469
1459.531250	57178.539063
1458.465820	57170.554688
1457.400391	57153.453125
1456.334961	56963.066406
1455.268555	57354.058594
1454.202148	57662.859375
1453.135742	57483.871094
1452.069336	57373.296875
1451.002930	57681.917969
1449.935547	57598.675781
1448.869141	57879.816406
1447.801758	57748.750000
1446.734375	58050.246094
1445.666016	57502.687500
1444.598633	58058.976563
1443.530273	58050.820313
1442.461914	57796.992188
1441.393555	58434.796875
1440.325195	58722.187500
1439.256836	59002.644531
1438.187500	59030.687500
1437.118164	59258.714844
1436.048828	59425.304688
1434.979492	59923.531250
1433.909180	60255.753906
1432.839844	60590.128906
1431.769531	60799.492188
1430.699219	60245.972656
1429.627930	60537.031250
1428.557617	60587.425781
1427.486328	60819.316406
1426.416016	60971.722656
1425.343750	60640.941406
1424.272461	60455.414063
1423.201172	60845.875000
1422.128906	60329.390625
1421.056641	60112.281250
1419.984375	59999.492188
1418.912109	59839.160156
1417.839844	59622.246094
1416.766602	59724.769531
1415.693359	59360.753906
1414.620117	59567.433594
1413.546875	59472.957031
1412.473633	59539.210938
1411.399414	59643.906250
1410.325195	59592.449219
1409.250977	59513.859375
1408.176758	59681.824219
1407.102539	59965.050781
1406.027344	60392.871094
1404.952148	60237.328125
1403.876953	60090.882813
1402.801758	60138.816406
1401.726563	60597.914063
1400.650391	60424.367188
1399.574219	60704.828125
1398.498047	60443.253906
1397.421875	61028.386719
1396.345703	61109.945313
1395.268555	60661.113281
1394.191406	61451.218750
1393.114258	61006.996094
1392.037109	61442.617188
1390.959961	61618.730469
1389.881836	62518.566406
1388.804688	62347.242188
1387.726563	62683.121094
1386.647461	62750.703125
1385.569336	63153.976563
1384.491211	63539.085938
1383.412109	63230.324219
1382.333008	63867.488281
1381.253906	64373.835938
1380.173828	64459.031250
1379.094727	64634.222656
1378.014648	64089.246094
1376.934570	64142.941406
1375.854492	64050.394531
1374.773438	64245.765625
1373.693359	63842.906250
1372.612305	63390.730469
1371.531250	63417.515625
1370.450195	62662.160156
1369.369141	62154.257813
1368.287109	62286.835938
1367.205078	62118.363281
1366.123047	61217.796875
1365.041016	61040.589844
1363.958984	61135.093750
1362.875977	60877.156250
1361.793945	60493.628906
1360.710938	60321.156250
1359.626953	60247.457031
1358.543945	60034.714844
1357.460938	59611.238281
1356.376953	59522.003906
1355.292969	58903.730469
1354.208984	58769.820313
1353.124023	58497.015625
1352.040039	58354.261719
1350.955078	58576.710938
1349.870117	58727.398438
1348.785156	58530.929688
1347.700195	58392.738281
1346.614258	58245.644531
1345.528320	58056.074219
1344.442383	57653.980469
1343.356445	58220.808594
1342.270508	58183.453125
1341.183594	57680.898438
1340.096680	57842.667969
1339.009766	57845.632813
1337.922852	58025.187500
1336.835938	57853.792969
1335.748047	58162.878906
1334.661133	57683.203125
1333.573242	57442.707031
1332.484375	57954.925781
1331.396484	57488.937500
1330.307617	57567.851563
1329.219727	57403.429688
1328.130859	58122.828125
1327.041992	57451.855469
1325.952148	57633.328125
1324.863281	57486.851563
1323.773438	57933.628906
1322.683594	57180.667969
1321.593750	58059.820313
1320.502930	57980.226563
1319.413086	58027.683594
1318.322266	57798.839844
1317.231445	57852.988281
1316.140625	57895.980469
1315.048828	57809.796875
1313.958008	57650.167969
1312.866211	57791.113281
1311.774414	57831.851563
1310.682617	58117.351563
1309.589844	58253.679688
1308.498047	58483.382813
1307.405273	58194.792969
1306.312500	58030.832031
1305.218750	58662.855469
1304.125977	58421.062500
1303.032227	58501.609375
1301.939453	58555.460938
1300.845703	59000.304688
1299.750977	59069.589844
1298.657227	59287.644531
1297.562500	59365.730469
1296.467773	59430.464844
1295.373047	59368.652344
1294.278320	60121.324219
1293.183594	60276.851563
1292.087891	60416.789063
1290.992188	60326.000000
1289.896484	60195.324219
1288.800781	60381.757813
1287.704102	60235.593750
1286.608398	60051.804688
1285.511719	60479.699219
1284.415039	59826.214844
1283.317383	60012.531250
1282.220703	60196.562500
1281.123047	59598.835938
1280.025391	59388.777344
1278.927734	59404.578125
1277.830078	59221.183594
1276.731445	59059.980469
1275.633789	58867.859375
1274.535156	58388.246094
1273.436523	58472.761719
1272.336914	58030.976563
1271.238281	57852.437500
1270.138672	58003.312500
1269.039063	58182.855469
1267.939453	57182.402344
1266.839844	57185.292969
1265.739258	57643.191406
1264.638672	56846.546875
1263.538086	56811.949219
1262.437500	56644.906250
1261.336914	56738.371094
1260.235352	56096.937500
1259.134766	56296.371094
1258.033203	55754.511719
1256.930664	56128.171875
1255.829102	55163.136719
1254.726563	55558.812500
1253.625000	55385.609375
1252.522461	55230.093750
1251.418945	55427.210938
1250.316406	55331.226563
1249.212891	54766.082031
1248.110352	54751.738281
1247.006836	54942.183594
1245.902344	55194.199219
1244.798828	54477.593750
1243.694336	54892.460938
1242.589844	54794.480469
1241.485352	54223.531250
1240.380859	54286.273438
1239.276367	54531.523438
1238.170898	54062.074219
1237.065430	54344.644531
1235.959961	53495.136719
1234.854492	53924.941406
1233.748047	54196.390625
1232.642578	53696.660156
1231.536133	53921.921875
1230.429688	53850.636719
1229.322266	54216.304688
1228.215820	53624.722656
1227.108398	53900.304688
1226.000977	53916.847656
1224.893555	53419.976563
1223.786133	53388.332031
1222.677734	53755.867188
1221.569336	53741.710938
1220.460938	53957.761719
1219.352539	53735.328125
1218.244141	53436.265625
1217.134766	53516.394531
1216.025391	53456.277344
1214.916016	53599.886719
1213.806641	53027.304688
1212.697266	53571.640625
1211.586914	53540.007813
1210.476563	53554.347656
1209.366211	53564.304688
1208.255859	53173.843750
1207.145508	53761.398438
1206.034180	53904.730469
1204.922852	53943.035156
1203.811523	53795.476563
1202.700195	54008.667969
1201.587891	53542.039063
1200.476563	54218.468750
1199.364258	54226.082031
1198.251953	54082.964844
1197.138672	54132.093750
1196.026367	54908.363281
1194.913086	55027.183594
1193.799805	55128.492188
1192.686523	55149.015625
1191.573242	55082.242188
1190.458984	55148.574219
1189.344727	55275.953125
1188.230469	55032.535156
1187.116211	54837.175781
1186.001953	54870.792969
1184.886719	54963.246094
1183.772461	54807.226563
1182.657227	55084.859375
1181.541016	54989.867188
1180.425781	55003.808594
1179.309570	54688.910156
1178.193359	54789.992188
1177.077148	54477.421875
1175.960938	54319.492188
1174.844727	54588.140625
1173.727539	55002.460938
1172.610352	54076.625000
1171.493164	54247.292969
1170.375977	54452.683594
