#Wave		#Intensity
2001.221680	38678.023438
2000.251953	38206.800781
1999.282227	38470.785156
1998.312500	38183.437500
1997.342773	38149.214844
1996.372070	38200.164063
1995.402344	38173.460938
1994.431641	38399.656250
1993.460938	38705.882813
1992.490234	38293.636719
1991.518555	38369.535156
1990.547852	38845.746094
1989.576172	38466.207031
1988.604492	38504.511719
1987.632813	38225.199219
1986.661133	38358.542969
1985.689453	38864.332031
1984.716797	38477.617188
1983.745117	38363.433594
1982.772461	38341.742188
1981.799805	38160.167969
1980.827148	38031.109375
1979.853516	38174.304688
1978.880859	38137.667969
1977.907227	37918.804688
1976.933594	38239.160156
1975.959961	38684.179688
1974.986328	38487.785156
1974.011719	38600.804688
1973.038086	38404.492188
1972.063477	38135.925781
1971.088867	38458.390625
1970.114258	38471.609375
1969.138672	38504.765625
1968.164063	38201.472656
1967.188477	38433.992188
1966.212891	38198.078125
1965.237305	38627.289063
1964.261719	38520.917969
1963.286133	38471.855469
1962.309570	38529.851563
1961.333984	38475.820313
1960.357422	38867.273438
1959.380859	38340.441406
1958.404297	38425.781250
1957.426758	38809.570313
1956.450195	38730.660156
1955.472656	38828.316406
1954.495117	38814.062500
1953.517578	38618.367188
1952.540039	38686.164063
1951.561523	38562.613281
1950.583008	38240.363281
1949.605469	38447.281250
1948.626953	38760.914063
1947.647461	38483.484375
1946.668945	38804.445313
1945.690430	38837.363281
1944.710938	38952.167969
1943.731445	38382.109375
1942.751953	38670.605469
1941.772461	38978.839844
1940.791992	38359.476563
1939.812500	38856.097656
1938.832031	38690.632813
1937.851563	38755.738281
1936.871094	38924.902344
1935.890625	39287.269531
1934.909180	38638.765625
1933.928711	38916.839844
1932.947266	39095.757813
1931.965820	38586.277344
1930.984375	38636.457031
1930.002930	39099.968750
1929.020508	39268.824219
1928.038086	38635.949219
1927.056641	38817.191406
1926.074219	38802.972656
1925.090820	39132.496094
1924.108398	39466.851563
1923.125000	38735.605469
1922.142578	38807.910156
1921.159180	38897.488281
1920.175781	39098.218750
1919.191406	39155.597656
1918.208008	39156.144531
1917.223633	38931.964844
1916.240234	38905.386719
1915.255859	38849.191406
1914.271484	39032.433594
1913.286133	39205.738281
1912.301758	39090.300781
1911.316406	39068.644531
1910.331055	39172.785156
1909.345703	39227.570313
1908.360352	39117.132813
1907.375000	38942.640625
1906.388672	39172.425781
1905.402344	38968.410156
1904.416016	38917.226563
1903.429688	39378.457031
1902.443359	38982.390625
1901.457031	39194.722656
1900.469727	39037.652344
1899.482422	38865.867188
1898.495117	38962.421875
1897.507813	39177.066406
1896.520508	38946.289063
1895.532227	39355.199219
1894.543945	39146.605469
1893.556641	39235.640625
1892.568359	39120.570313
1891.579102	38595.007813
1890.590820	38942.164063
1889.601563	38891.093750
1888.613281	38980.089844
1887.624023	38965.878906
1886.634766	39275.875000
1885.644531	39411.410156
1884.655273	38729.292969
1883.665039	39139.816406
1882.674805	39361.199219
1881.684570	39432.816406
1880.694336	39516.671875
1879.704102	39362.542969
1878.712891	39225.640625
1877.722656	39142.730469
1876.731445	39184.890625
1875.740234	39278.515625
1874.748047	39264.261719
1873.756836	39512.218750
1872.764648	39620.429688
1871.773438	38996.152344
1870.781250	39266.066406
1869.788086	39320.386719
1868.795898	38743.007813
1867.803711	38870.835938
1866.810547	39255.605469
1865.817383	39238.917969
1864.824219	38926.187500
1863.831055	39579.824219
1862.837891	39201.109375
1861.843750	39206.445313
1860.849609	39370.699219
1859.855469	39309.996094
1858.861328	39293.308594
1857.867188	39235.085938
1856.872070	39423.640625
1855.877930	39663.429688
1854.882813	39458.625000
1853.887695	39317.378906
1852.892578	39532.640625
1851.896484	39440.250000
1850.901367	39745.714844
1849.905273	39450.781250
1848.909180	39773.210938
1847.913086	39690.593750
1846.916992	39873.847656
1845.919922	39488.867188
1844.923828	39694.031250
1843.926758	39874.742188
1842.929688	39806.796875
1841.932617	40033.722656
1840.935547	40046.167969
1839.937500	39822.324219
1838.939453	39915.171875
1837.942383	40197.917969
1836.943359	40254.140625
1835.945313	40183.769531
1834.947266	40164.523438
1833.948242	39962.789063
1832.949219	40067.667969
1831.951172	40440.078125
1830.951172	40369.726563
1829.952148	40326.144531
1828.953125	40270.417969
1827.953125	40299.789063
1826.953125	40049.656250
1825.953125	40528.585938
1824.953125	40715.808594
1823.952148	40830.089844
1822.952148	40584.894531
1821.951172	40322.781250
1820.950195	40497.761719
1819.949219	40429.945313
1818.948242	40612.121094
1817.946289	40529.746094
1816.945313	40478.933594
1815.943359	40680.406250
1814.941406	40845.429688
1813.939453	40428.441406
1812.936523	40903.765625
1811.934570	40874.742188
1810.931641	40969.324219
1809.928711	40981.488281
1808.925781	40722.308594
1807.921875	40250.062500
1806.918945	40862.949219
1805.915039	41068.824219
1804.912109	40742.019531
1803.908203	41047.082031
1802.903320	41318.156250
1801.899414	41286.671875
1800.894531	41192.300781
1799.890625	41071.351563
1798.885742	41088.292969
1797.880859	41654.101563
1796.875000	41042.375000
1795.870117	41395.281250
1794.864258	41339.648438
1793.858398	41097.976563
1792.852539	41392.707031
1791.846680	41754.960938
1790.840820	41754.835938
1789.833984	41740.226563
1788.828125	41892.191406
1787.821289	41464.820313
1786.814453	41592.644531
1785.806641	41725.250000
1784.799805	41650.335938
1783.791992	41529.625000
1782.784180	41599.464844
1781.776367	41821.179688
1780.768555	42074.152344
1779.760742	42211.343750
1778.751953	41615.886719
1777.743164	41830.207031
1776.735352	41844.500000
1775.725586	42335.691406
1774.716797	42407.683594
1773.708008	42034.218750
1772.698242	41918.468750
1771.688477	42038.628906
1770.678711	42510.089844
1769.668945	41994.910156
1768.659180	42382.011719
1767.648438	42793.027344
1766.637695	42749.394531
1765.626953	42607.203125
1764.616211	42337.648438
1763.605469	42645.023438
1762.593750	42649.503906
1761.583008	43014.378906
1760.571289	42927.503906
1759.559570	42751.792969
1758.547852	42775.457031
1757.535156	42935.960938
1756.523438	43077.203125
1755.510742	43708.015625
1754.498047	43335.539063
1753.485352	43661.375000
1752.472656	43845.558594
1751.458984	44000.898438
1750.445313	43278.527344
1749.432617	43563.375000
1748.417969	43893.664063
1747.404297	43205.242188
1746.390625	43993.164063
1745.375977	44440.597656
1744.361328	44140.496094
1743.346680	44405.718750
1742.332031	44426.597656
1741.317383	44368.464844
1740.302734	45169.695313
1739.287109	45176.066406
1738.271484	45029.285156
1737.255859	45126.589844
1736.240234	45565.914063
1735.223633	45706.132813
1734.208008	46094.984375
1733.191406	46529.117188
1732.174805	46382.246094
1731.158203	46591.519531
1730.140625	46822.222656
1729.124023	47473.320313
1728.106445	47572.406250
1727.088867	47396.808594
1726.071289	48166.843750
1725.053711	48215.617188
1724.035156	48047.152344
1723.017578	48756.996094
1721.999023	48893.914063
1720.980469	48952.058594
1719.961914	49079.351563
1718.942383	49504.699219
1717.923828	49476.859375
1716.904297	49787.554688
1715.884766	49943.203125
1714.865234	49915.289063
1713.844727	49711.066406
1712.825195	49990.519531
1711.804688	49772.054688
1710.784180	49648.929688
1709.763672	49794.902344
1708.743164	49533.730469
1707.722656	49632.062500
1706.701172	49866.007813
1705.679688	49650.167969
1704.658203	49589.031250
1703.636719	49259.140625
1702.615234	49692.738281
1701.592773	49448.539063
1700.571289	49007.113281
1699.548828	49411.996094
1698.526367	49286.792969
1697.502930	49154.503906
1696.480469	48898.730469
1695.457031	49189.328125
1694.433594	49047.625000
1693.410156	48564.066406
1692.386719	48966.136719
1691.363281	49194.796875
1690.338867	49110.136719
1689.314453	48864.164063
1688.290039	49185.234375
1687.265625	49015.226563
1686.241211	49461.835938
1685.215820	49064.226563
1684.191406	49648.152344
1683.166016	49572.980469
1682.140625	49237.171875
1681.115234	49166.832031
1680.088867	49532.386719
1679.062500	49317.542969
1678.037109	49765.816406
1677.010742	49636.238281
1675.983398	50134.000000
1674.957031	49718.023438
1673.930664	50312.609375
1672.903320	49754.789063
1671.875977	50349.152344
1670.848633	50683.148438
1669.820313	50340.738281
1668.792969	50532.757813
1667.764648	50611.246094
1666.736328	50760.605469
1665.708008	50645.257813
1664.679688	51023.722656
1663.651367	51203.628906
1662.622070	50861.535156
1661.592773	51187.804688
1660.563477	51639.078125
1659.534180	51832.906250
1658.504883	51094.449219
1657.474609	51866.402344
1656.444336	51868.984375
1655.415039	52031.957031
1654.383789	52178.363281
1653.353516	52213.894531
1652.323242	52496.945313
1651.291992	52145.839844
1650.260742	52751.664063
1649.229492	53340.773438
1648.198242	53131.046875
1647.166016	53467.851563
1646.134766	53437.152344
1645.102539	53698.429688
1644.070313	53517.027344
1643.038086	53639.324219
1642.004883	54312.250000
1640.972656	54104.949219
1639.939453	54521.128906
1638.906250	55259.390625
1637.873047	54974.421875
1636.839844	55098.664063
1635.805664	55349.804688
1634.772461	55892.300781
1633.738281	55468.765625
1632.704102	55797.234375
1631.668945	56496.750000
1630.634766	56164.925781
1629.599609	57002.667969
1628.565430	57109.921875
1627.530273	56785.199219
1626.494141	57373.593750
1625.458984	57912.496094
1624.422852	58296.355469
1623.387695	58325.859375
1622.351563	58728.265625
1621.315430	59876.222656
1620.278320	60261.792969
1619.242188	61927.117188
1618.205078	62237.179688
1617.167969	63805.480469
1616.130859	65324.015625
1615.093750	66689.750000
1614.055664	68888.765625
1613.018555	70283.812500
1611.980469	71523.843750
1610.942383	71911.382813
1609.904297	72745.789063
1608.865234	72159.546875
1607.827148	71210.875000
1606.788086	70187.687500
1605.749023	69111.078125
1604.709961	67387.140625
1603.669922	66477.390625
1602.630859	64974.253906
1601.590820	64282.597656
1600.550781	63243.031250
1599.510742	63084.582031
1598.470703	62545.449219
1597.429688	61917.765625
1596.389648	61832.011719
1595.348633	61384.433594
1594.307617	61438.847656
1593.265625	61437.234375
1592.224609	60520.964844
1591.182617	60682.808594
1590.140625	60709.308594
1589.098633	60253.066406
1588.056641	60421.859375
1587.014648	60040.421875
1585.971680	59910.847656
1584.928711	60356.917969
1583.886719	59891.812500
1582.842773	60470.507813
1581.799805	59963.617188
1580.755859	60202.093750
1579.712891	60605.796875
1578.668945	60392.457031
1577.625000	60784.339844
1576.580078	61141.171875
1575.536133	61493.218750
1574.491211	61898.644531
1573.446289	61610.828125
1572.401367	62369.539063
1571.356445	62688.558594
1570.311523	62454.214844
1569.265625	62275.726563
1568.219727	62731.683594
1567.173828	62209.355469
1566.127930	61805.679688
1565.082031	61920.062500
1564.035156	61551.410156
1562.988281	61886.351563
1561.941406	61311.238281
1560.894531	61453.464844
1559.847656	61222.054688
1558.799805	61343.363281
1557.751953	61302.253906
1556.704102	61481.480469
1555.656250	61094.859375
1554.608398	61422.425781
1553.560547	61754.511719
1552.511719	61748.117188
1551.462891	61635.132813
1550.414063	61376.234375
1549.365234	61311.996094
1548.315430	61532.628906
1547.265625	61998.621094
1546.216797	61589.355469
1545.166992	61941.746094
1544.116211	62115.812500
1543.066406	61732.191406
1542.015625	61977.945313
1540.965820	62124.148438
1539.915039	62510.808594
1538.863281	62111.191406
1537.812500	61859.667969
1536.760742	61934.128906
1535.709961	61978.519531
1534.658203	62448.023438
1533.605469	62173.507813
1532.553711	61834.417969
1531.501953	61888.019531
1530.449219	60759.472656
1529.396484	61081.019531
1528.343750	61155.492188
1527.290039	61181.476563
1526.237305	60531.441406
1525.183594	60555.218750
1524.129883	60018.535156
1523.076172	59691.882813
1522.022461	59819.535156
1520.968750	59829.578125
1519.914063	59579.183594
1518.859375	59681.433594
1517.804688	59186.937500
1516.750000	59855.871094
1515.694336	59389.152344
1514.639648	58835.097656
1513.583984	58412.464844
1512.528320	58648.304688
1511.472656	58520.437500
1510.416016	58535.269531
1509.360352	58609.914063
1508.303711	58797.238281
1507.247070	58749.914063
1506.190430	58396.789063
1505.132813	58363.343750
1504.076172	58704.570313
1503.018555	58337.847656
1501.960938	58580.148438
1500.903320	58907.359375
1499.844727	58246.789063
1498.787109	58417.777344
1497.728516	58680.542969
1496.669922	58185.648438
1495.611328	57883.730469
1494.552734	57997.281250
1493.493164	58613.265625
1492.434570	57900.796875
1491.375000	57963.816406
1490.315430	57854.824219
1489.254883	57567.027344
1488.195313	57994.554688
1487.134766	57418.046875
1486.074219	57662.117188
1485.013672	57298.945313
1483.953125	57735.367188
1482.892578	57106.632813
1481.831055	58030.671875
1480.769531	57626.476563
1479.708008	57574.941406
1478.646484	57109.171875
1477.583984	57263.687500
1476.522461	56990.316406
1475.459961	57112.765625
1474.397461	57813.789063
1473.334961	57773.691406
1472.271484	57582.718750
1471.208984	57423.812500
1470.145508	58000.859375
1469.082031	57963.031250
1468.018555	57897.804688
1466.954102	57946.804688
1465.890625	58030.042969
1464.826172	58843.914063
1463.761719	58379.050781
1462.697266	58592.261719
1461.631836	58168.683594
1460.567383	59301.375000
1459.501953	58864.132813
1458.436523	58878.656250
1457.371094	58938.781250
1456.305664	58276.101563
1455.239258	58413.816406
1454.172852	58266.574219
1453.107422	58413.355469
1452.040039	58662.605469
1450.973633	58214.691406
1449.907227	58618.761719
1448.839844	58662.890625
1447.772461	58531.683594
1446.705078	59074.332031
1445.637695	58922.609375
1444.569336	58725.429688
1443.500977	58933.296875
1442.432617	59172.929688
1441.364258	58916.671875
1440.295898	59049.343750
1439.227539	59152.410156
1438.158203	59814.621094
1437.088867	60062.960938
1436.019531	59215.964844
1434.950195	59546.105469
1433.879883	59973.796875
1432.810547	59924.410156
1431.740234	60340.523438
1430.669922	60370.539063
1429.598633	60845.433594
1428.528320	60312.523438
1427.457031	59988.554688
1426.386719	60200.093750
1425.314453	60363.921875
1424.243164	60486.867188
1423.171875	60444.246094
1422.099609	60374.437500
1421.027344	59867.195313
1419.955078	60067.183594
1418.882813	59884.179688
1417.810547	60263.050781
1416.737305	59688.238281
1415.664063	59521.246094
1414.590820	59847.894531
1413.517578	59585.851563
1412.444336	59744.878906
1411.370117	59684.347656
1410.295898	60605.757813
1409.221680	59264.738281
1408.147461	60414.320313
1407.073242	60539.125000
1405.998047	60202.660156
1404.922852	60374.921875
1403.847656	60422.816406
1402.772461	61322.582031
1401.697266	60832.578125
1400.621094	60331.457031
1399.544922	61190.093750
1398.468750	60637.148438
1397.392578	60870.054688
1396.316406	60705.601563
1395.239258	61640.273438
1394.162109	61489.273438
1393.084961	61667.703125
1392.007813	61780.652344
1390.930664	62263.410156
1389.852539	62646.781250
1388.774414	63068.332031
1387.696289	63455.921875
1386.618164	63424.207031
1385.540039	64273.484375
1384.460938	64144.761719
1383.382813	64894.492188
1382.303711	65029.175781
1381.223633	65366.441406
1380.144531	65534.750000
1379.064453	66110.375000
1377.985352	65684.406250
1376.905273	65830.054688
1375.825195	66324.328125
1374.744141	65716.359375
1373.664063	66223.960938
1372.583008	65897.257813
1371.501953	65251.472656
1370.420898	64940.792969
1369.338867	64834.703125
1368.257813	64539.933594
1367.175781	64440.687500
1366.093750	64366.179688
1365.011719	63943.656250
1363.929688	63833.339844
1362.846680	63842.023438
1361.763672	63166.214844
1360.680664	62899.019531
1359.597656	62611.730469
1358.514648	62589.218750
1357.430664	62609.320313
1356.346680	61963.476563
1355.262695	62046.449219
1354.178711	61450.246094
1353.094727	61537.761719
1352.009766	60899.285156
1350.925781	61105.593750
1349.840820	60796.671875
1348.755859	61354.496094
1347.669922	61000.855469
1346.584961	60911.492188
1345.499023	60873.636719
1344.413086	60876.070313
1343.327148	60737.550781
1342.240234	60764.609375
1341.154297	60899.011719
1340.067383	60995.347656
1338.980469	60816.648438
1337.893555	60997.902344
1336.805664	61324.359375
1335.718750	60957.992188
1334.630859	60960.382813
1333.542969	60594.207031
1332.455078	60706.089844
1331.367188	60992.097656
1330.278320	61141.820313
1329.189453	60737.917969
1328.100586	61470.101563
1327.011719	60704.808594
1325.922852	61340.796875
1324.833008	61485.843750
1323.743164	60772.250000
1322.653320	61300.851563
1321.563477	61550.593750
1320.473633	61367.843750
1319.382813	61174.011719
1318.291992	61599.652344
1317.201172	61423.667969
1316.110352	61659.785156
1315.019531	61889.136719
1313.927734	61835.640625
1312.835938	62222.921875
1311.744141	61888.945313
1310.652344	62158.132813
1309.560547	61997.824219
1308.467773	62444.843750
1307.375000	62355.707031
1306.282227	62880.324219
1305.189453	62239.765625
1304.095703	62664.183594
1303.002930	62790.632813
1301.909180	63377.000000
1300.815430	63443.285156
1299.721680	62872.050781
1298.626953	62480.910156
1297.533203	63333.347656
1296.438477	63361.843750
1295.343750	63798.738281
1294.248047	63993.574219
1293.153320	64057.425781
1292.057617	64536.101563
1290.961914	64761.742188
1289.866211	64934.078125
1288.770508	65135.171875
1287.674805	65300.718750
1286.578125	65366.464844
1285.481445	65152.968750
1284.384766	65006.015625
1283.288086	65299.937500
1282.190430	64645.816406
1281.092773	64660.675781
1279.996094	64695.453125
1278.897461	64858.605469
1277.799805	64450.691406
1276.702148	64346.074219
1275.603516	64588.839844
1274.504883	63683.484375
1273.406250	64127.531250
1272.307617	63678.093750
1271.208008	63578.117188
1270.108398	63648.378906
1269.008789	63484.347656
1267.909180	63452.953125
1266.809570	62920.078125
1265.708984	62937.386719
1264.609375	62992.226563
1263.508789	62910.144531
1262.407227	63057.683594
1261.306641	62825.527344
1260.206055	62145.476563
1259.104492	62140.824219
1258.002930	62270.734375
1256.901367	62257.234375
1255.798828	62040.855469
1254.697266	62027.394531
1253.594727	61797.906250
1252.492188	61610.375000
1251.389648	61766.667969
1250.286133	61931.714844
1249.183594	61402.820313
1248.080078	61197.867188
1246.976563	61433.382813
1245.872070	61063.375000
1244.768555	60380.925781
1243.664063	60838.734375
1242.560547	60689.062500
1241.455078	60607.648438
1240.350586	60180.917969
1239.246094	60007.253906
1238.140625	59895.210938
1237.035156	59765.621094
1235.929688	59921.816406
1234.824219	60095.531250
1233.717773	59803.375000
1232.612305	59564.046875
1231.505859	59553.226563
1230.399414	59518.253906
1229.291992	59325.207031
1228.185547	59577.851563
1227.078125	59314.625000
1225.970703	59637.398438
1224.863281	59154.847656
1223.755859	59095.839844
1222.647461	59221.082031
1221.539063	59363.816406
1220.430664	58712.839844
1219.322266	59028.781250
1218.213867	59386.242188
1217.104492	59349.152344
1215.995117	58602.246094
1214.885742	58490.832031
1213.776367	58870.023438
1212.666992	58384.171875
1211.556641	58947.132813
1210.446289	58695.640625
1209.335938	58792.199219
1208.225586	58823.082031
1207.115234	58197.656250
1206.003906	58639.832031
1204.892578	58699.144531
1203.781250	58227.125000
1202.669922	59351.089844
1201.557617	58933.761719
1200.446289	58732.921875
1199.333984	59240.046875
1198.221680	59480.480469
1197.108398	59417.238281
1195.996094	59423.894531
1194.882813	59338.847656
1193.769531	59749.343750
1192.656250	60000.363281
1191.542969	59387.191406
1190.428711	59847.621094
1189.314453	59736.386719
1188.200195	60131.156250
1187.085938	59736.441406
1185.971680	60002.437500
1184.856445	60516.816406
1183.741211	60412.085938
1182.625977	60361.863281
1181.510742	60403.156250
1180.395508	60623.031250
1179.279297	60709.988281
1178.163086	60629.253906
1177.046875	60781.476563
1175.930664	60766.050781
1174.813477	60308.878906
1173.697266	59997.640625
1172.580078	59579.921875
1171.462891	60375.964844
1170.344727	59884.390625
