#Wave		#Intensity
2001.221680	41828.710938
2000.251953	41580.566406
1999.282227	41229.976563
1998.312500	41934.382813
1997.342773	41671.531250
1996.372070	41601.636719
1995.402344	41975.031250
1994.431641	41742.351563
1993.460938	42095.558594
1992.490234	41727.773438
1991.518555	41447.707031
1990.547852	42301.203125
1989.576172	41768.457031
1988.604492	42033.800781
1987.632813	41991.449219
1986.661133	41891.597656
1985.689453	41986.781250
1984.716797	42141.914063
1983.745117	41807.171875
1982.772461	42107.203125
1981.799805	41807.554688
1980.827148	41870.187500
1979.853516	41952.773438
1978.880859	42549.695313
1977.907227	41978.058594
1976.933594	42122.980469
1975.959961	42237.902344
1974.986328	42195.585938
1974.011719	42375.316406
1973.038086	42430.265625
1972.063477	42151.019531
1971.088867	42455.328125
1970.114258	42041.550781
1969.138672	42308.378906
1968.164063	42171.394531
1967.188477	42779.464844
1966.212891	42697.246094
1965.237305	42089.496094
1964.261719	42535.382813
1963.286133	42413.406250
1962.309570	42251.640625
1961.333984	42615.121094
1960.357422	42373.738281
1959.380859	42677.347656
1958.404297	42202.187500
1957.426758	43055.414063
1956.450195	42493.308594
1955.472656	42640.035156
1954.495117	42878.687500
1953.517578	42555.519531
1952.540039	42863.683594
1951.561523	42637.531250
1950.583008	42562.996094
1949.605469	42540.640625
1948.626953	42657.367188
1947.647461	42858.472656
1946.668945	42416.527344
1945.690430	42885.664063
1944.710938	43175.957031
1943.731445	42845.839844
1942.751953	42647.316406
1941.772461	42920.132813
1940.791992	42910.136719
1939.812500	42808.402344
1938.832031	42976.921875
1937.851563	42438.968750
1936.871094	42595.097656
1935.890625	43095.578125
1934.909180	43036.007813
1933.928711	42498.417969
1932.947266	42897.113281
1931.965820	43040.636719
1930.984375	42936.546875
1930.002930	42990.906250
1929.020508	42842.316406
1928.038086	43421.214844
1927.056641	43280.019531
1926.074219	42547.726563
1925.090820	43205.503906
1924.108398	43118.808594
1923.125000	42846.738281
1922.142578	43694.429688
1921.159180	42836.664063
1920.175781	43330.730469
1919.191406	42794.472656
1918.208008	43219.214844
1917.223633	43199.292969
1916.240234	43285.542969
1915.255859	43270.550781
1914.271484	43033.417969
1913.286133	43077.699219
1912.301758	43524.136719
1911.316406	43200.742188
1910.331055	43708.660156
1909.345703	43594.957031
1908.360352	43764.835938
1907.375000	43269.050781
1906.388672	43441.390625
1905.402344	43593.953125
1904.416016	43581.378906
1903.429688	43391.437500
1902.443359	44199.089844
1901.457031	43494.417969
1900.469727	43843.804688
1899.482422	43661.328125
1898.495117	43215.554688
1897.507813	43916.703125
1896.520508	43931.140625
1895.532227	44007.070313
1894.543945	44146.921875
1893.556641	44171.144531
1892.568359	44227.316406
1891.579102	44234.304688
1890.590820	44337.144531
1889.601563	43769.070313
1888.613281	43921.089844
1887.624023	44190.968750
1886.634766	44060.406250
1885.644531	44079.683594
1884.655273	44052.300781
1883.665039	44086.296875
1882.674805	44225.820313
1881.684570	44154.250000
1880.694336	44362.406250
1879.704102	44288.382813
1878.712891	44650.957031
1877.722656	44473.910156
1876.731445	43995.351563
1875.740234	44377.390625
1874.748047	44249.500000
1873.756836	44258.878906
1872.764648	45113.535156
1871.773438	44894.937500
1870.781250	44580.894531
1869.788086	44548.574219
1868.795898	44286.117188
1867.803711	45039.640625
1866.810547	45141.863281
1865.817383	44857.410156
1864.824219	44499.656250
1863.831055	44460.035156
1862.837891	45264.218750
1861.843750	44808.761719
1860.849609	44969.585938
1859.855469	45330.800781
1858.861328	45027.097656
1857.867188	44926.320313
1856.872070	45304.449219
1855.877930	45289.156250
1854.882813	44980.781250
1853.887695	45451.488281
1852.892578	45223.761719
1851.896484	45267.070313
1850.901367	45686.218750
1849.905273	46017.371094
1848.909180	45350.535156
1847.913086	45952.394531
1846.916992	45727.246094
1845.919922	45894.773438
1844.923828	45650.207031
1843.926758	45868.875000
1842.929688	45227.132813
1841.932617	45879.539063
1840.935547	45881.210938
1839.937500	45997.367188
1838.939453	46128.093750
1837.942383	46066.406250
1836.943359	45963.343750
1835.945313	46444.527344
1834.947266	46180.808594
1833.948242	46287.046875
1832.949219	46191.312500
1831.951172	46771.839844
1830.951172	46749.011719
1829.952148	46514.640625
1828.953125	46601.265625
1827.953125	46544.445313
1826.953125	46482.781250
1825.953125	46848.800781
1824.953125	46534.437500
1823.952148	47165.082031
1822.952148	46870.195313
1821.951172	47148.468750
1820.950195	46931.375000
1819.949219	46978.933594
1818.948242	47169.667969
1817.946289	47513.199219
1816.945313	47291.332031
1815.943359	47355.769531
1814.941406	47747.585938
1813.939453	47278.460938
1812.936523	47258.007813
1811.934570	47581.757813
1810.931641	47910.238281
1809.928711	47305.718750
1808.925781	48164.687500
1807.921875	48185.261719
1806.918945	48230.046875
1805.915039	48422.519531
1804.912109	47866.851563
1803.908203	47974.593750
1802.903320	48447.734375
1801.899414	48206.902344
1800.894531	48839.500000
1799.890625	48859.914063
1798.885742	48614.292969
1797.880859	48608.140625
1796.875000	48952.523438
1795.870117	48847.207031
1794.864258	49126.175781
1793.858398	48784.066406
1792.852539	49029.121094
1791.846680	49469.734375
1790.840820	49700.089844
1789.833984	49365.355469
1788.828125	49735.664063
1787.821289	49524.136719
1786.814453	49824.296875
1785.806641	49653.843750
1784.799805	49596.832031
1783.791992	49819.628906
1782.784180	49984.468750
1781.776367	50144.425781
1780.768555	50345.304688
1779.760742	50288.210938
1778.751953	50096.183594
1777.743164	50631.871094
1776.735352	50866.242188
1775.725586	50096.148438
1774.716797	50800.117188
1773.708008	50196.437500
1772.698242	50685.886719
1771.688477	50975.386719
1770.678711	50915.851563
1769.668945	51041.593750
1768.659180	51078.285156
1767.648438	50672.410156
1766.637695	50848.625000
1765.626953	51245.972656
1764.616211	51715.296875
1763.605469	51102.886719
1762.593750	51084.246094
1761.583008	52021.855469
1760.571289	51798.867188
1759.559570	51640.804688
1758.547852	51818.984375
1757.535156	51752.203125
1756.523438	51961.503906
1755.510742	52091.523438
1754.498047	52108.710938
1753.485352	51914.757813
1752.472656	52447.714844
1751.458984	52721.453125
1750.445313	52992.695313
1749.432617	52710.003906
1748.417969	53503.718750
1747.404297	53046.078125
1746.390625	53226.003906
1745.375977	53484.925781
1744.361328	53446.718750
1743.346680	53257.644531
1742.332031	54103.085938
1741.317383	53775.093750
1740.302734	53997.773438
1739.287109	54395.085938
1738.271484	54581.679688
1737.255859	54828.015625
1736.240234	55165.160156
1735.223633	55538.058594
1734.208008	55511.492188
1733.191406	55461.027344
1732.174805	56287.832031
1731.158203	56504.914063
1730.140625	56736.253906
1729.124023	56838.496094
1728.106445	57499.648438
1727.088867	57346.175781
1726.071289	58412.925781
1725.053711	58321.414063
1724.035156	58967.503906
1723.017578	58787.617188
1721.999023	59846.191406
1720.980469	59654.281250
1719.961914	59784.449219
1718.942383	60372.460938
1717.923828	60361.769531
1716.904297	60498.886719
1715.884766	60812.335938
1714.865234	60765.820313
1713.844727	60802.710938
1712.825195	60482.238281
1711.804688	60764.496094
1710.784180	60651.328125
1709.763672	60616.773438
1708.743164	60441.769531
1707.722656	60226.363281
1706.701172	60767.800781
1705.679688	60323.988281
1704.658203	60125.363281
1703.636719	59995.781250
1702.615234	59937.585938
1701.592773	60052.976563
1700.571289	59738.046875
1699.548828	59271.105469
1698.526367	59688.351563
1697.502930	59283.355469
1696.480469	59470.015625
1695.457031	59563.980469
1694.433594	58691.390625
1693.410156	59319.671875
1692.386719	59347.136719
1691.363281	59469.527344
1690.338867	59299.984375
1689.314453	59139.992188
1688.290039	59055.964844
1687.265625	59116.644531
1686.241211	58952.019531
1685.215820	59420.492188
1684.191406	58983.257813
1683.166016	59254.832031
1682.140625	59151.902344
1681.115234	59556.027344
1680.088867	59396.222656
1679.062500	59366.738281
1678.037109	59434.343750
1677.010742	59298.316406
1675.983398	59742.285156
1674.957031	59658.312500
1673.930664	59825.199219
1672.903320	59459.695313
1671.875977	60217.917969
1670.848633	60245.070313
1669.820313	59983.722656
1668.792969	60131.476563
1667.764648	60376.089844
1666.736328	60540.257813
1665.708008	60534.234375
1664.679688	60294.316406
1663.651367	60871.777344
1662.622070	60811.371094
1661.592773	60670.699219
1660.563477	60931.421875
1659.534180	60932.402344
1658.504883	60784.695313
1657.474609	60910.753906
1656.444336	60737.148438
1655.415039	61509.468750
1654.383789	61857.007813
1653.353516	61376.789063
1652.323242	61255.082031
1651.291992	61765.113281
1650.260742	61518.468750
1649.229492	61632.417969
1648.198242	61974.835938
1647.166016	62039.195313
1646.134766	62298.992188
1645.102539	62521.019531
1644.070313	62733.550781
1643.038086	62541.160156
1642.004883	62894.804688
1640.972656	63184.792969
1639.939453	63364.109375
1638.906250	63882.054688
1637.873047	63703.730469
1636.839844	63443.171875
1635.805664	63892.644531
1634.772461	64492.382813
1633.738281	64252.964844
1632.704102	64887.664063
1631.668945	65463.406250
1630.634766	65390.691406
1629.599609	65658.507813
1628.565430	66057.703125
1627.530273	66376.945313
1626.494141	65970.828125
1625.458984	66695.929688
1624.422852	67732.820313
1623.387695	68084.367188
1622.351563	69073.726563
1621.315430	69042.671875
1620.278320	70580.125000
1619.242188	71620.078125
1618.205078	72633.867188
1617.167969	74978.289063
1616.130859	76562.781250
1615.093750	78460.593750
1614.055664	80997.109375
1613.018555	82104.320313
1611.980469	84929.585938
1610.942383	84774.015625
1609.904297	85131.039063
1608.865234	85010.578125
1607.827148	83446.664063
1606.788086	82381.531250
1605.749023	80093.640625
1604.709961	78274.210938
1603.669922	76111.765625
1602.630859	75025.312500
1601.590820	74084.140625
1600.550781	71958.632813
1599.510742	71329.054688
1598.470703	70830.500000
1597.429688	70196.664063
1596.389648	69691.484375
1595.348633	69072.078125
1594.307617	68758.664063
1593.265625	69138.476563
1592.224609	68524.164063
1591.182617	68591.265625
1590.140625	68492.734375
1589.098633	68461.867188
1588.056641	67468.046875
1587.014648	68178.695313
1585.971680	68201.500000
1584.928711	67972.609375
1583.886719	68004.757813
1582.842773	68288.484375
1581.799805	68029.414063
1580.755859	68117.414063
1579.712891	68375.351563
1578.668945	68488.859375
1577.625000	68504.570313
1576.580078	69444.117188
1575.536133	69122.289063
1574.491211	68982.015625
1573.446289	69172.046875
1572.401367	69920.109375
1571.356445	70175.007813
1570.311523	69662.703125
1569.265625	70031.429688
1568.219727	69981.757813
1567.173828	69880.976563
1566.127930	69643.179688
1565.082031	69233.601563
1564.035156	68701.101563
1562.988281	68751.515625
1561.941406	68388.734375
1560.894531	68831.406250
1559.847656	68389.843750
1558.799805	68354.429688
1557.751953	68339.906250
1556.704102	68473.804688
1555.656250	68635.484375
1554.608398	68222.156250
1553.560547	68022.218750
1552.511719	68429.539063
1551.462891	68563.289063
1550.414063	68356.445313
1549.365234	67839.281250
1548.315430	68521.921875
1547.265625	67863.664063
1546.216797	68069.156250
1545.166992	67626.468750
1544.116211	67887.460938
1543.066406	67981.765625
1542.015625	67766.039063
1540.965820	67804.812500
1539.915039	67660.875000
1538.863281	67392.132813
1537.812500	66783.664063
1536.760742	66743.984375
1535.709961	67044.023438
1534.658203	66840.273438
1533.605469	66853.726563
1532.553711	66171.976563
1531.501953	65705.218750
1530.449219	65520.304688
1529.396484	65750.968750
1528.343750	65062.964844
1527.290039	65049.019531
1526.237305	65125.058594
1525.183594	65196.453125
1524.129883	64642.796875
1523.076172	64541.300781
1522.022461	64592.003906
1520.968750	64887.027344
1519.914063	64916.902344
1518.859375	64462.859375
1517.804688	64379.906250
1516.750000	65172.296875
1515.694336	64204.863281
1514.639648	64709.167969
1513.583984	64557.148438
1512.528320	64616.949219
1511.472656	64619.191406
1510.416016	64000.160156
1509.360352	64414.312500
1508.303711	64340.675781
1507.247070	64460.242188
1506.190430	64044.011719
1505.132813	64515.324219
1504.076172	64586.519531
1503.018555	63942.968750
1501.960938	64499.050781
1500.903320	64524.257813
1499.844727	64517.292969
1498.787109	64671.082031
1497.728516	64119.921875
1496.669922	63789.339844
1495.611328	64074.000000
1494.552734	63676.988281
1493.493164	63757.355469
1492.434570	63796.402344
1491.375000	63860.660156
1490.315430	63468.546875
1489.254883	63475.515625
1488.195313	63565.000000
1487.134766	63445.886719
1486.074219	63205.359375
1485.013672	63436.890625
1483.953125	63079.621094
1482.892578	62894.250000
1481.831055	63006.628906
1480.769531	63526.492188
1479.708008	63263.304688
1478.646484	62270.121094
1477.583984	62950.011719
1476.522461	63709.726563
1475.459961	63034.945313
1474.397461	63174.582031
1473.334961	63197.550781
1472.271484	63654.886719
1471.208984	63131.453125
1470.145508	63513.214844
1469.082031	63195.632813
1468.018555	63753.152344
1466.954102	64008.960938
1465.890625	63563.562500
1464.826172	63892.375000
1463.761719	63764.480469
1462.697266	64145.628906
1461.631836	64494.691406
1460.567383	64353.058594
1459.501953	64051.785156
1458.436523	64231.882813
1457.371094	64742.582031
1456.305664	64610.113281
1455.239258	64242.890625
1454.172852	64627.945313
1453.107422	64805.484375
1452.040039	64967.007813
1450.973633	64741.207031
1449.907227	64884.460938
1448.839844	65039.042969
1447.772461	65022.808594
1446.705078	64933.734375
1445.637695	65789.210938
1444.569336	65638.585938
1443.500977	65410.656250
1442.432617	66199.617188
1441.364258	66005.773438
1440.295898	66005.289063
1439.227539	66541.343750
1438.158203	66402.093750
1437.088867	67015.156250
1436.019531	67321.234375
1434.950195	67225.078125
1433.879883	67569.617188
1432.810547	68204.726563
1431.740234	67872.304688
1430.669922	67630.804688
1429.598633	68410.820313
1428.528320	68518.804688
1427.457031	68987.523438
1426.386719	68571.304688
1425.314453	68606.601563
1424.243164	68496.750000
1423.171875	68212.343750
1422.099609	68644.406250
1421.027344	68255.812500
1419.955078	68263.929688
1418.882813	68054.531250
1417.810547	67976.593750
1416.737305	67717.484375
1415.664063	67947.609375
1414.590820	68021.421875
1413.517578	67850.726563
1412.444336	67856.625000
1411.370117	67543.445313
1410.295898	67671.562500
1409.221680	67480.679688
1408.147461	68149.304688
1407.073242	68055.632813
1405.998047	68009.476563
1404.922852	68657.289063
1403.847656	68385.023438
1402.772461	68008.906250
1401.697266	67962.773438
1400.621094	68519.765625
1399.544922	68796.507813
1398.468750	69077.664063
1397.392578	68543.718750
1396.316406	69079.875000
1395.239258	69994.984375
1394.162109	69479.203125
1393.084961	70114.156250
1392.007813	70241.375000
1390.930664	70652.703125
1389.852539	71571.195313
1388.774414	71943.796875
1387.696289	72099.882813
1386.618164	72260.421875
1385.540039	72569.601563
1384.460938	73072.406250
1383.382813	73480.421875
1382.303711	73564.015625
1381.223633	74064.109375
1380.144531	74068.765625
1379.064453	75036.726563
1377.985352	74404.367188
1376.905273	74908.437500
1375.825195	74944.421875
1374.744141	74265.171875
1373.664063	74654.304688
1372.583008	73802.234375
1371.501953	73761.945313
1370.420898	73283.421875
1369.338867	72724.164063
1368.257813	72609.953125
1367.175781	72720.398438
1366.093750	72619.695313
1365.011719	72431.453125
1363.929688	72481.250000
1362.846680	71898.031250
1361.763672	71954.632813
1360.680664	71697.078125
1359.597656	71930.914063
1358.514648	72377.757813
1357.430664	71297.210938
1356.346680	71587.046875
1355.262695	70932.968750
1354.178711	70624.304688
1353.094727	70495.023438
1352.009766	69991.609375
1350.925781	69842.320313
1349.840820	70331.429688
1348.755859	70240.351563
1347.669922	70017.203125
1346.584961	69702.359375
1345.499023	69445.812500
1344.413086	68996.906250
1343.327148	69731.726563
1342.240234	69464.125000
1341.154297	69299.492188
1340.067383	69687.242188
1338.980469	69898.234375
1337.893555	69930.312500
1336.805664	69079.578125
1335.718750	69353.125000
1334.630859	69128.351563
1333.542969	69879.796875
1332.455078	69610.335938
1331.367188	69783.085938
1330.278320	69540.531250
1329.189453	70063.671875
1328.100586	70086.718750
1327.011719	70393.125000
1325.922852	70373.710938
1324.833008	70044.257813
1323.743164	70627.031250
1322.653320	70685.609375
1321.563477	70813.281250
1320.473633	71228.421875
1319.382813	71048.406250
1318.291992	71565.843750
1317.201172	71922.695313
1316.110352	72680.328125
1315.019531	72246.304688
1313.927734	72803.210938
1312.835938	72565.210938
1311.744141	73279.875000
1310.652344	72794.867188
1309.560547	73097.625000
1308.467773	73262.359375
1307.375000	72784.281250
1306.282227	72324.156250
1305.189453	72573.414063
1304.095703	72602.515625
1303.002930	72224.898438
1301.909180	72256.265625
1300.815430	72516.453125
1299.721680	72321.187500
1298.626953	72314.757813
1297.533203	72408.250000
1296.438477	72526.125000
1295.343750	72730.515625
1294.248047	72948.148438
1293.153320	72934.937500
1292.057617	73183.507813
1290.961914	73616.078125
1289.866211	73875.515625
1288.770508	74192.500000
1287.674805	73815.507813
1286.578125	73992.750000
1285.481445	74099.007813
1284.384766	74256.187500
1283.288086	74140.835938
1282.190430	73985.656250
1281.092773	73812.820313
1279.996094	73553.687500
1278.897461	74104.835938
1277.799805	73482.773438
1276.702148	73161.875000
1275.603516	73126.492188
1274.504883	72898.679688
1273.406250	72752.773438
1272.307617	72876.679688
1271.208008	71926.085938
1270.108398	72129.671875
1269.008789	71740.898438
1267.909180	71953.265625
1266.809570	71708.257813
1265.708984	71779.187500
1264.609375	71476.875000
1263.508789	70878.796875
1262.407227	70883.601563
1261.306641	70438.132813
1260.206055	70630.593750
1259.104492	69894.085938
1258.002930	69729.195313
1256.901367	69784.914063
1255.798828	69278.296875
1254.697266	69472.976563
1253.594727	69649.953125
1252.492188	69549.156250
1251.389648	69787.742188
1250.286133	69230.890625
1249.183594	69075.148438
1248.080078	69267.429688
1246.976563	68961.992188
1245.872070	68960.484375
1244.768555	68952.367188
1243.664063	68939.851563
1242.560547	69030.757813
1241.455078	69233.828125
1240.350586	68686.750000
1239.246094	68608.304688
1238.140625	69202.718750
1237.035156	69089.023438
1235.929688	68522.578125
1234.824219	68151.929688
1233.717773	68640.515625
1232.612305	68362.234375
1231.505859	68215.835938
1230.399414	68985.218750
1229.291992	68621.390625
1228.185547	68795.515625
1227.078125	68041.171875
1225.970703	68491.828125
1224.863281	68227.070313
1223.755859	68030.414063
1222.647461	68498.359375
1221.539063	68238.125000
1220.430664	67982.367188
1219.322266	67439.539063
1218.213867	67503.992188
1217.104492	68164.421875
1215.995117	67553.937500
1214.885742	67180.234375
1213.776367	67586.320313
1212.666992	67521.476563
1211.556641	67428.195313
1210.446289	67674.218750
1209.335938	67869.812500
1208.225586	67859.656250
1207.115234	68042.015625
1206.003906	67585.632813
1204.892578	67767.968750
1203.781250	67261.500000
1202.669922	68108.382813
1201.557617	68281.773438
1200.446289	68618.984375
1199.333984	68088.695313
1198.221680	68845.234375
1197.108398	68577.171875
1195.996094	69064.750000
1194.882813	69174.437500
1193.769531	69301.554688
1192.656250	69638.132813
1191.542969	69985.500000
1190.428711	69898.585938
1189.314453	70108.351563
1188.200195	70093.406250
1187.085938	69245.515625
1185.971680	69705.984375
1184.856445	69773.945313
1183.741211	69724.187500
1182.625977	69648.304688
1181.510742	69984.179688
1180.395508	70106.476563
1179.279297	70385.515625
1178.163086	70176.742188
1177.046875	70401.242188
1175.930664	70488.531250
1174.813477	70525.742188
1173.697266	70399.757813
1172.580078	70323.843750
1171.462891	70119.632813
1170.344727	69619.765625
