Data from AgNPs_UA_50uM_CRN_500uM_AS_RamanShift__19__15-27-41-564.txt Node

Date: Wed Aug 17 15:27:41 BST 2022
User: TCL
Spectrometer: QEP01345
Trigger mode: 4
Integration Time (sec): 7.000000E0
Scans to average: 10
Electric dark correction enabled: true
Nonlinearity correction enabled: false
Boxcar width: 0
XAxis mode: Raman Shifts
Number of Pixels in Spectrum: 1044
>>>>>Begin Spectral Data<<<<<
46.04893	-0.325
50.45542	-0.125
54.85868	-2.525
59.25871	-0.025
63.6555	25.875
68.04907	28.775
72.43941	29.075
76.82654	34.375
81.21044	34.775
85.59113	32.475
89.96862	34.375
94.34289	41.875
98.71396	42.875
103.08183	36.375
107.4465	41.575
111.80798	37.875
116.16626	39.875
120.52136	40.375
124.87327	39.375
129.222	39.375
133.56755	39.975
137.90993	40.575
142.24913	46.175
146.58517	47.475
150.91804	48.775
155.24774	52.575
159.57429	55.875
163.89768	62.275
168.21792	78.775
172.53501	105.175
176.84895	134.275
181.15975	185.775
185.46741	249.475
189.77193	339.375
194.07331	448.575
198.37157	569.975
202.6667	708.575
206.9587	839.875
211.24758	969.775
215.53334	1121.975
219.81599	1269.275
224.09553	1429.075
228.37195	1604.775
232.64527	1800.275
236.91549	1981.675
241.18261	2168.775
245.44663	2315.175
249.70755	2435.075
253.96539	2530.575
258.22014	2616.275
262.4718	2672.475
266.72039	2716.775
270.96589	2709.175
275.20832	2682.975
279.44768	2620.175
283.68397	2563.875
287.91719	2514.875
292.14735	2495.475
296.37445	2508.675
300.59849	2562.975
304.81948	2618.375
309.03742	2653.275
313.25231	2637.475
317.46415	2572.075
321.67296	2473.375
325.87872	2394.975
330.08145	2368.975
334.28114	2364.375
338.47781	2411.075
342.67145	2465.375
346.86207	2515.675
351.04966	2615.175
355.23424	2721.075
359.4158	2831.375
363.59435	2877.175
367.76989	2913.675
371.94243	2931.275
376.11196	2929.775
380.27849	2941.575
384.44203	2951.375
388.60257	2937.975
392.76012	2942.975
396.91468	2950.575
401.06626	2981.175
405.21485	3011.575
409.36047	2970.575
413.50311	2892.875
417.64277	2822.875
421.77947	2791.875
425.9132	2782.075
430.04396	2784.575
434.17176	2804.575
438.2966	2846.875
442.41849	2883.575
446.53742	2928.475
450.6534	2976.975
454.76644	2995.775
458.87653	3017.975
462.98368	3020.575
467.08789	3004.075
471.18916	2979.575
475.2875	2952.875
479.38291	2935.075
483.4754	2931.475
487.56496	2931.075
491.6516	2934.975
495.73531	2945.775
499.81612	2940.475
503.89401	2962.575
507.96899	2979.775
512.04106	3010.375
516.11023	3042.375
520.1765	3077.175
524.23987	3075.475
528.30034	3059.275
532.35792	3055.775
536.41261	3050.975
540.46441	3013.575
544.51333	3005.475
548.55936	3021.475
552.60252	3034.075
556.64279	3072.375
560.6802	3100.275
564.71473	3131.475
568.7464	3188.275
572.7752	3204.375
576.80114	3171.875
580.82422	3105.775
584.84444	3086.875
588.86181	3115.975
592.87633	3138.375
596.888	3194.375
600.89682	3265.475
604.9028	3514.875
608.90594	4091.575
612.90624	4729.975
616.90371	4464.775
620.89834	3636.475
624.89015	3279.375
628.87913	3231.375
632.86528	3267.975
636.84862	3346.475
640.82913	3332.675
644.80683	3270.975
648.78172	3205.175
652.75379	3219.475
656.72306	3276.975
660.68952	3344.275
664.65319	3314.475
668.61405	3266.375
672.57211	3271.875
676.52738	3316.575
680.47986	3350.775
684.42955	3357.175
688.37646	3313.775
692.32058	3273.175
696.26192	3273.275
700.20048	3268.375
704.13626	3283.575
708.06928	3285.575
711.99952	3245.075
715.927	3248.675
719.85171	3261.675
723.77365	3264.275
727.69284	3262.775
731.60928	3259.475
735.52295	3276.975
739.43388	3291.375
743.34206	3282.675
747.24749	3291.475
751.15017	3297.175
755.05012	3331.175
758.94733	3402.975
762.8418	3606.075
766.73354	3930.875
770.62254	4287.575
774.50882	4446.375
778.39237	4321.475
782.27321	3964.975
786.15132	3635.575
790.02671	3466.875
793.89938	3372.475
797.76935	3342.475
801.6366	3342.275
805.50115	3346.375
809.36299	3337.275
813.22213	3326.675
817.07857	3324.575
820.93231	3321.875
824.78336	3311.475
828.63172	3330.975
832.47738	3328.175
836.32036	3328.375
840.16066	3328.175
843.99827	3298.375
847.8332	3307.475
851.66546	3329.475
855.49504	3331.075
859.32195	3355.675
863.1462	3359.775
866.96777	3378.175
870.78668	3379.875
874.60293	3394.875
878.41652	3412.475
882.22745	3436.975
886.03573	3432.075
889.84136	3441.075
893.64433	3430.375
897.44466	3425.675
901.24235	3430.475
905.0374	3417.875
908.8298	3394.675
912.61957	3393.175
916.40671	3404.075
920.19121	3403.875
923.97308	3427.075
927.75233	3462.875
931.52895	3481.075
935.30295	3464.675
939.07433	3435.075
942.84309	3412.175
946.60924	3385.275
950.37278	3360.575
954.13371	3364.675
957.89203	3362.175
961.64774	3370.575
965.40086	3372.975
969.15137	3359.275
972.89929	3357.375
976.64461	3339.175
980.38733	3351.875
984.12747	3361.075
987.86502	3374.475
991.59999	3395.675
995.33237	3404.575
999.06217	3425.275
1002.78939	3452.175
1006.51404	3501.275
1010.23611	3536.875
1013.95561	3545.375
1017.67255	3552.475
1021.38692	3554.175
1025.09872	3533.075
1028.80796	3520.975
1032.51465	3539.275
1036.21877	3539.375
1039.92035	3561.575
1043.61937	3573.875
1047.31584	3607.575
1051.00976	3616.575
1054.70114	3641.075
1058.38998	3632.875
1062.07627	3643.875
1065.76003	3644.175
1069.44126	3653.175
1073.11995	3672.275
1076.79611	3689.975
1080.46974	3750.675
1084.14085	3786.375
1087.80943	3836.775
1091.47549	3863.375
1095.13903	3856.775
1098.80005	3795.975
1102.45857	3767.875
1106.11456	3776.275
1109.76805	3783.675
1113.41903	3850.575
1117.06751	3927.675
1120.71348	4009.075
1124.35696	4096.375
1127.99793	4181.575
1131.63641	4196.475
1135.2724	4104.675
1138.90589	4020.575
1142.5369	3967.675
1146.16542	3902.875
1149.79145	3872.575
1153.415	3834.675
1157.03607	3858.175
1160.65467	3880.575
1164.27079	3923.075
1167.88443	4027.175
1171.49561	4163.275
1175.10432	4370.875
1178.71056	4692.475
1182.31434	4948.375
1185.91565	5044.775
1189.51451	4945.975
1193.11091	4735.475
1196.70485	4581.075
1200.29634	4452.575
1203.88538	4353.175
1207.47197	4243.975
1211.05612	4114.575
1214.63782	4038.475
1218.21708	4003.675
1221.79391	4004.975
1225.36829	4014.975
1228.94024	4014.375
1232.50976	4025.275
1236.07685	4024.275
1239.6415	4032.875
1243.20374	4036.675
1246.76355	4079.075
1250.32093	4086.475
1253.8759	4118.775
1257.42845	4163.375
1260.97859	4226.675
1264.52631	4298.575
1268.07163	4343.675
1271.61453	4391.075
1275.15503	4434.475
1278.69312	4450.075
1282.22882	4441.975
1285.76211	4514.475
1289.29301	4573.875
1292.82151	4643.275
1296.34761	4764.475
1299.87133	4922.475
1303.39266	5199.275
1306.9116	5564.675
1310.42815	5883.975
1313.94233	5952.675
1317.45412	5737.375
1320.96354	5399.675
1324.47058	5115.375
1327.97525	4886.475
1331.47754	4704.975
1334.97747	4641.375
1338.47502	4656.275
1341.97022	4746.775
1345.46305	4892.275
1348.95352	5166.475
1352.44163	5494.575
1355.92738	5897.375
1359.41078	6493.875
1362.89183	7014.675
1366.37053	6837.375
1369.84688	6085.875
1373.32088	5363.275
1376.79254	4929.475
1380.26186	4701.775
1383.72883	4568.675
1387.19347	4441.175
1390.65578	4324.175
1394.11575	4247.875
1397.57339	4190.075
1401.0287	4165.575
1404.48168	4132.675
1407.93234	4151.975
1411.38068	4157.575
1414.82669	4178.675
1418.27039	4187.375
1421.71177	4192.275
1425.15083	4169.775
1428.58758	4150.775
1432.02203	4155.175
1435.45416	4164.875
1438.88399	4166.775
1442.31151	4160.875
1445.73673	4164.275
1449.15965	4172.675
1452.58027	4156.175
1455.9986	4149.875
1459.41463	4149.875
1462.82837	4186.875
1466.23982	4210.775
1469.64898	4278.075
1473.05586	4312.175
1476.46045	4327.475
1479.86276	4352.775
1483.26279	4400.275
1486.66054	4465.375
1490.05602	4548.675
1493.44922	4709.675
1496.84016	4935.675
1500.22882	5312.175
1503.61521	5821.475
1506.99934	6394.775
1510.38121	6735.375
1513.76081	6692.875
1517.13816	6225.275
1520.51324	5647.175
1523.88607	5159.175
1527.25665	4883.275
1530.62498	4749.575
1533.99105	4660.975
1537.35488	4612.875
1540.71647	4577.975
1544.07581	4569.975
1547.4329	4568.575
1550.78776	4590.475
1554.14038	4630.875
1557.49077	4664.675
1560.83892	4701.275
1564.18484	4799.275
1567.52853	4901.775
1570.86999	5012.575
1574.20922	5084.675
1577.54624	5053.475
1580.88103	4911.375
1584.2136	4722.475
1587.54395	4595.675
1590.87208	4608.475
1594.19801	4672.275
1597.52172	4763.275
1600.84321	4796.275
1604.16251	4745.375
1607.47959	4670.975
1610.79447	4590.475
1614.10715	4494.575
1617.41763	4415.575
1620.7259	4374.975
1624.03199	4339.875
1627.33587	4337.675
1630.63757	4364.075
1633.93707	4413.275
1637.23439	4552.775
1640.52951	4729.375
1643.82246	5042.175
1647.11321	5398.375
1650.40179	5633.175
1653.68819	5544.375
1656.97241	5232.175
1660.25446	4853.475
1663.53433	4588.675
1666.81203	4453.875
1670.08756	4349.675
1673.36092	4299.575
1676.63211	4240.875
1679.90115	4218.875
1683.16801	4183.575
1686.43272	4188.475
1689.69527	4150.175
1692.95567	4160.775
1696.2139	4168.275
1699.46999	4170.775
1702.72392	4168.275
1705.97571	4137.575
1709.22535	4134.775
1712.47284	4116.675
1715.71819	4104.575
1718.96139	4101.375
1722.20246	4090.475
1725.44139	4096.775
1728.67818	4092.475
1731.91284	4052.475
1735.14537	4069.875
1738.37576	4050.475
1741.60403	4051.675
1744.83017	4071.575
1748.05418	4088.475
1751.27607	4101.475
1754.49584	4127.675
1757.71349	4134.975
1760.92903	4115.275
1764.14244	4112.575
1767.35375	4100.775
1770.56294	4089.575
1773.77002	4067.875
1776.97499	4076.175
1780.17785	4052.575
1783.37861	4049.875
1786.57727	4051.175
1789.77382	4030.675
1792.96828	4034.475
1796.16064	4028.875
1799.3509	4021.075
1802.53907	4025.875
1805.72514	4026.875
1808.90913	3994.175
1812.09102	4007.275
1815.27083	4000.775
1818.44856	3995.675
1821.6242	4000.375
1824.79776	4007.175
1827.96924	4001.175
1831.13864	4000.275
1834.30597	3990.775
1837.47122	3988.475
1840.6344	3980.475
1843.7955	3996.675
1846.95454	3998.675
1850.11151	3987.575
1853.26642	3991.675
1856.41926	3982.675
1859.57004	3995.675
1862.71876	4001.875
1865.86542	4003.875
1869.01003	4013.875
1872.15258	4021.975
1875.29308	4020.875
1878.43152	4029.675
1881.56792	4021.275
1884.70227	4016.675
1887.83457	4027.375
1890.96482	4021.775
1894.09304	4013.275
1897.21921	4011.275
1900.34335	4013.475
1903.46544	4041.075
1906.58551	4023.775
1909.70353	4033.675
1912.81953	4029.675
1915.93349	4027.275
1919.04543	4023.975
1922.15534	4027.175
1925.26322	4034.575
1928.36908	4031.875
1931.47292	4045.175
1934.57473	4038.475
1937.67453	4031.875
1940.77232	4035.275
1943.86808	4010.375
1946.96184	3998.175
1950.05358	3984.575
1953.14331	3987.075
1956.23103	3989.175
1959.31675	3992.875
1962.40046	3994.775
1965.48217	3978.875
1968.56188	3978.375
1971.63959	3962.775
1974.7153	3953.875
1977.78901	3951.375
1980.86073	3950.675
1983.93046	3933.375
1986.99819	3934.075
1990.06394	3946.375
1993.1277	3924.375
1996.18947	3927.875
1999.24925	3945.575
2002.30706	3906.475
2005.36288	3891.575
2008.41672	3908.775
2011.46859	3912.075
2014.51848	3888.975
2017.56639	3894.075
2020.61233	3887.975
2023.6563	3877.175
2026.6983	3879.875
2029.73833	3866.475
2032.7764	3876.075
2035.8125	3851.275
2038.84664	3857.975
2041.87881	3860.475
2044.90903	3856.775
2047.93729	3864.575
2050.96359	3854.075
2053.98794	3868.975
2057.01034	3864.075
2060.03078	3871.175
2063.04927	3882.675
2066.06582	3862.575
2069.08042	3867.875
2072.09307	3877.475
2075.10378	3883.275
2078.11255	3883.275
2081.11938	3880.875
2084.12426	3876.175
2087.12722	3911.775
2090.12824	3910.875
2093.12732	3935.975
2096.12447	3937.475
2099.11969	3940.375
2102.11299	3950.475
2105.10435	3947.075
2108.09379	3937.675
2111.08131	3943.675
2114.0669	3961.275
2117.05057	3965.675
2120.03233	3987.275
2123.01216	4002.075
2125.99008	4002.475
2128.96609	4008.075
2131.94018	4014.375
2134.91236	4031.775
2137.88263	4051.875
2140.851	4057.875
2143.81746	4052.975
2146.78201	4061.075
2149.74466	4062.775
2152.7054	4050.775
2155.66425	4061.775
2158.6212	4057.075
2161.57625	4069.175
2164.52941	4083.075
2167.48067	4095.475
2170.43004	4087.575
2173.37752	4108.375
2176.32311	4099.575
2179.26681	4100.275
2182.20863	4114.475
2185.14856	4132.775
2188.08661	4133.675
2191.02278	4134.675
2193.95707	4128.275
2196.88948	4134.975
2199.82001	4135.775
2202.74867	4126.275
2205.67545	4159.175
2208.60037	4146.175
2211.52341	4165.775
2214.44458	4150.075
2217.36388	4152.275
2220.28132	4153.875
2223.1969	4141.575
2226.11061	4121.175
2229.02246	4114.875
2231.93245	4112.675
2234.84058	4127.875
2237.74686	4139.875
2240.65128	4133.575
2243.55385	4144.275
2246.45456	4164.075
2249.35343	4137.675
2252.25044	4152.975
2255.14561	4154.175
2258.03893	4150.275
2260.93041	4153.075
2263.82004	4150.375
2266.70783	4144.575
2269.59378	4137.675
2272.4779	4116.975
2275.36017	4121.175
2278.24061	4118.175
2281.11922	4123.975
2283.996	4119.475
2286.87094	4141.575
2289.74405	4123.675
2292.61534	4115.075
2295.4848	4124.475
2298.35243	4116.975
2301.21824	4132.875
2304.08223	4125.675
2306.94439	4149.275
2309.80474	4148.975
2312.66327	4159.875
2315.51999	4145.875
2318.37489	4145.975
2321.22797	4142.975
2324.07925	4132.275
2326.92871	4123.875
2329.77637	4123.975
2332.62222	4120.975
2335.46626	4128.975
2338.3085	4132.275
2341.14893	4124.875
2343.98756	4120.275
2346.8244	4125.175
2349.65943	4126.775
2352.49267	4127.275
2355.32411	4136.875
2358.15376	4139.775
2360.98161	4136.975
2363.80768	4161.775
2366.63195	4171.675
2369.45444	4155.275
2372.27514	4162.775
2375.09405	4174.975
2377.91118	4156.975
2380.72652	4157.475
2383.54009	4167.775
2386.35187	4165.375
2389.16188	4161.175
2391.97011	4126.475
2394.77657	4142.875
2397.58125	4130.175
2400.38416	4142.275
2403.18529	4146.875
2405.98466	4145.775
2408.78226	4122.675
2411.57809	4129.875
2414.37216	4121.275
2417.16446	4149.275
2419.955	4135.575
2422.74378	4150.775
2425.5308	4156.975
2428.31606	4158.775
2431.09956	4150.875
2433.88131	4157.875
2436.6613	4169.575
2439.43954	4158.075
2442.21603	4154.675
2444.99077	4153.575
2447.76377	4140.175
2450.53501	4133.875
2453.30451	4142.175
2456.07226	4152.275
2458.83827	4152.875
2461.60254	4161.075
2464.36507	4163.475
2467.12586	4145.375
2469.88492	4145.975
2472.64224	4142.075
2475.39782	4163.975
2478.15167	4177.275
2480.90379	4159.775
2483.65417	4180.975
2486.40283	4186.075
2489.14976	4179.675
2491.89497	4209.075
2494.63845	4199.175
2497.3802	4193.775
2500.12024	4189.175
2502.85855	4199.575
2505.59514	4168.675
2508.33002	4185.075
2511.06318	4189.575
2513.79462	4176.475
2516.52435	4172.475
2519.25237	4175.175
2521.97867	4171.875
2524.70327	4178.675
2527.42616	4177.375
2530.14734	4178.575
2532.86681	4168.175
2535.58458	4188.675
2538.30065	4189.875
2541.01501	4200.675
2543.72768	4193.775
2546.43864	4189.275
2549.14791	4183.975
2551.85548	4168.375
2554.56136	4163.975
2557.26554	4176.875
2559.96803	4187.275
2562.66883	4175.975
2565.36794	4167.175
2568.06536	4166.775
2570.7611	4140.575
2573.45514	4142.075
2576.14751	4134.375
2578.83819	4134.775
2581.52719	4138.475
2584.21451	4140.875
2586.90015	4140.875
2589.58411	4155.775
2592.2664	4158.475
2594.94701	4141.875
2597.62594	4166.775
2600.30321	4148.475
2602.9788	4138.975
2605.65273	4134.475
2608.32498	4144.975
2610.99557	4150.075
2613.66449	4149.675
2616.33175	4158.475
2618.99734	4136.475
2621.66128	4110.675
2624.32355	4116.575
2626.98416	4123.275
2629.64311	4129.875
2632.30041	4117.075
2634.95605	4134.475
2637.61004	4118.875
2640.26238	4111.075
2642.91306	4107.675
2645.56209	4111.175
2648.20948	4119.175
2650.85521	4101.675
2653.4993	4127.675
2656.14175	4112.675
2658.78255	4150.775
2661.42171	4146.475
2664.05923	4145.375
2666.6951	4156.175
2669.32934	4165.175
2671.96194	4160.775
2674.59291	4171.975
2677.22224	4181.575
2679.84993	4172.275
2682.476	4183.675
2685.10043	4188.075
2687.72324	4158.875
2690.34441	4160.275
2692.96396	4178.075
2695.58188	4184.475
2698.19818	4200.875
2700.81285	4202.475
2703.4259	4215.575
2706.03733	4220.275
2708.64714	4214.375
2711.25533	4200.075
2713.86191	4186.375
2716.46687	4216.875
2719.07021	4224.375
2721.67194	4229.975
2724.27206	4246.575
2726.87057	4251.175
2729.46747	4234.775
2732.06276	4249.475
2734.65644	4239.775
2737.24852	4237.375
2739.83899	4228.275
2742.42786	4238.675
2745.01513	4216.275
2747.60079	4225.575
2750.18486	4215.475
2752.76733	4235.775
2755.3482	4224.575
2757.92747	4223.675
2760.50515	4230.475
2763.08123	4222.775
2765.65573	4231.075
2768.22863	4220.275
2770.79994	4222.575
2773.36967	4209.975
2775.9378	4223.675
2778.50435	4223.675
2781.06932	4210.975
2783.6327	4210.675
2786.1945	4198.975
2788.75471	4200.275
2791.31335	4218.375
2793.87041	4202.375
2796.42589	4194.375
2798.97979	4198.175
2801.53212	4210.175
2804.08288	4191.875
2806.63206	4180.975
2809.17967	4203.675
2811.72571	4181.775
2814.27018	4177.875
2816.81308	4164.575
2819.35442	4151.175
2821.89419	4165.875
2824.43239	4150.175
2826.96904	4167.575
2829.50412	4178.475
2832.03763	4160.775
2834.56959	4140.375
2837.1	4143.675
2839.62884	4158.375
2842.15613	4146.075
2844.68186	4155.775
2847.20604	4154.175
2849.72867	4161.475
2852.24974	4156.375
2854.76927	4167.675
2857.28724	4172.775
2859.80367	4192.875
2862.31855	4171.775
2864.83189	4165.175
2867.34368	4156.375
2869.85393	4156.175
2872.36264	4170.475
2874.8698	4175.575
2877.37543	4178.675
2879.87952	4180.375
2882.38207	4165.375
2884.88308	4174.075
2887.38256	4206.175
2889.88051	4193.375
2892.37692	4190.975
2894.8718	4210.275
2897.36515	4239.975
2899.85698	4248.375
2902.34727	4270.975
2904.83604	4269.675
2907.32328	4271.375
2909.809	4287.675
2912.29319	4297.675
2914.77587	4314.675
2917.25702	4310.375
2919.73665	4297.375
2922.21476	4329.875
2924.69136	4323.175
2927.16644	4319.175
2929.64	4309.875
2932.11205	4322.675
2934.58258	4320.775
2937.05161	4313.175
2939.51912	4345.275
2941.98513	4359.475
2944.44962	4361.475
2946.91261	4333.375
2949.37409	4337.475
2951.83407	4345.575
2954.29254	4357.175
2956.74951	4346.875
2959.20498	4347.075
2961.65895	4317.375
2964.11142	4329.875
2966.56239	4307.275
2969.01186	4328.975
2971.45984	4329.975
2973.90632	4318.175
2976.35131	4322.875
2978.7948	4317.575
2981.23681	4323.475
2983.67732	4337.175
2986.11635	4314.175
2988.55388	4321.075
2990.98993	4318.875
2993.4245	4285.075
2995.85758	4286.575
2998.28917	4269.075
3000.71928	4280.175
3003.14791	4297.775
3005.57506	4270.075
3008.00073	4249.875
3010.42493	4227.575
3012.84764	4265.475
3015.26888	4243.975
3017.68865	4234.075
3020.10694	4248.175
3022.52376	4233.675
3024.9391	4257.075
3027.35298	4251.775
3029.76539	4242.175
3032.17632	4243.075
3034.5858	4247.575
3036.9938	4239.175
3039.40034	4240.175
3041.80542	4276.275
3044.20903	4280.075
3046.61118	4264.375
3049.01187	4256.675
3051.4111	4265.775
3053.80888	4278.475
3056.20519	4270.575
3058.60005	4275.775
3060.99345	4270.175
3063.3854	4276.975
3065.7759	4243.875
3068.16494	4234.075
3070.55254	4218.875
3072.93868	4215.175
3075.32338	4210.075
3077.70662	4207.075
3080.08842	4204.675
3082.46878	4233.875
3084.84769	4221.175
3087.22515	4242.375
3089.60118	4249.975
3091.97576	4228.075
3094.3489	4228.675
3096.72061	4254.775
3099.09087	4277.275
3101.4597	4300.075
3103.82709	4308.075
3106.19305	4305.375
3108.55757	4325.375
3110.92066	4308.075
3113.28232	4322.875
3115.64255	4306.475
3118.00134	4314.175
3120.35871	4325.175
3122.71466	4319.375
3125.06917	4306.375
3127.42226	4310.375
3129.77393	4325.775
3132.12417	4325.075
3134.47299	4336.375
3136.82039	4356.475
3139.16636	4342.575
3141.51092	4363.775
3143.85406	4348.675
3146.19579	4360.275
3148.53609	4375.975
3150.87499	4388.375
3153.21246	4408.075
3155.54853	4412.175
3157.88318	4426.075
3160.21642	4435.175
3162.54826	4428.275
3164.87868	4441.575
3167.2077	4478.275
3169.5353	4489.675
3171.86151	4493.775
3174.18631	4489.775
3176.5097	4481.575
3178.83169	4498.075
3181.15228	4502.875
3183.47147	4503.575
3185.78926	4495.875
3188.10565	4507.775
3190.42065	4506.075
3192.73424	4496.175
3195.04645	4494.975
3197.35725	4490.275
3199.66667	4503.775
3201.97469	4501.375
3204.28132	4509.275
3206.58656	4540.175
3208.8904	4548.975
3211.19287	4543.675
3213.49394	4547.975
3215.79363	4541.775
3218.09193	4555.375
3220.38884	4583.875
3222.68438	4598.175
3224.97853	4613.275
3227.2713	4597.475
3229.56269	4603.975
3231.8527	4609.375
3234.14133	4592.275
3236.42858	4588.075
3238.71446	4603.275
3240.99896	4591.775
