Data from AgNPs_UA_50uM_CRN_500uM_AS_RamanShift__16__15-24-11-560.txt Node

Date: Wed Aug 17 15:24:11 BST 2022
User: TCL
Spectrometer: QEP01345
Trigger mode: 4
Integration Time (sec): 7.000000E0
Scans to average: 10
Electric dark correction enabled: true
Nonlinearity correction enabled: false
Boxcar width: 0
XAxis mode: Raman Shifts
Number of Pixels in Spectrum: 1044
>>>>>Begin Spectral Data<<<<<
46.04893	-1.225
50.45542	-0.225
54.85868	-1.825
59.25871	-0.425
63.6555	25.175
68.04907	26.275
72.43941	28.875
76.82654	28.775
81.21044	32.375
85.59113	30.075
89.96862	38.175
94.34289	40.775
98.71396	39.175
103.08183	42.375
107.4465	39.375
111.80798	39.275
116.16626	39.075
120.52136	36.875
124.87327	39.575
129.222	37.675
133.56755	41.075
137.90993	35.475
142.24913	44.775
146.58517	44.275
150.91804	47.275
155.24774	49.375
159.57429	53.675
163.89768	60.075
168.21792	78.575
172.53501	94.375
176.84895	126.675
181.15975	174.075
185.46741	233.475
189.77193	317.275
194.07331	422.975
198.37157	537.175
202.6667	671.775
206.9587	792.775
211.24758	922.275
215.53334	1056.775
219.81599	1183.475
224.09553	1329.275
228.37195	1491.575
232.64527	1655.875
236.91549	1838.075
241.18261	2012.475
245.44663	2153.875
249.70755	2280.375
253.96539	2383.775
258.22014	2453.975
262.4718	2523.675
266.72039	2554.975
270.96589	2555.575
275.20832	2525.475
279.44768	2483.575
283.68397	2418.075
287.91719	2377.775
292.14735	2357.075
296.37445	2350.875
300.59849	2376.775
304.81948	2412.575
309.03742	2430.475
313.25231	2427.875
317.46415	2377.275
321.67296	2308.575
325.87872	2261.175
330.08145	2239.275
334.28114	2249.775
338.47781	2283.275
342.67145	2317.475
346.86207	2365.575
351.04966	2429.975
355.23424	2515.175
359.4158	2582.175
363.59435	2638.875
367.76989	2674.175
371.94243	2683.575
376.11196	2703.875
380.27849	2724.375
384.44203	2717.275
388.60257	2728.775
392.76012	2741.075
396.91468	2745.575
401.06626	2783.675
405.21485	2811.275
409.36047	2793.975
413.50311	2736.475
417.64277	2706.375
421.77947	2677.275
425.9132	2671.275
430.04396	2692.075
434.17176	2715.475
438.2966	2743.175
442.41849	2773.675
446.53742	2819.675
450.6534	2851.375
454.76644	2874.975
458.87653	2898.975
462.98368	2897.375
467.08789	2894.775
471.18916	2881.475
475.2875	2866.075
479.38291	2849.775
483.4754	2858.075
487.56496	2850.775
491.6516	2861.875
495.73531	2869.875
499.81612	2863.675
503.89401	2871.775
507.96899	2896.375
512.04106	2914.375
516.11023	2938.475
520.1765	2966.575
524.23987	2972.475
528.30034	2954.475
532.35792	2954.675
536.41261	2943.475
540.46441	2942.675
544.51333	2930.075
548.55936	2934.975
552.60252	2949.975
556.64279	2981.075
560.6802	3009.175
564.71473	3037.975
568.7464	3058.075
572.7752	3074.375
576.80114	3052.675
580.82422	3026.075
584.84444	3016.075
588.86181	3031.275
592.87633	3064.375
596.888	3102.575
600.89682	3156.675
604.9028	3330.875
608.90594	3763.975
612.90624	4194.375
616.90371	4000.775
620.89834	3413.175
624.89015	3154.175
628.87913	3142.175
632.86528	3187.175
636.84862	3231.475
640.82913	3226.075
644.80683	3186.375
648.78172	3140.075
652.75379	3162.275
656.72306	3184.975
660.68952	3245.775
664.65319	3234.075
668.61405	3205.575
672.57211	3212.575
676.52738	3264.475
680.47986	3314.675
684.42955	3299.875
688.37646	3275.075
692.32058	3232.875
696.26192	3237.375
700.20048	3234.075
704.13626	3240.875
708.06928	3227.075
711.99952	3203.075
715.927	3217.475
719.85171	3212.475
723.77365	3215.875
727.69284	3224.675
731.60928	3234.475
735.52295	3240.975
739.43388	3228.675
743.34206	3246.875
747.24749	3246.775
751.15017	3254.575
755.05012	3273.875
758.94733	3332.575
762.8418	3466.475
766.73354	3701.775
770.62254	3963.675
774.50882	4073.175
778.39237	3987.275
782.27321	3739.975
786.15132	3520.975
790.02671	3387.075
793.89938	3315.275
797.76935	3300.775
801.6366	3292.375
805.50115	3287.975
809.36299	3296.175
813.22213	3286.675
817.07857	3285.875
820.93231	3281.675
824.78336	3285.775
828.63172	3275.375
832.47738	3276.575
836.32036	3281.175
840.16066	3273.675
843.99827	3279.075
847.8332	3291.475
851.66546	3288.375
855.49504	3312.075
859.32195	3322.775
863.1462	3332.975
866.96777	3341.675
870.78668	3354.575
874.60293	3366.275
878.41652	3386.375
882.22745	3384.175
886.03573	3394.575
889.84136	3405.775
893.64433	3394.675
897.44466	3391.875
901.24235	3388.375
905.0374	3385.075
908.8298	3384.375
912.61957	3365.175
916.40671	3372.675
920.19121	3380.075
923.97308	3405.575
927.75233	3412.375
931.52895	3450.175
935.30295	3438.175
939.07433	3417.975
942.84309	3389.775
946.60924	3384.675
950.37278	3364.175
954.13371	3358.575
957.89203	3370.975
961.64774	3358.575
965.40086	3362.575
969.15137	3356.175
972.89929	3350.075
976.64461	3326.775
980.38733	3345.375
984.12747	3365.575
987.86502	3381.575
991.59999	3388.975
995.33237	3395.875
999.06217	3413.375
1002.78939	3442.575
1006.51404	3463.475
1010.23611	3512.375
1013.95561	3519.075
1017.67255	3535.975
1021.38692	3540.175
1025.09872	3510.375
1028.80796	3498.775
1032.51465	3504.175
1036.21877	3529.475
1039.92035	3533.975
1043.61937	3546.875
1047.31584	3576.675
1051.00976	3577.575
1054.70114	3616.775
1058.38998	3610.275
1062.07627	3623.975
1065.76003	3623.775
1069.44126	3637.875
1073.11995	3638.575
1076.79611	3675.775
1080.46974	3700.875
1084.14085	3740.375
1087.80943	3777.375
1091.47549	3793.075
1095.13903	3791.875
1098.80005	3756.075
1102.45857	3738.975
1106.11456	3735.375
1109.76805	3766.075
1113.41903	3803.675
1117.06751	3843.475
1120.71348	3899.075
1124.35696	3986.675
1127.99793	4040.975
1131.63641	4069.875
1135.2724	4002.875
1138.90589	3939.475
1142.5369	3895.475
1146.16542	3854.475
1149.79145	3824.175
1153.415	3805.275
1157.03607	3801.675
1160.65467	3827.675
1164.27079	3867.075
1167.88443	3923.675
1171.49561	4037.275
1175.10432	4193.975
1178.71056	4413.775
1182.31434	4623.075
1185.91565	4690.975
1189.51451	4626.675
1193.11091	4510.275
1196.70485	4397.175
1200.29634	4302.275
1203.88538	4235.075
1207.47197	4125.675
1211.05612	4046.475
1214.63782	3979.675
1218.21708	3965.875
1221.79391	3957.075
1225.36829	3980.075
1228.94024	3974.975
1232.50976	3981.675
1236.07685	3983.975
1239.6415	4001.475
1243.20374	4014.575
1246.76355	4036.475
1250.32093	4056.375
1253.8759	4079.175
1257.42845	4124.275
1260.97859	4145.075
1264.52631	4197.575
1268.07163	4241.375
1271.61453	4285.275
1275.15503	4304.575
1278.69312	4311.375
1282.22882	4323.275
1285.76211	4355.375
1289.29301	4409.375
1292.82151	4465.975
1296.34761	4532.775
1299.87133	4662.075
1303.39266	4841.375
1306.9116	5082.075
1310.42815	5324.775
1313.94233	5395.775
1317.45412	5245.475
1320.96354	5049.775
1324.47058	4833.975
1327.97525	4651.075
1331.47754	4538.175
1334.97747	4493.575
1338.47502	4517.275
1341.97022	4574.375
1345.46305	4681.775
1348.95352	4880.875
1352.44163	5105.675
1355.92738	5411.175
1359.41078	5802.875
1362.89183	6148.875
1366.37053	6032.875
1369.84688	5514.375
1373.32088	4999.175
1376.79254	4693.075
1380.26186	4503.975
1383.72883	4401.075
1387.19347	4290.575
1390.65578	4225.675
1394.11575	4160.575
1397.57339	4116.775
1401.0287	4081.775
1404.48168	4059.975
1407.93234	4074.375
1411.38068	4073.775
1414.82669	4090.075
1418.27039	4103.675
1421.71177	4103.575
1425.15083	4076.275
1428.58758	4054.475
1432.02203	4069.475
1435.45416	4088.175
1438.88399	4088.475
1442.31151	4085.175
1445.73673	4084.075
1449.15965	4084.275
1452.58027	4087.775
1455.9986	4065.775
1459.41463	4072.075
1462.82837	4101.775
1466.23982	4130.875
1469.64898	4161.475
1473.05586	4182.575
1476.46045	4216.575
1479.86276	4243.075
1483.26279	4280.175
1486.66054	4324.875
1490.05602	4399.975
1493.44922	4499.775
1496.84016	4669.675
1500.22882	4930.975
1503.61521	5299.975
1506.99934	5668.175
1510.38121	5924.175
1513.76081	5891.575
1517.13816	5565.775
1520.51324	5201.975
1523.88607	4858.075
1527.25665	4656.975
1530.62498	4558.775
1533.99105	4512.975
1537.35488	4480.575
1540.71647	4452.975
1544.07581	4463.975
1547.4329	4449.775
1550.78776	4470.075
1554.14038	4501.575
1557.49077	4505.875
1560.83892	4551.375
1564.18484	4624.675
1567.52853	4711.375
1570.86999	4770.675
1574.20922	4823.775
1577.54624	4798.175
1580.88103	4707.175
1584.2136	4575.175
1587.54395	4496.875
1590.87208	4500.675
1594.19801	4547.775
1597.52172	4606.875
1600.84321	4644.675
1604.16251	4613.575
1607.47959	4551.675
1610.79447	4490.175
1614.10715	4430.675
1617.41763	4362.575
1620.7259	4310.475
1624.03199	4292.175
1627.33587	4280.675
1630.63757	4314.675
1633.93707	4355.975
1637.23439	4446.775
1640.52951	4586.275
1643.82246	4805.675
1647.11321	5069.775
1650.40179	5223.275
1653.68819	5175.975
1656.97241	4924.875
1660.25446	4663.575
1663.53433	4490.075
1666.81203	4375.275
1670.08756	4319.375
1673.36092	4268.775
1676.63211	4221.275
1679.90115	4198.375
1683.16801	4181.575
1686.43272	4170.775
1689.69527	4157.675
1692.95567	4154.875
1696.2139	4160.475
1699.46999	4184.775
1702.72392	4151.375
1705.97571	4143.375
1709.22535	4124.475
1712.47284	4122.675
1715.71819	4118.975
1718.96139	4107.175
1722.20246	4100.775
1725.44139	4102.375
1728.67818	4100.475
1731.91284	4080.475
1735.14537	4070.875
1738.37576	4074.475
1741.60403	4088.275
1744.83017	4091.275
1748.05418	4100.975
1751.27607	4122.475
1754.49584	4129.175
1757.71349	4140.475
1760.92903	4133.275
1764.14244	4124.175
1767.35375	4114.675
1770.56294	4111.175
1773.77002	4089.075
1776.97499	4087.975
1780.17785	4092.875
1783.37861	4058.775
1786.57727	4069.675
1789.77382	4066.775
1792.96828	4057.875
1796.16064	4061.775
1799.3509	4060.575
1802.53907	4044.475
1805.72514	4055.475
1808.90913	4028.375
1812.09102	4024.175
1815.27083	4011.375
1818.44856	4017.575
1821.6242	4030.375
1824.79776	4021.875
1827.96924	4023.675
1831.13864	4016.375
1834.30597	4021.475
1837.47122	4001.075
1840.6344	4019.575
1843.7955	4018.375
1846.95454	4018.475
1850.11151	4013.475
1853.26642	4010.075
1856.41926	4016.675
1859.57004	4028.875
1862.71876	4027.875
1865.86542	4012.675
1869.01003	4039.975
1872.15258	4025.275
1875.29308	4046.475
1878.43152	4045.475
1881.56792	4034.275
1884.70227	4047.675
1887.83457	4039.875
1890.96482	4035.975
1894.09304	4041.875
1897.21921	4033.375
1900.34335	4028.775
1903.46544	4043.075
1906.58551	4058.775
1909.70353	4061.075
1912.81953	4064.775
1915.93349	4051.975
1919.04543	4050.375
1922.15534	4050.475
1925.26322	4046.875
1928.36908	4047.475
1931.47292	4047.075
1934.57473	4056.075
1937.67453	4066.775
1940.77232	4062.175
1943.86808	4049.175
1946.96184	4027.875
1950.05358	4003.375
1953.14331	4031.175
1956.23103	4014.175
1959.31675	4004.975
1962.40046	4013.075
1965.48217	4006.375
1968.56188	4011.375
1971.63959	3995.375
1974.7153	3973.375
1977.78901	3963.575
1980.86073	3967.775
1983.93046	3962.375
1986.99819	3959.975
1990.06394	3946.675
1993.1277	3956.375
1996.18947	3955.875
1999.24925	3943.175
2002.30706	3939.375
2005.36288	3927.675
2008.41672	3934.375
2011.46859	3912.575
2014.51848	3904.275
2017.56639	3920.975
2020.61233	3915.275
2023.6563	3905.575
2026.6983	3894.475
2029.73833	3905.975
2032.7764	3889.375
2035.8125	3879.975
2038.84664	3882.675
2041.87881	3867.875
2044.90903	3886.975
2047.93729	3892.675
2050.96359	3873.675
2053.98794	3868.575
2057.01034	3881.975
2060.03078	3895.475
2063.04927	3886.475
2066.06582	3887.075
2069.08042	3896.875
2072.09307	3904.575
2075.10378	3898.475
2078.11255	3902.475
2081.11938	3907.175
2084.12426	3908.875
2087.12722	3911.875
2090.12824	3948.575
2093.12732	3941.375
2096.12447	3946.475
2099.11969	3957.875
2102.11299	3962.875
2105.10435	3962.175
2108.09379	3966.775
2111.08131	3977.375
2114.0669	3983.075
2117.05057	3984.175
2120.03233	4000.175
2123.01216	4026.275
2125.99008	4033.175
2128.96609	4038.075
2131.94018	4046.275
2134.91236	4038.175
2137.88263	4064.575
2140.851	4076.075
2143.81746	4093.875
2146.78201	4089.575
2149.74466	4089.875
2152.7054	4101.075
2155.66425	4077.175
2158.6212	4108.575
2161.57625	4105.875
2164.52941	4118.875
2167.48067	4100.275
2170.43004	4119.775
2173.37752	4125.975
2176.32311	4124.175
2179.26681	4151.475
2182.20863	4153.575
2185.14856	4151.275
2188.08661	4155.175
2191.02278	4159.675
2193.95707	4169.475
2196.88948	4160.975
2199.82001	4144.975
2202.74867	4162.975
2205.67545	4164.775
2208.60037	4183.275
2211.52341	4179.775
2214.44458	4185.575
2217.36388	4164.075
2220.28132	4157.475
2223.1969	4163.575
2226.11061	4140.275
2229.02246	4146.575
2231.93245	4142.975
2234.84058	4156.275
2237.74686	4137.375
2240.65128	4155.775
2243.55385	4169.775
2246.45456	4182.275
2249.35343	4171.575
2252.25044	4161.675
2255.14561	4182.375
2258.03893	4195.075
2260.93041	4174.275
2263.82004	4160.175
2266.70783	4164.875
2269.59378	4139.375
2272.4779	4141.175
2275.36017	4143.375
2278.24061	4144.675
2281.11922	4148.575
2283.996	4145.275
2286.87094	4143.875
2289.74405	4147.675
2292.61534	4140.475
2295.4848	4147.475
2298.35243	4128.775
2301.21824	4146.575
2304.08223	4168.475
2306.94439	4174.975
2309.80474	4166.675
2312.66327	4163.575
2315.51999	4169.975
2318.37489	4166.275
2321.22797	4149.475
2324.07925	4160.275
2326.92871	4154.975
2329.77637	4137.575
2332.62222	4147.675
2335.46626	4152.275
2338.3085	4139.575
2341.14893	4142.475
2343.98756	4158.775
2346.8244	4160.475
2349.65943	4150.775
2352.49267	4154.875
2355.32411	4160.775
2358.15376	4167.075
2360.98161	4152.575
2363.80768	4174.275
2366.63195	4168.675
2369.45444	4163.175
2372.27514	4169.275
2375.09405	4179.175
2377.91118	4178.375
2380.72652	4172.775
2383.54009	4184.575
2386.35187	4189.875
2389.16188	4169.975
2391.97011	4154.875
2394.77657	4156.575
2397.58125	4157.675
2400.38416	4174.975
2403.18529	4166.975
2405.98466	4135.475
2408.78226	4148.675
2411.57809	4129.875
2414.37216	4142.275
2417.16446	4169.775
2419.955	4163.575
2422.74378	4172.975
2425.5308	4179.875
2428.31606	4184.975
2431.09956	4164.775
2433.88131	4184.875
2436.6613	4173.775
2439.43954	4176.675
2442.21603	4176.775
2444.99077	4176.175
2447.76377	4170.975
2450.53501	4158.275
2453.30451	4149.275
2456.07226	4164.475
2458.83827	4173.675
2461.60254	4178.075
2464.36507	4177.675
2467.12586	4170.775
2469.88492	4153.475
2472.64224	4163.375
2475.39782	4190.475
2478.15167	4193.375
2480.90379	4177.075
2483.65417	4178.075
2486.40283	4182.975
2489.14976	4196.575
2491.89497	4201.775
2494.63845	4201.175
2497.3802	4202.875
2500.12024	4220.475
2502.85855	4213.775
2505.59514	4190.075
2508.33002	4198.775
2511.06318	4205.675
2513.79462	4209.075
2516.52435	4199.375
2519.25237	4186.375
2521.97867	4192.775
2524.70327	4188.775
2527.42616	4189.875
2530.14734	4172.875
2532.86681	4194.775
2535.58458	4193.275
2538.30065	4211.975
2541.01501	4226.675
2543.72768	4201.475
2546.43864	4211.575
2549.14791	4212.375
2551.85548	4182.675
2554.56136	4168.075
2557.26554	4189.475
2559.96803	4203.975
2562.66883	4189.475
2565.36794	4183.175
2568.06536	4166.575
2570.7611	4160.275
2573.45514	4147.175
2576.14751	4152.075
2578.83819	4154.975
2581.52719	4151.075
2584.21451	4170.075
2586.90015	4172.675
2589.58411	4161.575
2592.2664	4172.675
2594.94701	4176.775
2597.62594	4156.975
2600.30321	4172.975
2602.9788	4170.075
2605.65273	4161.975
2608.32498	4154.275
2610.99557	4136.875
2613.66449	4167.775
2616.33175	4157.575
2618.99734	4146.875
2621.66128	4137.275
2624.32355	4134.775
2626.98416	4138.975
2629.64311	4133.175
2632.30041	4151.775
2634.95605	4146.875
2637.61004	4128.875
2640.26238	4132.875
2642.91306	4117.275
2645.56209	4116.875
2648.20948	4118.375
2650.85521	4123.975
2653.4993	4129.175
2656.14175	4134.375
2658.78255	4152.575
2661.42171	4156.375
2664.05923	4158.875
2666.6951	4175.875
2669.32934	4184.175
2671.96194	4181.675
2674.59291	4181.375
2677.22224	4172.275
2679.84993	4180.475
2682.476	4181.275
2685.10043	4190.775
2687.72324	4162.075
2690.34441	4181.275
2692.96396	4184.775
2695.58188	4188.475
2698.19818	4198.175
2700.81285	4218.575
2703.4259	4213.475
2706.03733	4223.675
2708.64714	4211.175
2711.25533	4211.675
2713.86191	4205.575
2716.46687	4222.075
2719.07021	4226.175
2721.67194	4253.575
2724.27206	4238.375
2726.87057	4247.175
2729.46747	4243.975
2732.06276	4256.775
2734.65644	4233.575
2737.24852	4248.275
2739.83899	4240.975
2742.42786	4252.575
2745.01513	4245.775
2747.60079	4232.375
2750.18486	4235.575
2752.76733	4241.775
2755.3482	4244.375
2757.92747	4223.475
2760.50515	4217.275
2763.08123	4227.475
2765.65573	4211.675
2768.22863	4217.575
2770.79994	4227.675
2773.36967	4240.675
2775.9378	4229.375
2778.50435	4230.275
2781.06932	4212.975
2783.6327	4216.275
2786.1945	4206.475
2788.75471	4220.075
2791.31335	4193.875
2793.87041	4204.175
2796.42589	4222.875
2798.97979	4199.375
2801.53212	4204.875
2804.08288	4219.675
2806.63206	4190.275
2809.17967	4205.075
2811.72571	4184.275
2814.27018	4183.775
2816.81308	4171.875
2819.35442	4163.875
2821.89419	4156.375
2824.43239	4150.175
2826.96904	4166.275
2829.50412	4168.875
2832.03763	4166.875
2834.56959	4160.375
2837.1	4151.575
2839.62884	4162.175
2842.15613	4148.275
2844.68186	4169.475
2847.20604	4177.775
2849.72867	4163.675
2852.24974	4158.075
2854.76927	4160.375
2857.28724	4170.575
2859.80367	4179.475
2862.31855	4175.075
2864.83189	4169.475
2867.34368	4174.675
2869.85393	4176.075
2872.36264	4163.575
2874.8698	4158.275
2877.37543	4166.475
2879.87952	4172.375
2882.38207	4185.075
2884.88308	4193.475
2887.38256	4197.975
2889.88051	4189.175
2892.37692	4207.075
2894.8718	4211.275
2897.36515	4216.675
2899.85698	4234.075
2902.34727	4265.075
2904.83604	4260.275
2907.32328	4273.175
2909.809	4277.775
2912.29319	4289.975
2914.77587	4299.675
2917.25702	4312.575
2919.73665	4296.775
2922.21476	4325.175
2924.69136	4293.375
2927.16644	4314.375
2929.64	4296.075
2932.11205	4297.575
2934.58258	4323.775
2937.05161	4321.775
2939.51912	4334.075
2941.98513	4352.575
2944.44962	4348.075
2946.91261	4335.075
2949.37409	4344.275
2951.83407	4357.475
2954.29254	4361.575
2956.74951	4352.475
2959.20498	4334.075
2961.65895	4312.675
2964.11142	4332.175
2966.56239	4328.175
2969.01186	4325.375
2971.45984	4320.175
2973.90632	4335.575
2976.35131	4327.275
2978.7948	4318.475
2981.23681	4312.075
2983.67732	4325.675
2986.11635	4328.675
2988.55388	4311.875
2990.98993	4302.375
2993.4245	4298.775
2995.85758	4283.175
2998.28917	4278.775
3000.71928	4274.875
3003.14791	4287.075
3005.57506	4282.075
3008.00073	4259.375
3010.42493	4232.375
3012.84764	4274.675
3015.26888	4261.875
3017.68865	4244.575
3020.10694	4253.975
3022.52376	4254.375
3024.9391	4260.575
3027.35298	4258.875
3029.76539	4253.175
3032.17632	4251.175
3034.5858	4243.175
3036.9938	4252.475
3039.40034	4249.275
3041.80542	4266.475
3044.20903	4274.375
3046.61118	4266.375
3049.01187	4272.875
3051.4111	4267.275
3053.80888	4255.875
3056.20519	4267.975
3058.60005	4269.075
3060.99345	4277.075
3063.3854	4273.375
3065.7759	4266.275
3068.16494	4253.575
3070.55254	4234.975
3072.93868	4228.675
3075.32338	4223.675
3077.70662	4216.675
3080.08842	4207.875
3082.46878	4218.375
3084.84769	4220.675
3087.22515	4235.675
3089.60118	4239.875
3091.97576	4234.175
3094.3489	4230.475
3096.72061	4262.775
3099.09087	4270.675
3101.4597	4290.075
3103.82709	4312.775
3106.19305	4312.575
3108.55757	4326.675
3110.92066	4306.975
3113.28232	4308.475
3115.64255	4322.375
3118.00134	4326.475
3120.35871	4320.675
3122.71466	4300.375
3125.06917	4319.075
3127.42226	4316.275
3129.77393	4325.575
3132.12417	4335.175
3134.47299	4345.975
3136.82039	4338.075
3139.16636	4357.875
3141.51092	4348.275
3143.85406	4353.475
3146.19579	4367.175
3148.53609	4382.175
3150.87499	4391.675
3153.21246	4421.575
3155.54853	4425.575
3157.88318	4416.875
3160.21642	4440.475
3162.54826	4432.775
3164.87868	4434.975
3167.2077	4465.475
3169.5353	4475.475
3171.86151	4476.075
3174.18631	4490.675
3176.5097	4487.475
3178.83169	4505.375
3181.15228	4489.775
3183.47147	4481.775
3185.78926	4504.575
3188.10565	4487.475
3190.42065	4503.575
3192.73424	4497.575
3195.04645	4492.575
3197.35725	4472.175
3199.66667	4481.775
3201.97469	4505.475
3204.28132	4511.175
3206.58656	4541.075
3208.8904	4555.175
3211.19287	4555.375
3213.49394	4551.875
3215.79363	4555.875
3218.09193	4567.575
3220.38884	4589.275
3222.68438	4609.275
3224.97853	4599.275
3227.2713	4620.675
3229.56269	4592.275
3231.8527	4603.575
3234.14133	4608.975
3236.42858	4585.375
3238.71446	4588.975
3240.99896	4569.975
