Data from AgNPs_UA_20uM_CRN_500uM_AS_RamanShift__31__14-59-41-534.txt Node

Date: Wed Aug 17 14:59:41 BST 2022
User: TCL
Spectrometer: QEP01345
Trigger mode: 4
Integration Time (sec): 7.000000E0
Scans to average: 10
Electric dark correction enabled: true
Nonlinearity correction enabled: false
Boxcar width: 0
XAxis mode: Raman Shifts
Number of Pixels in Spectrum: 1044
>>>>>Begin Spectral Data<<<<<
46.04893	-1.2125
50.45542	0.9875
54.85868	-0.9125
59.25871	-0.5125
63.6555	52.2875
68.04907	50.6875
72.43941	53.7875
76.82654	60.8875
81.21044	59.1875
85.59113	64.1875
89.96862	66.5875
94.34289	73.3875
98.71396	75.8875
103.08183	78.0875
107.4465	78.8875
111.80798	80.0875
116.16626	80.4875
120.52136	82.1875
124.87327	81.8875
129.222	87.6875
133.56755	90.9875
137.90993	94.8875
142.24913	109.9875
146.58517	122.5875
150.91804	135.1875
155.24774	158.1875
159.57429	187.3875
163.89768	241.8875
168.21792	311.8875
172.53501	418.9875
176.84895	580.6875
181.15975	815.8875
185.46741	1150.9875
189.77193	1600.2875
194.07331	2163.3875
198.37157	2799.8875
202.6667	3493.0875
206.9587	4211.2875
211.24758	5010.9875
215.53334	5899.4875
219.81599	6909.8875
224.09553	8133.2875
228.37195	9448.9875
232.64527	10765.1875
236.91549	11928.2875
241.18261	12828.1875
245.44663	13336.6875
249.70755	13709.2875
253.96539	14041.1875
258.22014	14238.2875
262.4718	14225.5875
266.72039	13932.8875
270.96589	13355.2875
275.20832	12658.0875
279.44768	11900.1875
283.68397	11373.3875
287.91719	11207.1875
292.14735	11511.0875
296.37445	12363.9875
300.59849	13835.4875
304.81948	15753.9875
309.03742	17442.3875
313.25231	17984.1875
317.46415	16673.8875
321.67296	14153.0875
325.87872	12099.5875
330.08145	11211.7875
334.28114	11299.4875
338.47781	11872.6875
342.67145	12664.5875
346.86207	13905.0875
351.04966	15868.6875
355.23424	18036.9875
359.4158	19343.1875
363.59435	19500.8875
367.76989	18848.1875
371.94243	17949.2875
376.11196	17065.5875
380.27849	16293.1875
384.44203	15559.9875
388.60257	14875.9875
392.76012	14525.5875
396.91468	14635.3875
401.06626	15121.3875
405.21485	15285.8875
409.36047	14341.7875
413.50311	12522.6875
417.64277	10826.5875
421.77947	9838.8875
425.9132	9352.5875
430.04396	9196.0875
434.17176	9248.6875
438.2966	9543.8875
442.41849	10019.1875
446.53742	10545.4875
450.6534	10841.2875
454.76644	10783.8875
458.87653	10456.8875
462.98368	10101.5875
467.08789	9745.3875
471.18916	9312.6875
475.2875	8804.1875
479.38291	8365.8875
483.4754	8098.7875
487.56496	7908.6875
491.6516	7801.2875
495.73531	7790.1875
499.81612	7895.6875
503.89401	8161.8875
507.96899	8546.5875
512.04106	9078.1875
516.11023	9593.0875
520.1765	9959.4875
524.23987	9987.2875
528.30034	9763.0875
532.35792	9506.0875
536.41261	9134.3875
540.46441	8630.8875
544.51333	8282.4875
548.55936	8303.4875
552.60252	8661.4875
556.64279	9131.0875
560.6802	9585.2875
564.71473	10790.5875
568.7464	12509.4875
572.7752	12563.4875
576.80114	10427.4875
580.82422	8567.6875
584.84444	7744.4875
588.86181	7485.5875
592.87633	7549.8875
596.888	7992.3875
600.89682	9369.8875
604.9028	13815.0875
608.90594	24614.2875
612.90624	36644.4875
616.90371	31845.6875
620.89834	16549.9875
624.89015	10200.9875
628.87913	9430.2875
632.86528	10239.8875
636.84862	10730.8875
640.82913	9726.8875
644.80683	8190.0875
648.78172	7375.5875
652.75379	7609.6875
656.72306	8832.6875
660.68952	9951.2875
664.65319	9074.7875
668.61405	7545.5875
672.57211	6999.9875
676.52738	7044.4875
680.47986	6937.0875
684.42955	6644.5875
688.37646	6494.7875
692.32058	6559.4875
696.26192	6768.5875
700.20048	7052.6875
704.13626	7124.9875
708.06928	6977.4875
711.99952	6844.2875
715.927	6897.3875
719.85171	7163.2875
723.77365	7347.6875
727.69284	7208.9875
731.60928	7009.3875
735.52295	6937.4875
739.43388	6942.3875
743.34206	6994.7875
747.24749	6985.1875
751.15017	7026.0875
755.05012	7545.0875
758.94733	9470.4875
762.8418	13792.6875
766.73354	19268.3875
770.62254	22847.1875
774.50882	24460.0875
778.39237	23440.5875
782.27321	18194.1875
786.15132	12308.2875
790.02671	9059.9875
793.89938	7681.6875
797.76935	7107.7875
801.6366	6866.1875
805.50115	6720.0875
809.36299	6631.5875
813.22213	6558.5875
817.07857	6544.0875
820.93231	6605.1875
824.78336	6759.8875
828.63172	6980.2875
832.47738	7016.3875
836.32036	6817.1875
840.16066	6538.6875
843.99827	6341.5875
847.8332	6279.6875
851.66546	6299.6875
855.49504	6302.4875
859.32195	6267.4875
863.1462	6189.9875
866.96777	6146.1875
870.78668	6166.2875
874.60293	6259.7875
878.41652	6391.2875
882.22745	6607.0875
886.03573	6713.3875
889.84136	6725.7875
893.64433	6666.6875
897.44466	6755.4875
901.24235	6768.6875
905.0374	6562.2875
908.8298	6311.0875
912.61957	6121.2875
916.40671	6052.2875
920.19121	6093.2875
923.97308	6330.4875
927.75233	6877.8875
931.52895	7426.7875
935.30295	7053.6875
939.07433	6212.3875
942.84309	5661.5875
946.60924	5408.0875
950.37278	5321.8875
954.13371	5292.4875
957.89203	5286.9875
961.64774	5309.0875
965.40086	5250.7875
969.15137	5228.8875
972.89929	5213.9875
976.64461	5182.7875
980.38733	5177.4875
984.12747	5178.2875
987.86502	5220.9875
991.59999	5258.6875
995.33237	5363.8875
999.06217	5525.7875
1002.78939	5749.6875
1006.51404	6044.0875
1010.23611	6235.2875
1013.95561	6225.7875
1017.67255	6097.1875
1021.38692	5879.2875
1025.09872	5646.0875
1028.80796	5541.4875
1032.51465	5574.0875
1036.21877	5693.2875
1039.92035	5828.8875
1043.61937	5965.5875
1047.31584	6063.7875
1051.00976	6062.3875
1054.70114	5941.1875
1058.38998	5840.2875
1062.07627	5829.2875
1065.76003	5815.5875
1069.44126	5889.4875
1073.11995	6104.6875
1076.79611	6662.0875
1080.46974	7554.2875
1084.14085	8557.6875
1087.80943	9169.0875
1091.47549	9070.7875
1095.13903	8364.3875
1098.80005	7460.3875
1102.45857	6985.0875
1106.11456	6985.4875
1109.76805	7394.7875
1113.41903	8280.4875
1117.06751	9724.6875
1120.71348	11874.7875
1124.35696	14430.5875
1127.99793	15280.8875
1131.63641	13393.8875
1135.2724	10810.2875
1138.90589	9071.7875
1142.5369	8070.8875
1146.16542	7440.3875
1149.79145	7084.8875
1153.415	6999.5875
1157.03607	7103.0875
1160.65467	7489.6875
1164.27079	8175.0875
1167.88443	9308.9875
1171.49561	11166.3875
1175.10432	14326.8875
1178.71056	18329.7875
1182.31434	21066.2875
1185.91565	21104.8875
1189.51451	19196.7875
1193.11091	16722.0875
1196.70485	14647.8875
1200.29634	13342.7875
1203.88538	11968.4875
1207.47197	10084.6875
1211.05612	8448.2875
1214.63782	7452.0875
1218.21708	6968.0875
1221.79391	6741.8875
1225.36829	6715.9875
1228.94024	6692.2875
1232.50976	6696.4875
1236.07685	6772.4875
1239.6415	6946.5875
1243.20374	7134.7875
1246.76355	7315.1875
1250.32093	7556.0875
1253.8759	7957.6875
1257.42845	8594.8875
1260.97859	9479.4875
1264.52631	10401.9875
1268.07163	11078.2875
1271.61453	11366.6875
1275.15503	11245.2875
1278.69312	11116.7875
1282.22882	11473.6875
1285.76211	12427.2875
1289.29301	13381.4875
1292.82151	14134.9875
1296.34761	15197.2875
1299.87133	17307.6875
1303.39266	21335.5875
1306.9116	27596.4875
1310.42815	33116.6875
1313.94233	33451.1875
1317.45412	28436.4875
1320.96354	22028.4875
1324.47058	16678.2875
1327.97525	13169.0875
1331.47754	11503.3875
1334.97747	11229.5875
1338.47502	12116.5875
1341.97022	14404.9875
1345.46305	17862.8875
1348.95352	21831.2875
1352.44163	26704.0875
1355.92738	34375.6875
1359.41078	44875.5875
1362.89183	49855.6875
1366.37053	42130.8875
1369.84688	30148.6875
1373.32088	21977.5875
1376.79254	17533.2875
1380.26186	14656.8875
1383.72883	12256.6875
1387.19347	10290.4875
1390.65578	8824.0875
1394.11575	7929.1875
1397.57339	7471.0875
1401.0287	7266.5875
1404.48168	7125.5875
1407.93234	7152.1875
1411.38068	7401.3875
1414.82669	7756.4875
1418.27039	7906.3875
1421.71177	7879.5875
1425.15083	7883.0875
1428.58758	8270.5875
1432.02203	8678.5875
1435.45416	8661.7875
1438.88399	8365.6875
1442.31151	8169.1875
1445.73673	8258.3875
1449.15965	8299.0875
1452.58027	8135.7875
1455.9986	7911.4875
1459.41463	7940.0875
1462.82837	8306.2875
1466.23982	8786.9875
1469.64898	8988.5875
1473.05586	8995.2875
1476.46045	8988.4875
1479.86276	9256.4875
1483.26279	9888.8875
1486.66054	10990.8875
1490.05602	12666.2875
1493.44922	15225.5875
1496.84016	19354.5875
1500.22882	25708.0875
1503.61521	34483.5875
1506.99934	44051.6875
1510.38121	50672.5875
1513.76081	50334.7875
1517.13816	42640.2875
1520.51324	31904.3875
1523.88607	22900.1875
1527.25665	17409.1875
1530.62498	14322.2875
1533.99105	12488.3875
1537.35488	11416.1875
1540.71647	10916.9875
1544.07581	10962.5875
1547.4329	11283.1875
1550.78776	11717.6875
1554.14038	12093.5875
1557.49077	12505.9875
1560.83892	13322.2875
1564.18484	14918.6875
1567.52853	16760.7875
1570.86999	17942.6875
1574.20922	18253.4875
1577.54624	17224.5875
1580.88103	14462.5875
1584.2136	11408.7875
1587.54395	9633.3875
1590.87208	9266.6875
1594.19801	10090.1875
1597.52172	11237.7875
1600.84321	11460.3875
1604.16251	10654.9875
1607.47959	9611.4875
1610.79447	8565.6875
1614.10715	7625.0875
1617.41763	6960.1875
1620.7259	6637.5875
1624.03199	6637.6875
1627.33587	6878.3875
1630.63757	7426.1875
1633.93707	8396.0875
1637.23439	10205.0875
1640.52951	13439.2875
1643.82246	18579.4875
1647.11321	24447.1875
1650.40179	27575.8875
1653.68819	25282.5875
1656.97241	19357.8875
1660.25446	13606.2875
1663.53433	9831.2875
1666.81203	7656.7875
1670.08756	6499.4875
1673.36092	5811.4875
1676.63211	5416.9875
1679.90115	5130.8875
1683.16801	4958.3875
1686.43272	4849.1875
1689.69527	4757.1875
1692.95567	4687.1875
1696.2139	4670.7875
1699.46999	4641.4875
1702.72392	4622.0875
1705.97571	4581.4875
1709.22535	4558.1875
1712.47284	4561.4875
1715.71819	4547.6875
1718.96139	4509.1875
1722.20246	4459.3875
1725.44139	4352.4875
1728.67818	4271.6875
1731.91284	4160.4875
1735.14537	4099.8875
1738.37576	4051.0875
1741.60403	4016.1875
1744.83017	3988.8875
1748.05418	3955.3875
1751.27607	3917.1875
1754.49584	3897.2875
1757.71349	3847.2875
1760.92903	3803.0875
1764.14244	3755.6875
1767.35375	3684.5875
1770.56294	3641.5875
1773.77002	3574.4875
1776.97499	3523.7875
1780.17785	3453.8875
1783.37861	3428.5875
1786.57727	3389.5875
1789.77382	3374.3875
1792.96828	3347.2875
1796.16064	3322.8875
1799.3509	3322.7875
1802.53907	3292.6875
1805.72514	3281.0875
1808.90913	3251.9875
1812.09102	3236.9875
1815.27083	3217.1875
1818.44856	3183.2875
1821.6242	3173.7875
1824.79776	3158.3875
1827.96924	3123.5875
1831.13864	3098.2875
1834.30597	3089.1875
1837.47122	3060.2875
1840.6344	3024.8875
1843.7955	3015.1875
1846.95454	3003.1875
1850.11151	2995.5875
1853.26642	2992.0875
1856.41926	2989.2875
1859.57004	2988.1875
1862.71876	2997.2875
1865.86542	3001.8875
1869.01003	3009.2875
1872.15258	3008.7875
1875.29308	3019.3875
1878.43152	3013.7875
1881.56792	3010.5875
1884.70227	3017.8875
1887.83457	2987.8875
1890.96482	2981.5875
1894.09304	2952.0875
1897.21921	2954.5875
1900.34335	2950.4875
1903.46544	2945.2875
1906.58551	2948.6875
1909.70353	2951.5875
1912.81953	2942.2875
1915.93349	2930.1875
1919.04543	2912.1875
1922.15534	2902.1875
1925.26322	2890.5875
1928.36908	2856.8875
1931.47292	2827.6875
1934.57473	2788.2875
1937.67453	2761.3875
1940.77232	2732.1875
1943.86808	2704.7875
1946.96184	2697.5875
1950.05358	2701.0875
1953.14331	2691.1875
1956.23103	2687.9875
1959.31675	2695.6875
1962.40046	2698.1875
1965.48217	2704.3875
1968.56188	2736.0875
1971.63959	2734.2875
1974.7153	2732.1875
1977.78901	2701.0875
1980.86073	2662.0875
1983.93046	2636.8875
1986.99819	2604.4875
1990.06394	2561.8875
1993.1277	2552.3875
1996.18947	2535.6875
1999.24925	2501.6875
2002.30706	2477.2875
2005.36288	2472.9875
2008.41672	2470.1875
2011.46859	2443.4875
2014.51848	2441.6875
2017.56639	2432.5875
2020.61233	2431.2875
2023.6563	2419.4875
2026.6983	2397.5875
2029.73833	2392.3875
2032.7764	2376.2875
2035.8125	2368.4875
2038.84664	2361.1875
2041.87881	2365.9875
2044.90903	2353.6875
2047.93729	2346.2875
2050.96359	2328.6875
2053.98794	2323.4875
2057.01034	2315.1875
2060.03078	2306.4875
2063.04927	2287.2875
2066.06582	2279.9875
2069.08042	2266.5875
2072.09307	2261.9875
2075.10378	2269.1875
2078.11255	2272.2875
2081.11938	2255.4875
2084.12426	2266.1875
2087.12722	2270.7875
2090.12824	2265.9875
2093.12732	2266.1875
2096.12447	2253.6875
2099.11969	2259.2875
2102.11299	2256.2875
2105.10435	2257.3875
2108.09379	2260.2875
2111.08131	2260.0875
2114.0669	2281.8875
2117.05057	2301.5875
2120.03233	2320.2875
2123.01216	2341.5875
2125.99008	2342.2875
2128.96609	2351.6875
2131.94018	2337.2875
2134.91236	2319.1875
2137.88263	2316.0875
2140.851	2292.1875
2143.81746	2276.2875
2146.78201	2261.3875
2149.74466	2250.3875
2152.7054	2219.2875
2155.66425	2211.1875
2158.6212	2213.0875
2161.57625	2202.5875
2164.52941	2188.0875
2167.48067	2186.3875
2170.43004	2187.2875
2173.37752	2196.4875
2176.32311	2186.0875
2179.26681	2190.5875
2182.20863	2207.1875
2185.14856	2194.5875
2188.08661	2190.1875
2191.02278	2174.0875
2193.95707	2165.6875
2196.88948	2151.4875
2199.82001	2146.0875
2202.74867	2133.6875
2205.67545	2136.2875
2208.60037	2136.2875
2211.52341	2151.1875
2214.44458	2135.1875
2217.36388	2112.5875
2220.28132	2108.2875
2223.1969	2102.1875
2226.11061	2098.4875
2229.02246	2084.6875
2231.93245	2073.3875
2234.84058	2066.2875
2237.74686	2061.6875
2240.65128	2063.5875
2243.55385	2074.9875
2246.45456	2082.4875
2249.35343	2083.5875
2252.25044	2118.9875
2255.14561	2130.6875
2258.03893	2165.4875
2260.93041	2195.1875
2263.82004	2202.5875
2266.70783	2179.0875
2269.59378	2172.0875
2272.4779	2152.9875
2275.36017	2145.8875
2278.24061	2140.7875
2281.11922	2138.7875
2283.996	2121.3875
2286.87094	2097.8875
2289.74405	2089.9875
2292.61534	2071.3875
2295.4848	2054.9875
2298.35243	2038.3875
2301.21824	2023.6875
2304.08223	2022.5875
2306.94439	2034.3875
2309.80474	2030.0875
2312.66327	2020.6875
2315.51999	2013.5875
2318.37489	2011.6875
2321.22797	2002.1875
2324.07925	1998.7875
2326.92871	1988.7875
2329.77637	1990.5875
2332.62222	1991.4875
2335.46626	1995.4875
2338.3085	1993.3875
2341.14893	1986.8875
2343.98756	2008.1875
2346.8244	2005.1875
2349.65943	2012.8875
2352.49267	2035.1875
2355.32411	2055.3875
2358.15376	2064.1875
2360.98161	2086.0875
2363.80768	2103.3875
2366.63195	2130.0875
2369.45444	2141.1875
2372.27514	2149.9875
2375.09405	2147.4875
2377.91118	2146.9875
2380.72652	2131.8875
2383.54009	2119.1875
2386.35187	2095.5875
2389.16188	2057.5875
2391.97011	2037.9875
2394.77657	2009.8875
2397.58125	1994.9875
2400.38416	1977.2875
2403.18529	1962.9875
2405.98466	1944.2875
2408.78226	1944.7875
2411.57809	1930.9875
2414.37216	1926.9875
2417.16446	1929.8875
2419.955	1937.1875
2422.74378	1944.0875
2425.5308	1943.5875
2428.31606	1947.5875
2431.09956	1958.9875
2433.88131	1961.3875
2436.6613	1965.5875
2439.43954	1986.5875
2442.21603	1993.1875
2444.99077	1994.5875
2447.76377	2013.0875
2450.53501	2015.6875
2453.30451	2019.7875
2456.07226	2022.3875
2458.83827	2053.9875
2461.60254	2019.5875
2464.36507	2012.8875
2467.12586	2009.0875
2469.88492	2000.9875
2472.64224	2023.3875
2475.39782	2033.3875
2478.15167	2062.1875
2480.90379	2074.6875
2483.65417	2098.1875
2486.40283	2127.1875
2489.14976	2149.7875
2491.89497	2160.0875
2494.63845	2166.1875
2497.3802	2154.0875
2500.12024	2133.5875
2502.85855	2121.5875
2505.59514	2078.6875
2508.33002	2035.7875
2511.06318	2008.3875
2513.79462	1964.5875
2516.52435	1922.1875
2519.25237	1894.1875
2521.97867	1877.1875
2524.70327	1854.1875
2527.42616	1843.8875
2530.14734	1845.5875
2532.86681	1848.2875
2535.58458	1847.2875
2538.30065	1855.0875
2541.01501	1861.7875
2543.72768	1870.9875
2546.43864	1885.0875
2549.14791	1881.1875
2551.85548	1892.1875
2554.56136	1900.0875
2557.26554	1890.4875
2559.96803	1891.5875
2562.66883	1893.4875
2565.36794	1889.1875
2568.06536	1877.2875
2570.7611	1881.7875
2573.45514	1874.6875
2576.14751	1862.0875
2578.83819	1845.3875
2581.52719	1835.5875
2584.21451	1828.0875
2586.90015	1834.7875
2589.58411	1828.7875
2592.2664	1805.7875
2594.94701	1812.9875
2597.62594	1820.5875
2600.30321	1807.5875
2602.9788	1819.7875
2605.65273	1813.6875
2608.32498	1819.3875
2610.99557	1831.3875
2613.66449	1835.3875
2616.33175	1826.2875
2618.99734	1830.7875
2621.66128	1819.6875
2624.32355	1818.7875
2626.98416	1802.0875
2629.64311	1794.0875
2632.30041	1786.7875
2634.95605	1778.0875
2637.61004	1772.6875
2640.26238	1775.5875
2642.91306	1754.9875
2645.56209	1748.1875
2648.20948	1751.0875
2650.85521	1750.2875
2653.4993	1754.5875
2656.14175	1762.8875
2658.78255	1777.5875
2661.42171	1779.5875
2664.05923	1801.0875
2666.6951	1812.7875
2669.32934	1826.1875
2671.96194	1819.0875
2674.59291	1819.2875
2677.22224	1828.8875
2679.84993	1816.4875
2682.476	1833.0875
2685.10043	1810.9875
2687.72324	1812.8875
2690.34441	1804.7875
2692.96396	1801.4875
2695.58188	1796.4875
2698.19818	1799.2875
2700.81285	1804.8875
2703.4259	1805.5875
2706.03733	1811.6875
2708.64714	1819.5875
2711.25533	1822.7875
2713.86191	1830.9875
2716.46687	1833.1875
2719.07021	1848.7875
2721.67194	1854.0875
2724.27206	1849.2875
2726.87057	1842.2875
2729.46747	1827.1875
2732.06276	1829.6875
2734.65644	1817.4875
2737.24852	1793.5875
2739.83899	1786.3875
2742.42786	1780.9875
2745.01513	1757.3875
2747.60079	1748.9875
2750.18486	1734.3875
2752.76733	1729.0875
2755.3482	1720.5875
2757.92747	1712.7875
2760.50515	1711.2875
2763.08123	1702.2875
2765.65573	1699.6875
2768.22863	1699.9875
2770.79994	1701.0875
2773.36967	1711.2875
2775.9378	1710.5875
2778.50435	1714.1875
2781.06932	1716.7875
2783.6327	1727.8875
2786.1945	1730.4875
2788.75471	1738.7875
2791.31335	1756.1875
2793.87041	1765.3875
2796.42589	1783.5875
2798.97979	1794.2875
2801.53212	1808.3875
2804.08288	1825.5875
2806.63206	1842.4875
2809.17967	1862.7875
2811.72571	1891.5875
2814.27018	1914.8875
2816.81308	1927.9875
2819.35442	1951.6875
2821.89419	1962.0875
2824.43239	1988.7875
2826.96904	1982.6875
2829.50412	2007.3875
2832.03763	1989.6875
2834.56959	1990.4875
2837.1	1992.3875
2839.62884	1995.1875
2842.15613	2006.8875
2844.68186	2018.0875
2847.20604	2047.6875
2849.72867	2065.3875
2852.24974	2086.4875
2854.76927	2107.3875
2857.28724	2140.8875
2859.80367	2155.8875
2862.31855	2192.0875
2864.83189	2215.3875
2867.34368	2239.0875
2869.85393	2262.8875
2872.36264	2278.2875
2874.8698	2282.4875
2877.37543	2269.1875
2879.87952	2260.4875
2882.38207	2253.7875
2884.88308	2234.5875
2887.38256	2242.0875
2889.88051	2225.0875
2892.37692	2225.6875
2894.8718	2227.8875
2897.36515	2228.6875
2899.85698	2225.4875
2902.34727	2216.1875
2904.83604	2218.3875
2907.32328	2189.5875
2909.809	2182.3875
2912.29319	2172.2875
2914.77587	2136.9875
2917.25702	2145.7875
2919.73665	2128.8875
2922.21476	2119.0875
2924.69136	2106.4875
2927.16644	2101.6875
2929.64	2097.1875
2932.11205	2074.5875
2934.58258	2064.0875
2937.05161	2063.0875
2939.51912	2048.4875
2941.98513	2057.7875
2944.44962	2024.7875
2946.91261	2004.2875
2949.37409	1999.1875
2951.83407	1989.5875
2954.29254	1995.6875
2956.74951	1971.6875
2959.20498	1964.6875
2961.65895	1951.7875
2964.11142	1937.5875
2966.56239	1926.3875
2969.01186	1914.5875
2971.45984	1890.0875
2973.90632	1881.1875
2976.35131	1863.4875
2978.7948	1845.3875
2981.23681	1848.5875
2983.67732	1834.5875
2986.11635	1830.8875
2988.55388	1817.0875
2990.98993	1819.9875
2993.4245	1822.5875
2995.85758	1827.0875
2998.28917	1834.7875
3000.71928	1834.0875
3003.14791	1837.1875
3005.57506	1842.9875
3008.00073	1837.8875
3010.42493	1801.8875
3012.84764	1842.8875
3015.26888	1834.1875
3017.68865	1832.8875
3020.10694	1826.8875
3022.52376	1821.0875
3024.9391	1817.4875
3027.35298	1799.4875
3029.76539	1789.3875
3032.17632	1776.7875
3034.5858	1755.8875
3036.9938	1739.7875
3039.40034	1728.3875
3041.80542	1720.6875
3044.20903	1714.2875
3046.61118	1706.8875
3049.01187	1696.0875
3051.4111	1700.5875
3053.80888	1705.9875
3056.20519	1681.6875
3058.60005	1686.7875
3060.99345	1681.7875
3063.3854	1680.6875
3065.7759	1671.5875
3068.16494	1666.1875
3070.55254	1658.3875
3072.93868	1662.3875
3075.32338	1643.6875
3077.70662	1639.5875
3080.08842	1636.0875
3082.46878	1639.2875
3084.84769	1639.5875
3087.22515	1639.5875
3089.60118	1642.7875
3091.97576	1641.7875
3094.3489	1643.8875
3096.72061	1651.9875
3099.09087	1644.6875
3101.4597	1649.3875
3103.82709	1647.5875
3106.19305	1665.0875
3108.55757	1674.5875
