Data from AgNPs_UA_50uM_CRN_500uM_AS_RamanShift__18__15-26-31-563.txt Node

Date: Wed Aug 17 15:26:31 BST 2022
User: TCL
Spectrometer: QEP01345
Trigger mode: 4
Integration Time (sec): 7.000000E0
Scans to average: 10
Electric dark correction enabled: true
Nonlinearity correction enabled: false
Boxcar width: 0
XAxis mode: Raman Shifts
Number of Pixels in Spectrum: 1044
>>>>>Begin Spectral Data<<<<<
46.04893	-1.1625
50.45542	0.5375
54.85868	-1.3625
59.25871	-1.2625
63.6555	26.4375
68.04907	26.0375
72.43941	30.3375
76.82654	32.3375
81.21044	33.6375
85.59113	31.7375
89.96862	32.4375
94.34289	39.9375
98.71396	40.4375
103.08183	39.8375
107.4465	39.7375
111.80798	38.4375
116.16626	38.3375
120.52136	38.0375
124.87327	40.4375
129.222	38.9375
133.56755	38.3375
137.90993	38.8375
142.24913	42.3375
146.58517	44.7375
150.91804	46.8375
155.24774	50.5375
159.57429	52.6375
163.89768	64.4375
168.21792	79.1375
172.53501	98.1375
176.84895	131.2375
181.15975	175.8375
185.46741	238.5375
189.77193	330.4375
194.07331	434.2375
198.37157	561.1375
202.6667	692.1375
206.9587	821.8375
211.24758	948.5375
215.53334	1091.6375
219.81599	1236.4375
224.09553	1390.3375
228.37195	1560.3375
232.64527	1736.0375
236.91549	1928.2375
241.18261	2099.7375
245.44663	2253.5375
249.70755	2372.8375
253.96539	2474.6375
258.22014	2542.3375
262.4718	2606.0375
266.72039	2635.1375
270.96589	2641.2375
275.20832	2619.8375
279.44768	2554.3375
283.68397	2493.8375
287.91719	2446.7375
292.14735	2437.7375
296.37445	2441.6375
300.59849	2460.1375
304.81948	2508.8375
309.03742	2546.5375
313.25231	2536.0375
317.46415	2478.2375
321.67296	2393.7375
325.87872	2335.9375
330.08145	2302.4375
334.28114	2318.1375
338.47781	2345.3375
342.67145	2386.7375
346.86207	2438.9375
351.04966	2527.8375
355.23424	2621.0375
359.4158	2712.9375
363.59435	2767.9375
367.76989	2803.5375
371.94243	2822.3375
376.11196	2833.0375
380.27849	2837.0375
384.44203	2842.4375
388.60257	2839.3375
392.76012	2843.1375
396.91468	2860.4375
401.06626	2886.3375
405.21485	2922.8375
409.36047	2885.9375
413.50311	2818.2375
417.64277	2755.9375
421.77947	2745.2375
425.9132	2733.1375
430.04396	2741.3375
434.17176	2751.4375
438.2966	2799.4375
442.41849	2829.6375
446.53742	2880.8375
450.6534	2913.1375
454.76644	2947.8375
458.87653	2957.3375
462.98368	2950.8375
467.08789	2952.9375
471.18916	2927.3375
475.2875	2907.3375
479.38291	2893.3375
483.4754	2893.6375
487.56496	2883.6375
491.6516	2893.9375
495.73531	2897.5375
499.81612	2900.8375
503.89401	2913.0375
507.96899	2948.2375
512.04106	2961.3375
516.11023	2984.3375
520.1765	3018.9375
524.23987	3013.6375
528.30034	3006.3375
532.35792	3005.4375
536.41261	2972.2375
540.46441	2959.0375
544.51333	2952.9375
548.55936	2960.1375
552.60252	2988.8375
556.64279	3021.5375
560.6802	3047.6375
564.71473	3075.6375
568.7464	3115.9375
572.7752	3137.9375
576.80114	3105.2375
580.82422	3063.6375
584.84444	3048.8375
588.86181	3056.5375
592.87633	3100.7375
596.888	3155.2375
600.89682	3215.7375
604.9028	3420.1375
608.90594	3924.6375
612.90624	4508.8375
616.90371	4229.1375
620.89834	3533.9375
624.89015	3215.3375
628.87913	3188.3375
632.86528	3232.8375
636.84862	3274.5375
640.82913	3270.4375
644.80683	3219.0375
648.78172	3169.3375
652.75379	3179.5375
656.72306	3236.6375
660.68952	3279.7375
664.65319	3258.3375
668.61405	3212.3375
672.57211	3235.4375
676.52738	3272.8375
680.47986	3321.9375
684.42955	3321.2375
688.37646	3286.8375
692.32058	3257.7375
696.26192	3247.4375
700.20048	3248.7375
704.13626	3247.1375
708.06928	3245.3375
711.99952	3227.7375
715.927	3206.4375
719.85171	3223.4375
723.77365	3237.8375
727.69284	3251.2375
731.60928	3250.6375
735.52295	3251.2375
739.43388	3236.9375
743.34206	3253.0375
747.24749	3248.5375
751.15017	3255.5375
755.05012	3295.7375
758.94733	3360.6375
762.8418	3531.3375
766.73354	3812.4375
770.62254	4131.1375
774.50882	4287.8375
778.39237	4142.4375
782.27321	3839.7375
786.15132	3568.8375
790.02671	3415.2375
793.89938	3335.0375
797.76935	3305.3375
801.6366	3300.8375
805.50115	3290.9375
809.36299	3298.7375
813.22213	3296.3375
817.07857	3294.0375
820.93231	3289.0375
824.78336	3283.5375
828.63172	3291.9375
832.47738	3281.6375
836.32036	3292.6375
840.16066	3275.1375
843.99827	3279.3375
847.8332	3291.6375
851.66546	3297.6375
855.49504	3306.3375
859.32195	3315.2375
863.1462	3321.9375
866.96777	3334.9375
870.78668	3347.8375
874.60293	3373.6375
878.41652	3382.3375
882.22745	3384.4375
886.03573	3406.4375
889.84136	3412.3375
893.64433	3402.9375
897.44466	3394.5375
901.24235	3388.0375
905.0374	3390.1375
908.8298	3365.4375
912.61957	3357.4375
916.40671	3362.6375
920.19121	3375.2375
923.97308	3389.5375
927.75233	3425.2375
931.52895	3440.4375
935.30295	3448.7375
939.07433	3415.0375
942.84309	3390.0375
946.60924	3361.2375
950.37278	3354.7375
954.13371	3340.3375
957.89203	3351.7375
961.64774	3350.8375
965.40086	3350.4375
969.15137	3345.1375
972.89929	3337.0375
976.64461	3307.0375
980.38733	3338.8375
984.12747	3342.4375
987.86502	3361.8375
991.59999	3362.8375
995.33237	3398.5375
999.06217	3403.1375
1002.78939	3436.3375
1006.51404	3456.2375
1010.23611	3504.0375
1013.95561	3522.1375
1017.67255	3524.4375
1021.38692	3521.5375
1025.09872	3505.4375
1028.80796	3498.3375
1032.51465	3502.6375
1036.21877	3532.0375
1039.92035	3528.8375
1043.61937	3556.3375
1047.31584	3572.2375
1051.00976	3581.0375
1054.70114	3591.8375
1058.38998	3613.3375
1062.07627	3605.1375
1065.76003	3614.0375
1069.44126	3626.9375
1073.11995	3633.0375
1076.79611	3686.9375
1080.46974	3704.1375
1084.14085	3755.0375
1087.80943	3800.1375
1091.47549	3818.6375
1095.13903	3807.9375
1098.80005	3764.8375
1102.45857	3749.6375
1106.11456	3759.6375
1109.76805	3767.0375
1113.41903	3828.7375
1117.06751	3883.2375
1120.71348	3947.2375
1124.35696	4040.2375
1127.99793	4108.0375
1131.63641	4114.9375
1135.2724	4043.9375
1138.90589	3986.2375
1142.5369	3926.6375
1146.16542	3872.5375
1149.79145	3823.2375
1153.415	3817.6375
1157.03607	3817.4375
1160.65467	3828.7375
1164.27079	3900.9375
1167.88443	3986.7375
1171.49561	4093.3375
1175.10432	4296.8375
1178.71056	4558.7375
1182.31434	4811.2375
1185.91565	4885.7375
1189.51451	4812.5375
1193.11091	4646.3375
1196.70485	4482.7375
1200.29634	4372.1375
1203.88538	4284.0375
1207.47197	4184.4375
1211.05612	4082.4375
1214.63782	4005.2375
1218.21708	3977.1375
1221.79391	3984.0375
1225.36829	3986.3375
1228.94024	3999.4375
1232.50976	3999.3375
1236.07685	3996.8375
1239.6415	4015.0375
1243.20374	4028.0375
1246.76355	4035.8375
1250.32093	4089.3375
1253.8759	4093.4375
1257.42845	4134.2375
1260.97859	4190.1375
1264.52631	4250.4375
1268.07163	4313.1375
1271.61453	4327.4375
1275.15503	4370.6375
1278.69312	4389.0375
1282.22882	4399.8375
1285.76211	4436.2375
1289.29301	4511.4375
1292.82151	4574.6375
1296.34761	4672.8375
1299.87133	4805.2375
1303.39266	5062.5375
1306.9116	5359.7375
1310.42815	5668.7375
1313.94233	5738.5375
1317.45412	5551.5375
1320.96354	5282.2375
1324.47058	5011.7375
1327.97525	4784.9375
1331.47754	4661.2375
1334.97747	4599.6375
1338.47502	4592.1375
1341.97022	4661.9375
1345.46305	4807.4375
1348.95352	5036.6375
1352.44163	5328.2375
1355.92738	5682.7375
1359.41078	6184.7375
1362.89183	6646.4375
1366.37053	6511.7375
1369.84688	5833.7375
1373.32088	5214.9375
1376.79254	4833.7375
1380.26186	4622.8375
1383.72883	4499.5375
1387.19347	4398.4375
1390.65578	4289.4375
1394.11575	4221.4375
1397.57339	4163.1375
1401.0287	4127.2375
1404.48168	4124.7375
1407.93234	4118.9375
1411.38068	4122.0375
1414.82669	4144.5375
1418.27039	4149.8375
1421.71177	4157.0375
1425.15083	4139.8375
1428.58758	4129.9375
1432.02203	4121.6375
1435.45416	4128.0375
1438.88399	4138.0375
1442.31151	4137.1375
1445.73673	4126.5375
1449.15965	4140.8375
1452.58027	4129.9375
1455.9986	4120.6375
1459.41463	4121.1375
1462.82837	4130.0375
1466.23982	4192.6375
1469.64898	4226.7375
1473.05586	4253.8375
1476.46045	4295.4375
1479.86276	4306.1375
1483.26279	4341.3375
1486.66054	4411.2375
1490.05602	4493.5375
1493.44922	4617.8375
1496.84016	4823.6375
1500.22882	5143.0375
1503.61521	5587.0375
1506.99934	6060.4375
1510.38121	6360.2375
1513.76081	6333.8375
1517.13816	5939.7375
1520.51324	5453.5375
1523.88607	5027.0375
1527.25665	4778.3375
1530.62498	4658.6375
1533.99105	4613.2375
1537.35488	4555.3375
1540.71647	4531.4375
1544.07581	4536.2375
1547.4329	4526.3375
1550.78776	4540.3375
1554.14038	4570.2375
1557.49077	4594.5375
1560.83892	4647.5375
1564.18484	4714.5375
1567.52853	4823.2375
1570.86999	4903.5375
1574.20922	4970.0375
1577.54624	4955.6375
1580.88103	4810.5375
1584.2136	4660.9375
1587.54395	4575.2375
1590.87208	4552.6375
1594.19801	4612.6375
1597.52172	4708.3375
1600.84321	4747.4375
1604.16251	4688.6375
1607.47959	4627.1375
1610.79447	4541.3375
1614.10715	4472.5375
1617.41763	4397.7375
1620.7259	4325.1375
1624.03199	4311.2375
1627.33587	4307.8375
1630.63757	4342.9375
1633.93707	4399.8375
1637.23439	4516.2375
1640.52951	4679.9375
1643.82246	4935.0375
1647.11321	5275.0375
1650.40179	5470.1375
1653.68819	5387.2375
1656.97241	5094.5375
1660.25446	4773.9375
1663.53433	4553.3375
1666.81203	4422.3375
1670.08756	4334.2375
1673.36092	4282.1375
1676.63211	4249.7375
1679.90115	4196.6375
1683.16801	4180.9375
1686.43272	4166.1375
1689.69527	4138.9375
1692.95567	4152.9375
1696.2139	4156.7375
1699.46999	4163.2375
1702.72392	4165.1375
1705.97571	4128.4375
1709.22535	4123.0375
1712.47284	4124.2375
1715.71819	4109.0375
1718.96139	4098.6375
1722.20246	4080.7375
1725.44139	4085.1375
1728.67818	4059.4375
1731.91284	4064.8375
1735.14537	4062.4375
1738.37576	4064.1375
1741.60403	4051.9375
1744.83017	4076.9375
1748.05418	4086.6375
1751.27607	4101.1375
1754.49584	4124.9375
1757.71349	4122.3375
1760.92903	4128.2375
1764.14244	4107.1375
1767.35375	4102.1375
1770.56294	4099.8375
1773.77002	4073.2375
1776.97499	4082.9375
1780.17785	4057.6375
1783.37861	4043.8375
1786.57727	4038.0375
1789.77382	4054.3375
1792.96828	4053.9375
1796.16064	4028.3375
1799.3509	4025.6375
1802.53907	4027.6375
1805.72514	4014.4375
1808.90913	4013.5375
1812.09102	4010.1375
1815.27083	3996.0375
1818.44856	4005.2375
1821.6242	4006.4375
1824.79776	4021.0375
1827.96924	4004.7375
1831.13864	4012.3375
1834.30597	4014.5375
1837.47122	3994.5375
1840.6344	3992.7375
1843.7955	3999.9375
1846.95454	4001.0375
1850.11151	3998.5375
1853.26642	3983.7375
1856.41926	4000.3375
1859.57004	4005.6375
1862.71876	3993.4375
1865.86542	4013.6375
1869.01003	4009.7375
1872.15258	4015.4375
1875.29308	4029.8375
1878.43152	4015.9375
1881.56792	4024.3375
1884.70227	4034.5375
1887.83457	4036.0375
1890.96482	4018.0375
1894.09304	4013.2375
1897.21921	4031.1375
1900.34335	4021.8375
1903.46544	4028.0375
1906.58551	4044.6375
1909.70353	4041.7375
1912.81953	4047.6375
1915.93349	4022.4375
1919.04543	4022.0375
1922.15534	4037.9375
1925.26322	4038.3375
1928.36908	4020.1375
1931.47292	4041.7375
1934.57473	4040.0375
1937.67453	4032.9375
1940.77232	4031.9375
1943.86808	4016.9375
1946.96184	4013.7375
1950.05358	3992.5375
1953.14331	3999.4375
1956.23103	4000.0375
1959.31675	3998.2375
1962.40046	3983.2375
1965.48217	3977.6375
1968.56188	3990.5375
1971.63959	3978.1375
1974.7153	3954.8375
1977.78901	3960.6375
1980.86073	3949.0375
1983.93046	3956.2375
1986.99819	3949.8375
1990.06394	3948.5375
1993.1277	3924.2375
1996.18947	3933.3375
1999.24925	3932.7375
2002.30706	3917.2375
2005.36288	3901.6375
2008.41672	3916.1375
2011.46859	3909.0375
2014.51848	3901.5375
2017.56639	3912.2375
2020.61233	3904.2375
2023.6563	3890.8375
2026.6983	3880.5375
2029.73833	3876.1375
2032.7764	3870.7375
2035.8125	3865.0375
2038.84664	3864.0375
2041.87881	3845.3375
2044.90903	3880.5375
2047.93729	3863.6375
2050.96359	3859.6375
2053.98794	3868.6375
2057.01034	3875.5375
2060.03078	3870.7375
2063.04927	3872.5375
2066.06582	3861.7375
2069.08042	3883.2375
2072.09307	3896.2375
2075.10378	3887.6375
2078.11255	3895.3375
2081.11938	3905.3375
2084.12426	3882.9375
2087.12722	3898.7375
2090.12824	3913.5375
2093.12732	3935.0375
2096.12447	3937.9375
2099.11969	3947.5375
2102.11299	3936.7375
2105.10435	3935.7375
2108.09379	3951.7375
2111.08131	3957.4375
2114.0669	3962.7375
2117.05057	3977.0375
2120.03233	4000.5375
2123.01216	4010.1375
2125.99008	4012.1375
2128.96609	4020.2375
2131.94018	4025.0375
2134.91236	4052.3375
2137.88263	4051.7375
2140.851	4070.8375
2143.81746	4081.0375
2146.78201	4095.5375
2149.74466	4080.8375
2152.7054	4065.1375
2155.66425	4071.1375
2158.6212	4077.6375
2161.57625	4091.2375
2164.52941	4081.8375
2167.48067	4089.3375
2170.43004	4104.6375
2173.37752	4113.0375
2176.32311	4108.9375
2179.26681	4136.2375
2182.20863	4143.6375
2185.14856	4142.2375
2188.08661	4134.8375
2191.02278	4152.7375
2193.95707	4151.1375
2196.88948	4139.1375
2199.82001	4149.2375
2202.74867	4145.7375
2205.67545	4161.7375
2208.60037	4157.3375
2211.52341	4169.2375
2214.44458	4173.3375
2217.36388	4154.1375
2220.28132	4170.0375
2223.1969	4140.4375
2226.11061	4118.6375
2229.02246	4117.1375
2231.93245	4131.9375
2234.84058	4143.8375
2237.74686	4121.1375
2240.65128	4138.9375
2243.55385	4160.5375
2246.45456	4175.3375
2249.35343	4162.2375
2252.25044	4158.9375
2255.14561	4161.3375
2258.03893	4167.6375
2260.93041	4159.5375
2263.82004	4141.8375
2266.70783	4156.2375
2269.59378	4156.3375
2272.4779	4139.1375
2275.36017	4139.1375
2278.24061	4138.9375
2281.11922	4140.8375
2283.996	4144.9375
2286.87094	4136.5375
2289.74405	4137.7375
2292.61534	4142.7375
2295.4848	4122.0375
2298.35243	4130.7375
2301.21824	4132.1375
2304.08223	4151.2375
2306.94439	4164.0375
2309.80474	4158.7375
2312.66327	4155.7375
2315.51999	4150.8375
2318.37489	4161.3375
2321.22797	4160.1375
2324.07925	4140.9375
2326.92871	4146.9375
2329.77637	4151.8375
2332.62222	4135.3375
2335.46626	4128.1375
2338.3085	4141.8375
2341.14893	4139.2375
2343.98756	4154.9375
2346.8244	4139.4375
2349.65943	4131.8375
2352.49267	4137.7375
2355.32411	4149.9375
2358.15376	4157.8375
2360.98161	4162.1375
2363.80768	4163.8375
2366.63195	4180.4375
2369.45444	4168.6375
2372.27514	4162.4375
2375.09405	4174.0375
2377.91118	4171.1375
2380.72652	4175.0375
2383.54009	4181.5375
2386.35187	4195.0375
2389.16188	4165.4375
2391.97011	4147.5375
2394.77657	4151.0375
2397.58125	4170.4375
2400.38416	4168.1375
2403.18529	4153.0375
2405.98466	4129.0375
2408.78226	4162.2375
2411.57809	4121.9375
2414.37216	4129.4375
2417.16446	4137.8375
2419.955	4164.7375
2422.74378	4175.1375
2425.5308	4170.9375
2428.31606	4166.6375
2431.09956	4166.2375
2433.88131	4172.9375
2436.6613	4166.0375
2439.43954	4178.2375
2442.21603	4169.5375
2444.99077	4159.9375
2447.76377	4164.2375
2450.53501	4154.1375
2453.30451	4154.1375
2456.07226	4179.1375
2458.83827	4175.7375
2461.60254	4169.1375
2464.36507	4159.8375
2467.12586	4165.6375
2469.88492	4154.5375
2472.64224	4159.5375
2475.39782	4177.1375
2478.15167	4184.3375
2480.90379	4183.6375
2483.65417	4168.0375
2486.40283	4190.8375
2489.14976	4203.1375
2491.89497	4212.1375
2494.63845	4214.9375
2497.3802	4215.8375
2500.12024	4200.9375
2502.85855	4214.7375
2505.59514	4188.7375
2508.33002	4198.6375
2511.06318	4203.3375
2513.79462	4211.6375
2516.52435	4185.1375
2519.25237	4176.7375
2521.97867	4191.2375
2524.70327	4203.5375
2527.42616	4184.0375
2530.14734	4185.2375
2532.86681	4198.2375
2535.58458	4200.1375
2538.30065	4202.2375
2541.01501	4200.5375
2543.72768	4207.5375
2546.43864	4224.0375
2549.14791	4208.2375
2551.85548	4198.6375
2554.56136	4179.6375
2557.26554	4191.1375
2559.96803	4188.6375
2562.66883	4199.6375
2565.36794	4188.9375
2568.06536	4168.9375
2570.7611	4161.6375
2573.45514	4141.4375
2576.14751	4165.0375
2578.83819	4147.4375
2581.52719	4139.6375
2584.21451	4161.3375
2586.90015	4167.0375
2589.58411	4175.5375
2592.2664	4151.8375
2594.94701	4165.9375
2597.62594	4172.4375
2600.30321	4161.2375
2602.9788	4145.8375
2605.65273	4175.3375
2608.32498	4152.8375
2610.99557	4166.0375
2613.66449	4159.9375
2616.33175	4172.5375
2618.99734	4148.6375
2621.66128	4142.0375
2624.32355	4144.6375
2626.98416	4129.5375
2629.64311	4134.3375
2632.30041	4131.0375
2634.95605	4143.2375
2637.61004	4121.5375
2640.26238	4125.1375
2642.91306	4121.2375
2645.56209	4118.7375
2648.20948	4139.2375
2650.85521	4122.3375
2653.4993	4135.7375
2656.14175	4133.5375
2658.78255	4156.8375
2661.42171	4166.3375
2664.05923	4156.6375
2666.6951	4172.6375
2669.32934	4186.9375
2671.96194	4169.5375
2674.59291	4179.1375
2677.22224	4189.4375
2679.84993	4188.8375
2682.476	4191.9375
2685.10043	4174.1375
2687.72324	4175.5375
2690.34441	4178.7375
2692.96396	4181.5375
2695.58188	4190.3375
2698.19818	4216.2375
2700.81285	4221.0375
2703.4259	4220.2375
2706.03733	4227.6375
2708.64714	4226.9375
2711.25533	4210.3375
2713.86191	4207.7375
2716.46687	4220.9375
2719.07021	4240.0375
2721.67194	4237.3375
2724.27206	4254.7375
2726.87057	4259.9375
2729.46747	4263.2375
2732.06276	4243.8375
2734.65644	4255.7375
2737.24852	4261.7375
2739.83899	4260.0375
2742.42786	4246.1375
2745.01513	4235.0375
2747.60079	4241.2375
2750.18486	4234.8375
2752.76733	4240.2375
2755.3482	4222.5375
2757.92747	4242.4375
2760.50515	4239.1375
2763.08123	4234.4375
2765.65573	4231.8375
2768.22863	4229.2375
2770.79994	4235.4375
2773.36967	4237.8375
2775.9378	4249.4375
2778.50435	4219.6375
2781.06932	4216.1375
2783.6327	4218.4375
2786.1945	4227.8375
2788.75471	4224.7375
2791.31335	4222.0375
2793.87041	4212.5375
2796.42589	4218.3375
2798.97979	4238.5375
2801.53212	4213.8375
2804.08288	4211.9375
2806.63206	4199.5375
2809.17967	4210.1375
2811.72571	4197.1375
2814.27018	4184.6375
2816.81308	4185.0375
2819.35442	4172.7375
2821.89419	4176.0375
2824.43239	4174.6375
2826.96904	4168.2375
2829.50412	4176.1375
2832.03763	4175.4375
2834.56959	4165.4375
2837.1	4156.2375
2839.62884	4152.2375
2842.15613	4162.1375
2844.68186	4174.1375
2847.20604	4181.2375
2849.72867	4173.3375
2852.24974	4179.9375
2854.76927	4181.2375
2857.28724	4199.9375
2859.80367	4172.0375
2862.31855	4169.9375
2864.83189	4183.7375
2867.34368	4184.5375
2869.85393	4170.7375
2872.36264	4180.0375
2874.8698	4187.2375
2877.37543	4192.6375
2879.87952	4195.8375
2882.38207	4193.5375
2884.88308	4197.8375
2887.38256	4205.3375
2889.88051	4219.8375
2892.37692	4212.9375
2894.8718	4223.0375
2897.36515	4253.6375
2899.85698	4250.3375
2902.34727	4283.6375
2904.83604	4279.0375
2907.32328	4293.2375
2909.809	4304.9375
2912.29319	4298.7375
2914.77587	4316.2375
2917.25702	4330.1375
2919.73665	4333.1375
2922.21476	4329.8375
2924.69136	4336.5375
2927.16644	4323.1375
2929.64	4327.9375
2932.11205	4336.3375
2934.58258	4319.0375
2937.05161	4352.7375
2939.51912	4366.4375
2941.98513	4379.5375
2944.44962	4373.8375
2946.91261	4342.5375
2949.37409	4361.5375
2951.83407	4368.6375
2954.29254	4366.8375
2956.74951	4358.8375
2959.20498	4342.9375
2961.65895	4336.1375
2964.11142	4339.2375
2966.56239	4333.2375
2969.01186	4349.2375
2971.45984	4349.1375
2973.90632	4347.9375
2976.35131	4346.7375
2978.7948	4341.1375
2981.23681	4334.0375
2983.67732	4339.8375
2986.11635	4335.7375
2988.55388	4318.8375
2990.98993	4329.1375
2993.4245	4314.5375
2995.85758	4301.6375
2998.28917	4298.3375
3000.71928	4270.8375
3003.14791	4285.9375
3005.57506	4302.9375
3008.00073	4276.8375
3010.42493	4231.3375
3012.84764	4294.7375
3015.26888	4287.9375
3017.68865	4251.9375
3020.10694	4260.9375
3022.52376	4255.3375
3024.9391	4282.8375
3027.35298	4272.1375
3029.76539	4265.3375
3032.17632	4252.4375
3034.5858	4262.5375
3036.9938	4250.2375
3039.40034	4265.0375
3041.80542	4282.1375
3044.20903	4291.2375
3046.61118	4294.7375
3049.01187	4277.4375
3051.4111	4275.7375
3053.80888	4278.9375
3056.20519	4279.3375
3058.60005	4277.3375
3060.99345	4299.9375
3063.3854	4290.9375
3065.7759	4263.0375
3068.16494	4260.2375
3070.55254	4245.9375
3072.93868	4235.4375
3075.32338	4238.5375
3077.70662	4211.9375
3080.08842	4210.9375
3082.46878	4232.6375
3084.84769	4244.7375
3087.22515	4262.4375
3089.60118	4259.4375
3091.97576	4243.7375
3094.3489	4258.3375
3096.72061	4280.8375
3099.09087	4296.9375
3101.4597	4304.3375
3103.82709	4325.9375
3106.19305	4324.9375
3108.55757	4341.9375
3110.92066	4319.0375
3113.28232	4337.6375
3115.64255	4348.7375
3118.00134	4351.4375
3120.35871	4337.5375
3122.71466	4322.3375
3125.06917	4327.8375
3127.42226	4319.2375
3129.77393	4354.1375
