Data from AgNPs_UA_50uM_CRN_500uM_AS_RamanShift__24__15-33-31-570.txt Node

Date: Wed Aug 17 15:33:31 BST 2022
User: TCL
Spectrometer: QEP01345
Trigger mode: 4
Integration Time (sec): 7.000000E0
Scans to average: 10
Electric dark correction enabled: true
Nonlinearity correction enabled: false
Boxcar width: 0
XAxis mode: Raman Shifts
Number of Pixels in Spectrum: 1044
>>>>>Begin Spectral Data<<<<<
46.04893	-1.3875
50.45542	-0.7875
54.85868	-0.8875
59.25871	-0.1875
63.6555	26.8125
68.04907	29.9125
72.43941	32.0125
76.82654	34.6125
81.21044	36.5125
85.59113	36.2125
89.96862	37.7125
94.34289	44.9125
98.71396	41.8125
103.08183	45.2125
107.4465	46.7125
111.80798	43.6125
116.16626	47.8125
120.52136	43.6125
124.87327	44.9125
129.222	47.4125
133.56755	47.1125
137.90993	46.9125
142.24913	55.5125
146.58517	57.5125
150.91804	60.5125
155.24774	67.8125
159.57429	76.8125
163.89768	97.4125
168.21792	128.7125
172.53501	161.5125
176.84895	221.4125
181.15975	307.3125
185.46741	427.6125
189.77193	586.4125
194.07331	776.3125
198.37157	999.6125
202.6667	1250.9125
206.9587	1495.2125
211.24758	1766.8125
215.53334	2049.0125
219.81599	2357.4125
224.09553	2726.8125
228.37195	3127.7125
232.64527	3543.8125
236.91549	3925.4125
241.18261	4236.8125
245.44663	4445.2125
249.70755	4573.7125
253.96539	4691.9125
258.22014	4804.7125
262.4718	4900.7125
266.72039	4976.2125
270.96589	4942.5125
275.20832	4832.6125
279.44768	4649.9125
283.68397	4477.9125
287.91719	4389.3125
292.14735	4440.3125
296.37445	4654.4125
300.59849	5021.2125
304.81948	5445.8125
309.03742	5720.8125
313.25231	5729.5125
317.46415	5345.5125
321.67296	4763.2125
325.87872	4290.2125
330.08145	4107.9125
334.28114	4126.7125
338.47781	4238.5125
342.67145	4391.2125
346.86207	4669.8125
351.04966	5103.0125
355.23424	5621.2125
359.4158	5988.7125
363.59435	6177.2125
367.76989	6207.7125
371.94243	6120.6125
376.11196	6002.7125
380.27849	5931.9125
384.44203	5787.6125
388.60257	5614.7125
392.76012	5503.2125
396.91468	5519.6125
401.06626	5631.5125
405.21485	5696.8125
409.36047	5427.8125
413.50311	4981.2125
417.64277	4552.9125
421.77947	4304.3125
425.9132	4189.6125
430.04396	4162.1125
434.17176	4173.6125
438.2966	4245.6125
442.41849	4371.6125
446.53742	4495.2125
450.6534	4580.4125
454.76644	4624.7125
458.87653	4588.2125
462.98368	4518.8125
467.08789	4470.0125
471.18916	4375.7125
475.2875	4260.2125
479.38291	4150.0125
483.4754	4089.7125
487.56496	4060.4125
491.6516	4037.6125
495.73531	4045.8125
499.81612	4068.7125
503.89401	4141.9125
507.96899	4269.0125
512.04106	4411.0125
516.11023	4573.3125
520.1765	4671.7125
524.23987	4660.4125
528.30034	4583.7125
532.35792	4505.4125
536.41261	4409.5125
540.46441	4291.9125
544.51333	4227.7125
548.55936	4260.9125
552.60252	4399.0125
556.64279	4537.0125
560.6802	4639.4125
564.71473	4813.9125
568.7464	5117.5125
572.7752	5156.6125
576.80114	4719.0125
580.82422	4350.2125
584.84444	4177.1125
588.86181	4146.6125
592.87633	4203.2125
596.888	4333.3125
600.89682	4672.4125
604.9028	5816.1125
608.90594	8600.5125
612.90624	11669.9125
616.90371	10422.1125
620.89834	6541.7125
624.89015	4889.9125
628.87913	4632.8125
632.86528	4823.7125
636.84862	5008.6125
640.82913	4873.8125
644.80683	4532.6125
648.78172	4286.3125
652.75379	4317.6125
656.72306	4627.9125
660.68952	4909.8125
664.65319	4731.2125
668.61405	4355.7125
672.57211	4216.2125
676.52738	4241.3125
680.47986	4270.0125
684.42955	4219.0125
688.37646	4148.8125
692.32058	4145.3125
696.26192	4157.0125
700.20048	4225.9125
704.13626	4264.3125
708.06928	4228.7125
711.99952	4183.2125
715.927	4196.6125
719.85171	4227.2125
723.77365	4288.7125
727.69284	4284.3125
731.60928	4248.7125
735.52295	4216.8125
739.43388	4229.8125
743.34206	4267.0125
747.24749	4280.1125
751.15017	4295.6125
755.05012	4390.1125
758.94733	4787.5125
762.8418	5723.1125
766.73354	7256.8125
770.62254	8600.9125
774.50882	9142.7125
778.39237	8521.8125
782.27321	7021.5125
786.15132	5607.5125
790.02671	4809.8125
793.89938	4486.4125
797.76935	4349.4125
801.6366	4301.8125
805.50115	4274.5125
809.36299	4280.7125
813.22213	4276.9125
817.07857	4257.8125
820.93231	4251.7125
824.78336	4261.8125
828.63172	4294.8125
832.47738	4285.2125
836.32036	4267.2125
840.16066	4209.5125
843.99827	4175.5125
847.8332	4172.6125
851.66546	4187.2125
855.49504	4201.5125
859.32195	4211.1125
863.1462	4194.9125
866.96777	4202.1125
870.78668	4212.5125
874.60293	4231.4125
878.41652	4274.5125
882.22745	4321.8125
886.03573	4365.5125
889.84136	4375.0125
893.64433	4334.0125
897.44466	4349.7125
901.24235	4343.5125
905.0374	4323.5125
908.8298	4255.4125
912.61957	4216.0125
916.40671	4221.2125
920.19121	4230.3125
923.97308	4281.1125
927.75233	4376.6125
931.52895	4502.8125
935.30295	4466.9125
939.07433	4296.0125
942.84309	4172.7125
946.60924	4089.7125
950.37278	4064.3125
954.13371	4048.7125
957.89203	4030.7125
961.64774	4047.3125
965.40086	4031.4125
969.15137	4019.7125
972.89929	4006.4125
976.64461	3989.8125
980.38733	4014.8125
984.12747	4024.5125
987.86502	4043.2125
991.59999	4058.6125
995.33237	4095.8125
999.06217	4157.7125
1002.78939	4238.5125
1006.51404	4358.7125
1010.23611	4435.9125
1013.95561	4448.1125
1017.67255	4422.5125
1021.38692	4374.6125
1025.09872	4317.8125
1028.80796	4277.8125
1032.51465	4283.7125
1036.21877	4315.2125
1039.92035	4372.3125
1043.61937	4418.1125
1047.31584	4455.8125
1051.00976	4460.3125
1054.70114	4445.4125
1058.38998	4428.3125
1062.07627	4438.4125
1065.76003	4464.4125
1069.44126	4448.7125
1073.11995	4488.2125
1076.79611	4603.5125
1080.46974	4795.0125
1084.14085	5030.1125
1087.80943	5227.8125
1091.47549	5286.9125
1095.13903	5152.8125
1098.80005	4940.5125
1102.45857	4846.7125
1106.11456	4827.9125
1109.76805	4939.2125
1113.41903	5191.1125
1117.06751	5532.6125
1120.71348	5961.0125
1124.35696	6418.9125
1127.99793	6703.9125
1131.63641	6490.8125
1135.2724	5968.8125
1138.90589	5524.8125
1142.5369	5263.0125
1146.16542	5088.3125
1149.79145	4945.3125
1153.415	4903.7125
1157.03607	4921.0125
1160.65467	5027.7125
1164.27079	5205.5125
1167.88443	5505.2125
1171.49561	5992.9125
1175.10432	6847.1125
1178.71056	8028.9125
1182.31434	9007.0125
1185.91565	9124.9125
1189.51451	8617.5125
1193.11091	7770.6125
1196.70485	7020.0125
1200.29634	6587.1125
1203.88538	6274.6125
1207.47197	5847.8125
1211.05612	5434.6125
1214.63782	5168.2125
1218.21708	5040.2125
1221.79391	4996.5125
1225.36829	4986.8125
1228.94024	4980.9125
1232.50976	4991.5125
1236.07685	4989.3125
1239.6415	5019.0125
1243.20374	5071.4125
1246.76355	5114.2125
1250.32093	5200.2125
1253.8759	5280.7125
1257.42845	5412.8125
1260.97859	5620.8125
1264.52631	5839.4125
1268.07163	6042.8125
1271.61453	6212.6125
1275.15503	6276.1125
1278.69312	6267.8125
1282.22882	6308.3125
1285.76211	6510.3125
1289.29301	6822.8125
1292.82151	7111.9125
1296.34761	7461.2125
1299.87133	8057.2125
1303.39266	9177.0125
1306.9116	10848.9125
1310.42815	12359.9125
1313.94233	12554.3125
1317.45412	11281.2125
1320.96354	9653.8125
1324.47058	8283.2125
1327.97525	7250.3125
1331.47754	6675.0125
1334.97747	6423.3125
1338.47502	6499.8125
1341.97022	6886.3125
1345.46305	7689.3125
1348.95352	8828.4125
1352.44163	10179.2125
1355.92738	12088.4125
1359.41078	14860.2125
1362.89183	17226.3125
1366.37053	16008.9125
1369.84688	12343.8125
1373.32088	9492.1125
1376.79254	7945.7125
1380.26186	7110.7125
1383.72883	6555.6125
1387.19347	6162.6125
1390.65578	5806.5125
1394.11575	5541.7125
1397.57339	5376.1125
1401.0287	5285.4125
1404.48168	5234.1125
1407.93234	5188.9125
1411.38068	5217.9125
1414.82669	5312.8125
1418.27039	5422.9125
1421.71177	5426.6125
1425.15083	5392.4125
1428.58758	5381.7125
1432.02203	5478.6125
1435.45416	5515.9125
1438.88399	5485.3125
1442.31151	5423.3125
1445.73673	5422.0125
1449.15965	5443.3125
1452.58027	5428.7125
1455.9986	5374.2125
1459.41463	5349.2125
1462.82837	5406.8125
1466.23982	5546.4125
1469.64898	5703.7125
1473.05586	5758.0125
1476.46045	5774.5125
1479.86276	5852.3125
1483.26279	6008.6125
1486.66054	6259.5125
1490.05602	6665.4125
1493.44922	7290.0125
1496.84016	8371.8125
1500.22882	10153.8125
1503.61521	12678.7125
1506.99934	15423.6125
1510.38121	17196.3125
1513.76081	16889.0125
1517.13816	14565.7125
1520.51324	11642.1125
1523.88607	9284.9125
1527.25665	7892.7125
1530.62498	7188.9125
1533.99105	6756.7125
1537.35488	6493.0125
1540.71647	6337.5125
1544.07581	6329.8125
1547.4329	6405.7125
1550.78776	6535.5125
1554.14038	6692.9125
1557.49077	6852.2125
1560.83892	7109.8125
1564.18484	7476.4125
1567.52853	7906.7125
1570.86999	8273.7125
1574.20922	8443.4125
1577.54624	8306.2125
1580.88103	7637.4125
1584.2136	6804.6125
1587.54395	6305.8125
1590.87208	6168.3125
1594.19801	6368.4125
1597.52172	6691.9125
1600.84321	6787.1125
1604.16251	6577.3125
1607.47959	6345.9125
1610.79447	6108.7125
1614.10715	5837.6125
1617.41763	5581.9125
1620.7259	5442.0125
1624.03199	5408.1125
1627.33587	5453.6125
1630.63757	5549.3125
1633.93707	5795.6125
1637.23439	6225.1125
1640.52951	6983.3125
1643.82246	8202.0125
1647.11321	9810.2125
1650.40179	10849.6125
1653.68819	10451.0125
1656.97241	8879.4125
1660.25446	7347.6125
1663.53433	6347.2125
1666.81203	5762.4125
1670.08756	5423.3125
1673.36092	5223.9125
1676.63211	5116.5125
1679.90115	5010.5125
1683.16801	4952.5125
1686.43272	4913.8125
1689.69527	4910.6125
1692.95567	4884.5125
1696.2139	4879.0125
1699.46999	4881.2125
1702.72392	4876.0125
1705.97571	4834.0125
1709.22535	4818.2125
1712.47284	4806.1125
1715.71819	4812.4125
1718.96139	4779.6125
1722.20246	4760.8125
1725.44139	4730.3125
1728.67818	4731.4125
1731.91284	4685.3125
1735.14537	4654.5125
1738.37576	4665.5125
1741.60403	4665.2125
1744.83017	4652.7125
1748.05418	4650.6125
1751.27607	4654.4125
1754.49584	4666.4125
1757.71349	4666.8125
1760.92903	4656.4125
1764.14244	4648.5125
1767.35375	4628.8125
1770.56294	4611.2125
1773.77002	4612.7125
1776.97499	4582.2125
1780.17785	4576.7125
1783.37861	4548.0125
1786.57727	4536.8125
1789.77382	4531.8125
1792.96828	4533.4125
1796.16064	4521.6125
1799.3509	4524.4125
1802.53907	4527.1125
1805.72514	4498.5125
1808.90913	4487.2125
1812.09102	4486.9125
1815.27083	4476.4125
1818.44856	4473.7125
1821.6242	4479.8125
1824.79776	4474.4125
1827.96924	4467.8125
1831.13864	4455.9125
1834.30597	4460.5125
1837.47122	4443.4125
1840.6344	4443.7125
1843.7955	4443.8125
1846.95454	4436.9125
1850.11151	4431.4125
1853.26642	4432.2125
1856.41926	4445.1125
1859.57004	4457.2125
1862.71876	4442.3125
1865.86542	4444.7125
1869.01003	4477.7125
1872.15258	4472.5125
1875.29308	4468.0125
1878.43152	4467.4125
1881.56792	4473.0125
1884.70227	4480.1125
1887.83457	4472.1125
1890.96482	4470.4125
1894.09304	4464.1125
1897.21921	4462.0125
1900.34335	4482.1125
1903.46544	4481.0125
1906.58551	4494.4125
1909.70353	4485.5125
1912.81953	4492.3125
1915.93349	4476.1125
1919.04543	4471.9125
1922.15534	4470.0125
1925.26322	4483.5125
1928.36908	4478.1125
1931.47292	4477.0125
1934.57473	4461.6125
1937.67453	4468.6125
1940.77232	4452.4125
1943.86808	4438.3125
1946.96184	4429.1125
1950.05358	4422.1125
1953.14331	4417.7125
1956.23103	4414.7125
1959.31675	4410.9125
1962.40046	4399.5125
1965.48217	4395.2125
1968.56188	4404.0125
1971.63959	4399.4125
1974.7153	4370.6125
1977.78901	4371.9125
1980.86073	4371.1125
1983.93046	4359.5125
1986.99819	4344.9125
1990.06394	4335.9125
1993.1277	4343.0125
1996.18947	4321.7125
1999.24925	4319.3125
2002.30706	4311.1125
2005.36288	4303.0125
2008.41672	4290.1125
2011.46859	4274.0125
2014.51848	4286.8125
2017.56639	4297.5125
2020.61233	4264.8125
2023.6563	4254.9125
2026.6983	4246.0125
2029.73833	4246.4125
2032.7764	4243.6125
2035.8125	4236.6125
2038.84664	4238.2125
2041.87881	4227.8125
2044.90903	4244.0125
2047.93729	4235.2125
2050.96359	4236.7125
2053.98794	4229.4125
2057.01034	4226.1125
2060.03078	4229.1125
2063.04927	4246.6125
2066.06582	4237.2125
2069.08042	4245.6125
2072.09307	4251.9125
2075.10378	4247.9125
2078.11255	4250.0125
2081.11938	4260.3125
2084.12426	4265.4125
2087.12722	4278.6125
2090.12824	4266.0125
2093.12732	4281.1125
2096.12447	4286.1125
2099.11969	4304.3125
2102.11299	4294.1125
2105.10435	4319.7125
2108.09379	4308.8125
2111.08131	4321.3125
2114.0669	4321.0125
2117.05057	4347.2125
2120.03233	4370.9125
2123.01216	4380.8125
2125.99008	4394.3125
2128.96609	4397.3125
2131.94018	4399.5125
2134.91236	4417.8125
2137.88263	4430.8125
2140.851	4433.5125
2143.81746	4449.5125
2146.78201	4444.2125
2149.74466	4433.0125
2152.7054	4436.1125
2155.66425	4422.2125
2158.6212	4429.5125
2161.57625	4445.8125
2164.52941	4434.9125
2167.48067	4441.6125
2170.43004	4449.8125
2173.37752	4472.1125
2176.32311	4465.0125
2179.26681	4485.2125
2182.20863	4499.1125
2185.14856	4486.8125
2188.08661	4505.3125
2191.02278	4493.8125
2193.95707	4492.4125
2196.88948	4500.3125
2199.82001	4498.0125
2202.74867	4487.3125
2205.67545	4502.1125
2208.60037	4520.4125
2211.52341	4517.5125
2214.44458	4521.0125
2217.36388	4508.9125
2220.28132	4505.8125
2223.1969	4489.6125
2226.11061	4500.3125
2229.02246	4463.4125
2231.93245	4478.6125
2234.84058	4475.2125
2237.74686	4477.4125
2240.65128	4500.9125
2243.55385	4503.2125
2246.45456	4516.5125
2249.35343	4508.8125
2252.25044	4521.8125
2255.14561	4524.5125
2258.03893	4534.2125
2260.93041	4543.8125
2263.82004	4521.9125
2266.70783	4531.0125
2269.59378	4517.7125
2272.4779	4501.4125
2275.36017	4497.7125
2278.24061	4502.8125
2281.11922	4490.1125
2283.996	4495.5125
2286.87094	4495.5125
2289.74405	4473.7125
2292.61534	4486.8125
2295.4848	4485.7125
2298.35243	4471.6125
2301.21824	4490.8125
2304.08223	4493.9125
2306.94439	4513.4125
2309.80474	4511.4125
2312.66327	4515.6125
2315.51999	4517.6125
2318.37489	4503.9125
2321.22797	4497.3125
2324.07925	4498.8125
2326.92871	4484.8125
2329.77637	4484.4125
2332.62222	4493.2125
2335.46626	4505.5125
2338.3085	4495.6125
2341.14893	4494.1125
2343.98756	4483.2125
2346.8244	4507.1125
2349.65943	4512.1125
2352.49267	4514.2125
2355.32411	4525.8125
2358.15376	4531.1125
2360.98161	4538.0125
2363.80768	4548.1125
2366.63195	4576.8125
2369.45444	4561.0125
2372.27514	4575.2125
2375.09405	4571.9125
2377.91118	4574.8125
2380.72652	4553.0125
2383.54009	4550.6125
2386.35187	4555.2125
2389.16188	4551.8125
2391.97011	4513.2125
2394.77657	4501.7125
2397.58125	4517.2125
2400.38416	4519.1125
2403.18529	4515.4125
2405.98466	4493.8125
2408.78226	4484.2125
2411.57809	4484.6125
2414.37216	4479.9125
2417.16446	4494.5125
2419.955	4530.7125
2422.74378	4513.9125
2425.5308	4519.5125
2428.31606	4520.1125
2431.09956	4516.1125
2433.88131	4529.7125
2436.6613	4537.7125
2439.43954	4551.1125
2442.21603	4529.0125
2444.99077	4523.4125
2447.76377	4535.7125
2450.53501	4510.6125
2453.30451	4518.1125
2456.07226	4542.5125
2458.83827	4563.0125
2461.60254	4541.1125
2464.36507	4544.8125
2467.12586	4530.9125
2469.88492	4535.0125
2472.64224	4553.3125
2475.39782	4559.1125
2478.15167	4573.6125
2480.90379	4565.9125
2483.65417	4566.4125
2486.40283	4597.2125
2489.14976	4607.8125
2491.89497	4622.4125
2494.63845	4626.4125
2497.3802	4616.4125
2500.12024	4612.3125
2502.85855	4608.5125
2505.59514	4585.8125
2508.33002	4569.5125
2511.06318	4580.0125
2513.79462	4553.2125
2516.52435	4542.7125
2519.25237	4533.8125
2521.97867	4542.4125
2524.70327	4532.1125
2527.42616	4524.9125
2530.14734	4543.0125
2532.86681	4531.4125
2535.58458	4537.7125
2538.30065	4563.8125
2541.01501	4559.1125
2543.72768	4565.3125
2546.43864	4567.2125
2549.14791	4556.1125
2551.85548	4532.7125
2554.56136	4530.7125
2557.26554	4550.4125
2559.96803	4558.1125
2562.66883	4546.8125
2565.36794	4547.8125
2568.06536	4524.7125
2570.7611	4519.6125
2573.45514	4509.8125
2576.14751	4522.1125
2578.83819	4496.5125
2581.52719	4502.3125
2584.21451	4514.7125
2586.90015	4508.3125
2589.58411	4512.8125
2592.2664	4518.3125
2594.94701	4511.2125
2597.62594	4519.0125
2600.30321	4502.4125
2602.9788	4499.9125
2605.65273	4508.2125
2608.32498	4520.5125
2610.99557	4516.4125
2613.66449	4520.0125
2616.33175	4529.0125
2618.99734	4498.8125
2621.66128	4482.5125
2624.32355	4482.1125
2626.98416	4482.9125
2629.64311	4462.3125
2632.30041	4500.4125
2634.95605	4488.8125
2637.61004	4464.7125
2640.26238	4461.9125
2642.91306	4468.2125
2645.56209	4452.0125
2648.20948	4438.9125
2650.85521	4456.9125
2653.4993	4469.6125
2656.14175	4477.5125
2658.78255	4488.7125
2661.42171	4500.7125
2664.05923	4524.0125
2666.6951	4509.2125
2669.32934	4521.5125
2671.96194	4532.4125
2674.59291	4521.5125
2677.22224	4536.0125
2679.84993	4543.5125
2682.476	4552.0125
2685.10043	4540.1125
2687.72324	4537.7125
2690.34441	4534.6125
2692.96396	4539.9125
2695.58188	4541.6125
2698.19818	4544.0125
2700.81285	4571.7125
2703.4259	4570.2125
2706.03733	4589.4125
2708.64714	4569.5125
2711.25533	4556.3125
2713.86191	4571.1125
2716.46687	4572.0125
2719.07021	4594.1125
2721.67194	4626.1125
2724.27206	4611.0125
2726.87057	4605.6125
2729.46747	4625.9125
2732.06276	4602.6125
2734.65644	4609.2125
2737.24852	4601.6125
2739.83899	4581.0125
2742.42786	4582.3125
2745.01513	4585.3125
2747.60079	4572.3125
2750.18486	4565.7125
2752.76733	4586.8125
2755.3482	4560.7125
2757.92747	4569.9125
2760.50515	4562.0125
2763.08123	4562.8125
2765.65573	4552.8125
2768.22863	4562.2125
2770.79994	4557.1125
2773.36967	4569.0125
2775.9378	4548.8125
2778.50435	4552.1125
2781.06932	4537.2125
2783.6327	4560.5125
2786.1945	4564.3125
2788.75471	4551.8125
2791.31335	4548.8125
2793.87041	4553.7125
2796.42589	4564.8125
2798.97979	4564.5125
2801.53212	4565.2125
2804.08288	4571.9125
2806.63206	4559.4125
2809.17967	4553.6125
2811.72571	4544.7125
2814.27018	4553.6125
2816.81308	4521.2125
2819.35442	4540.2125
2821.89419	4530.3125
2824.43239	4547.1125
2826.96904	4547.7125
2829.50412	4552.4125
2832.03763	4547.7125
2834.56959	4545.8125
2837.1	4522.6125
2839.62884	4522.4125
2842.15613	4539.2125
2844.68186	4533.4125
2847.20604	4552.7125
2849.72867	4546.3125
2852.24974	4552.2125
2854.76927	4552.8125
2857.28724	4565.5125
2859.80367	4568.1125
2862.31855	4563.5125
2864.83189	4579.4125
2867.34368	4577.4125
2869.85393	4589.2125
2872.36264	4586.6125
2874.8698	4612.1125
2877.37543	4588.0125
2879.87952	4603.3125
2882.38207	4600.4125
2884.88308	4598.1125
2887.38256	4617.9125
2889.88051	4601.0125
2892.37692	4620.2125
2894.8718	4614.7125
2897.36515	4637.5125
2899.85698	4647.9125
2902.34727	4672.4125
2904.83604	4687.2125
2907.32328	4677.3125
2909.809	4685.3125
2912.29319	4698.9125
2914.77587	4708.5125
2917.25702	4708.4125
2919.73665	4704.3125
2922.21476	4707.0125
2924.69136	4706.1125
2927.16644	4690.0125
2929.64	4680.3125
2932.11205	4694.1125
2934.58258	4683.6125
2937.05161	4700.8125
2939.51912	4701.5125
2941.98513	4732.1125
2944.44962	4736.3125
2946.91261	4703.1125
2949.37409	4721.3125
2951.83407	4707.7125
2954.29254	4727.5125
2956.74951	4735.2125
2959.20498	4696.8125
2961.65895	4705.5125
2964.11142	4700.3125
2966.56239	4687.9125
2969.01186	4697.1125
2971.45984	4690.9125
2973.90632	4694.5125
2976.35131	4689.0125
2978.7948	4691.2125
2981.23681	4680.6125
2983.67732	4686.1125
2986.11635	4671.1125
2988.55388	4667.1125
2990.98993	4666.0125
2993.4245	4659.9125
2995.85758	4647.3125
2998.28917	4628.3125
3000.71928	4643.5125
3003.14791	4649.4125
3005.57506	4642.4125
3008.00073	4635.6125
3010.42493	4599.7125
3012.84764	4631.0125
3015.26888	4630.7125
3017.68865	4618.8125
3020.10694	4625.7125
3022.52376	4647.9125
3024.9391	4639.8125
3027.35298	4618.3125
3029.76539	4612.4125
3032.17632	4601.9125
3034.5858	4617.8125
3036.9938	4605.2125
3039.40034	4622.5125
3041.80542	4592.8125
3044.20903	4604.0125
3046.61118	4602.9125
3049.01187	4596.4125
3051.4111	4596.3125
3053.80888	4598.7125
3056.20519	4603.4125
3058.60005	4617.0125
3060.99345	4626.7125
3063.3854	4612.0125
3065.7759	4593.9125
3068.16494	4569.9125
3070.55254	4537.6125
3072.93868	4559.9125
3075.32338	4540.7125
3077.70662	4547.7125
3080.08842	4542.3125
3082.46878	4546.4125
3084.84769	4557.7125
3087.22515	4561.4125
3089.60118	4558.6125
3091.97576	4552.8125
3094.3489	4567.9125
3096.72061	4576.8125
3099.09087	4580.4125
3101.4597	4605.0125
3103.82709	4621.0125
3106.19305	4636.2125
3108.55757	4642.8125
3110.92066	4624.3125
3113.28232	4644.8125
3115.64255	4635.9125
3118.00134	4646.8125
3120.35871	4641.9125
3122.71466	4631.4125
3125.06917	4620.5125
3127.42226	4620.0125
