Data from AgNPs_UA_20uM_CRN_500uM_AS_RamanShift__13__14-38-41-512.txt Node

Date: Wed Aug 17 14:38:41 BST 2022
User: TCL
Spectrometer: QEP01345
Trigger mode: 4
Integration Time (sec): 7.000000E0
Scans to average: 10
Electric dark correction enabled: true
Nonlinearity correction enabled: false
Boxcar width: 0
XAxis mode: Raman Shifts
Number of Pixels in Spectrum: 1044
>>>>>Begin Spectral Data<<<<<
46.04893	-0.2875
50.45542	-0.9875
54.85868	-0.5875
59.25871	0.1125
63.6555	38.5125
68.04907	36.9125
72.43941	42.1125
76.82654	44.4125
81.21044	47.9125
85.59113	46.7125
89.96862	52.0125
94.34289	57.7125
98.71396	54.9125
103.08183	58.4125
107.4465	56.0125
111.80798	56.2125
116.16626	55.9125
120.52136	54.8125
124.87327	58.1125
129.222	56.7125
133.56755	53.7125
137.90993	51.0125
142.24913	62.3125
146.58517	58.0125
150.91804	60.8125
155.24774	61.8125
159.57429	62.7125
163.89768	74.9125
168.21792	88.6125
172.53501	106.9125
176.84895	138.5125
181.15975	185.7125
185.46741	242.8125
189.77193	328.3125
194.07331	430.7125
198.37157	547.4125
202.6667	672.3125
206.9587	801.1125
211.24758	920.2125
215.53334	1040.8125
219.81599	1175.8125
224.09553	1294.6125
228.37195	1453.3125
232.64527	1614.4125
236.91549	1792.5125
241.18261	1966.9125
245.44663	2121.7125
249.70755	2267.5125
253.96539	2400.9125
258.22014	2493.0125
262.4718	2548.0125
266.72039	2580.5125
270.96589	2578.5125
275.20832	2543.2125
279.44768	2486.7125
283.68397	2430.0125
287.91719	2386.9125
292.14735	2314.0125
296.37445	2271.7125
300.59849	2264.5125
304.81948	2259.6125
309.03742	2255.6125
313.25231	2251.4125
317.46415	2227.0125
321.67296	2199.2125
325.87872	2178.7125
330.08145	2164.9125
334.28114	2170.9125
338.47781	2186.9125
342.67145	2217.8125
346.86207	2246.4125
351.04966	2290.7125
355.23424	2342.6125
359.4158	2363.5125
363.59435	2392.5125
367.76989	2414.2125
371.94243	2429.1125
376.11196	2448.3125
380.27849	2464.2125
384.44203	2471.2125
388.60257	2481.2125
392.76012	2503.2125
396.91468	2527.1125
401.06626	2577.1125
405.21485	2589.2125
409.36047	2577.7125
413.50311	2559.2125
417.64277	2547.0125
421.77947	2542.8125
425.9132	2539.2125
430.04396	2565.0125
434.17176	2577.2125
438.2966	2600.5125
442.41849	2641.8125
446.53742	2658.9125
450.6534	2707.8125
454.76644	2723.4125
458.87653	2740.4125
462.98368	2733.6125
467.08789	2722.5125
471.18916	2723.7125
475.2875	2693.4125
479.38291	2687.9125
483.4754	2678.7125
487.56496	2668.3125
491.6516	2667.8125
495.73531	2678.8125
499.81612	2666.4125
503.89401	2682.4125
507.96899	2682.8125
512.04106	2708.6125
516.11023	2687.6125
520.1765	2704.5125
524.23987	2705.3125
528.30034	2704.7125
532.35792	2694.7125
536.41261	2693.4125
540.46441	2680.8125
544.51333	2682.9125
548.55936	2691.4125
552.60252	2707.5125
556.64279	2730.0125
560.6802	2731.1125
564.71473	2730.1125
568.7464	2744.6125
572.7752	2771.3125
576.80114	2779.8125
580.82422	2776.2125
584.84444	2785.4125
588.86181	2819.4125
592.87633	2849.0125
596.888	2899.1125
600.89682	2924.5125
604.9028	2997.8125
608.90594	3211.3125
612.90624	3437.8125
616.90371	3297.0125
620.89834	2958.0125
624.89015	2807.0125
628.87913	2778.8125
632.86528	2816.1125
636.84862	2836.2125
640.82913	2828.4125
644.80683	2810.5125
648.78172	2797.5125
652.75379	2795.4125
656.72306	2828.2125
660.68952	2873.8125
664.65319	2866.5125
668.61405	2836.1125
672.57211	2843.5125
676.52738	2883.4125
680.47986	2920.7125
684.42955	2935.2125
688.37646	2936.5125
692.32058	2944.2125
696.26192	2933.8125
700.20048	2920.9125
704.13626	2909.5125
708.06928	2898.0125
711.99952	2882.4125
715.927	2862.6125
719.85171	2843.6125
723.77365	2864.7125
727.69284	2852.5125
731.60928	2848.4125
735.52295	2848.2125
739.43388	2858.5125
743.34206	2849.6125
747.24749	2854.7125
751.15017	2865.3125
755.05012	2888.5125
758.94733	2929.2125
762.8418	3008.9125
766.73354	3161.6125
770.62254	3316.1125
774.50882	3355.5125
778.39237	3273.6125
782.27321	3118.0125
786.15132	2993.9125
790.02671	2912.2125
793.89938	2868.5125
797.76935	2868.0125
801.6366	2849.3125
805.50115	2837.2125
809.36299	2829.1125
813.22213	2810.4125
817.07857	2798.7125
820.93231	2807.2125
824.78336	2806.4125
828.63172	2812.3125
832.47738	2815.2125
836.32036	2811.0125
840.16066	2804.0125
843.99827	2800.5125
847.8332	2808.2125
851.66546	2797.0125
855.49504	2815.8125
859.32195	2805.3125
863.1462	2818.5125
866.96777	2808.7125
870.78668	2835.6125
874.60293	2821.9125
878.41652	2836.2125
882.22745	2828.9125
886.03573	2852.3125
889.84136	2837.1125
893.64433	2838.0125
897.44466	2841.4125
901.24235	2833.4125
905.0374	2838.8125
908.8298	2828.5125
912.61957	2824.3125
916.40671	2821.6125
920.19121	2830.6125
923.97308	2843.3125
927.75233	2836.3125
931.52895	2846.3125
935.30295	2824.8125
939.07433	2794.5125
942.84309	2781.4125
946.60924	2776.1125
950.37278	2765.4125
954.13371	2758.7125
957.89203	2751.3125
961.64774	2743.2125
965.40086	2749.0125
969.15137	2740.1125
972.89929	2735.8125
976.64461	2708.8125
980.38733	2730.3125
984.12747	2720.2125
987.86502	2729.2125
991.59999	2721.8125
995.33237	2751.0125
999.06217	2755.4125
1002.78939	2771.1125
1006.51404	2786.6125
1010.23611	2793.1125
1013.95561	2815.9125
1017.67255	2807.4125
1021.38692	2809.5125
1025.09872	2806.6125
1028.80796	2767.5125
1032.51465	2771.2125
1036.21877	2775.2125
1039.92035	2779.3125
1043.61937	2794.4125
1047.31584	2798.6125
1051.00976	2808.2125
1054.70114	2815.1125
1058.38998	2815.4125
1062.07627	2814.1125
1065.76003	2816.0125
1069.44126	2828.0125
1073.11995	2829.6125
1076.79611	2840.1125
1080.46974	2854.6125
1084.14085	2865.1125
1087.80943	2880.5125
1091.47549	2880.3125
1095.13903	2880.9125
1098.80005	2837.2125
1102.45857	2816.9125
1106.11456	2808.2125
1109.76805	2806.8125
1113.41903	2818.7125
1117.06751	2836.1125
1120.71348	2861.1125
1124.35696	2891.5125
1127.99793	2916.3125
1131.63641	2913.1125
1135.2724	2890.5125
1138.90589	2874.2125
1142.5369	2846.5125
1146.16542	2840.2125
1149.79145	2829.9125
1153.415	2831.5125
1157.03607	2825.5125
1160.65467	2851.9125
1164.27079	2891.9125
1167.88443	2927.0125
1171.49561	3002.2125
1175.10432	3098.5125
1178.71056	3247.0125
1182.31434	3381.5125
1185.91565	3434.6125
1189.51451	3444.9125
1193.11091	3394.3125
1196.70485	3321.3125
1200.29634	3247.4125
1203.88538	3167.1125
1207.47197	3079.6125
1211.05612	2992.9125
1214.63782	2943.6125
1218.21708	2917.9125
1221.79391	2916.6125
1225.36829	2922.2125
1228.94024	2928.3125
1232.50976	2923.8125
1236.07685	2919.5125
1239.6415	2922.4125
1243.20374	2918.1125
1246.76355	2922.2125
1250.32093	2931.1125
1253.8759	2940.8125
1257.42845	2969.5125
1260.97859	3005.7125
1264.52631	3020.0125
1268.07163	3060.0125
1271.61453	3086.3125
1275.15503	3106.5125
1278.69312	3112.6125
1282.22882	3136.6125
1285.76211	3170.4125
1289.29301	3195.4125
1292.82151	3231.7125
1296.34761	3282.6125
1299.87133	3357.4125
1303.39266	3456.4125
1306.9116	3593.8125
1310.42815	3701.0125
1313.94233	3773.9125
1317.45412	3752.6125
1320.96354	3649.7125
1324.47058	3546.4125
1327.97525	3437.9125
1331.47754	3370.3125
1334.97747	3320.1125
1338.47502	3351.9125
1341.97022	3389.7125
1345.46305	3439.8125
1348.95352	3564.0125
1352.44163	3692.7125
1355.92738	3832.8125
1359.41078	4007.7125
1362.89183	4189.5125
1366.37053	4134.6125
1369.84688	3876.5125
1373.32088	3545.4125
1376.79254	3319.3125
1380.26186	3190.3125
1383.72883	3117.8125
1387.19347	3037.9125
1390.65578	2982.7125
1394.11575	2936.4125
1397.57339	2884.5125
1401.0287	2861.4125
1404.48168	2859.4125
1407.93234	2851.5125
1411.38068	2842.1125
1414.82669	2846.0125
1418.27039	2847.1125
1421.71177	2825.9125
1425.15083	2796.8125
1428.58758	2771.4125
1432.02203	2765.8125
1435.45416	2762.2125
1438.88399	2765.1125
1442.31151	2771.6125
1445.73673	2757.6125
1449.15965	2767.2125
1452.58027	2755.2125
1455.9986	2761.5125
1459.41463	2775.3125
1462.82837	2778.7125
1466.23982	2806.3125
1469.64898	2832.6125
1473.05586	2872.2125
1476.46045	2888.4125
1479.86276	2913.1125
1483.26279	2934.8125
1486.66054	2961.4125
1490.05602	3013.9125
1493.44922	3085.6125
1496.84016	3200.3125
1500.22882	3333.2125
1503.61521	3506.9125
1506.99934	3680.8125
1510.38121	3796.3125
1513.76081	3746.8125
1517.13816	3591.7125
1520.51324	3410.5125
1523.88607	3237.3125
1527.25665	3135.5125
1530.62498	3079.2125
1533.99105	3047.7125
1537.35488	3009.8125
1540.71647	2983.5125
1544.07581	2951.5125
1547.4329	2915.0125
1550.78776	2900.6125
1554.14038	2897.1125
1557.49077	2922.5125
1560.83892	2920.8125
1564.18484	2957.1125
1567.52853	2993.8125
1570.86999	3034.0125
1574.20922	3061.7125
1577.54624	3046.9125
1580.88103	2979.8125
1584.2136	2902.1125
1587.54395	2863.3125
1590.87208	2876.0125
1594.19801	2924.6125
1597.52172	2989.4125
1600.84321	3020.1125
1604.16251	2976.4125
1607.47959	2925.1125
1610.79447	2876.7125
1614.10715	2805.4125
1617.41763	2739.3125
1620.7259	2668.6125
1624.03199	2651.3125
1627.33587	2628.4125
1630.63757	2638.0125
1633.93707	2688.3125
1637.23439	2756.7125
1640.52951	2856.4125
1643.82246	2999.9125
1647.11321	3166.0125
1650.40179	3237.3125
1653.68819	3182.8125
1656.97241	3003.7125
1660.25446	2808.7125
1663.53433	2671.0125
1666.81203	2556.5125
1670.08756	2484.7125
1673.36092	2456.2125
1676.63211	2425.2125
1679.90115	2420.7125
1683.16801	2386.7125
1686.43272	2364.0125
1689.69527	2359.6125
1692.95567	2353.9125
1696.2139	2362.9125
1699.46999	2339.6125
1702.72392	2346.6125
1705.97571	2332.0125
1709.22535	2319.1125
1712.47284	2323.0125
1715.71819	2330.0125
1718.96139	2305.2125
1722.20246	2297.5125
1725.44139	2300.4125
1728.67818	2283.8125
1731.91284	2270.0125
1735.14537	2251.9125
1738.37576	2261.8125
1741.60403	2245.2125
1744.83017	2238.3125
1748.05418	2238.4125
1751.27607	2248.8125
1754.49584	2253.3125
1757.71349	2243.6125
1760.92903	2245.8125
1764.14244	2248.7125
1767.35375	2241.5125
1770.56294	2235.0125
1773.77002	2216.8125
1776.97499	2198.8125
1780.17785	2172.8125
1783.37861	2170.6125
1786.57727	2169.8125
1789.77382	2154.2125
1792.96828	2152.3125
1796.16064	2138.4125
1799.3509	2123.2125
1802.53907	2119.8125
1805.72514	2115.2125
1808.90913	2095.6125
1812.09102	2091.9125
1815.27083	2088.7125
1818.44856	2078.2125
1821.6242	2079.4125
1824.79776	2075.5125
1827.96924	2066.9125
1831.13864	2060.5125
1834.30597	2071.6125
1837.47122	2052.1125
1840.6344	2047.7125
1843.7955	2056.1125
1846.95454	2061.8125
1850.11151	2059.6125
1853.26642	2050.7125
1856.41926	2049.2125
1859.57004	2037.9125
1862.71876	2047.8125
1865.86542	2037.7125
1869.01003	2040.8125
1872.15258	2031.2125
1875.29308	2022.1125
1878.43152	2016.3125
1881.56792	2009.8125
1884.70227	2019.4125
1887.83457	2012.0125
1890.96482	2009.1125
1894.09304	1999.6125
1897.21921	2005.2125
1900.34335	1995.4125
1903.46544	1993.9125
1906.58551	1996.2125
1909.70353	1983.9125
1912.81953	1983.2125
1915.93349	1988.4125
1919.04543	1977.1125
1922.15534	1971.8125
1925.26322	1979.9125
1928.36908	1972.1125
1931.47292	1963.7125
1934.57473	1959.8125
1937.67453	1952.0125
1940.77232	1949.8125
1943.86808	1937.7125
1946.96184	1935.9125
1950.05358	1932.5125
1953.14331	1915.4125
1956.23103	1921.9125
1959.31675	1912.4125
1962.40046	1900.8125
1965.48217	1900.6125
1968.56188	1890.3125
1971.63959	1887.3125
1974.7153	1882.1125
1977.78901	1872.3125
1980.86073	1868.1125
1983.93046	1850.4125
1986.99819	1862.1125
1990.06394	1850.2125
1993.1277	1860.5125
1996.18947	1839.6125
1999.24925	1832.0125
2002.30706	1824.1125
2005.36288	1808.1125
2008.41672	1815.9125
2011.46859	1809.6125
2014.51848	1794.8125
2017.56639	1804.3125
2020.61233	1792.9125
2023.6563	1795.5125
2026.6983	1791.0125
2029.73833	1776.9125
2032.7764	1771.9125
2035.8125	1768.1125
2038.84664	1763.3125
2041.87881	1760.1125
2044.90903	1754.8125
2047.93729	1743.2125
2050.96359	1748.3125
2053.98794	1744.3125
2057.01034	1736.8125
2060.03078	1747.8125
2063.04927	1744.3125
2066.06582	1739.8125
2069.08042	1741.8125
2072.09307	1735.4125
2075.10378	1738.1125
2078.11255	1739.3125
2081.11938	1738.6125
2084.12426	1729.0125
2087.12722	1732.2125
2090.12824	1737.1125
2093.12732	1737.8125
2096.12447	1731.6125
2099.11969	1732.4125
2102.11299	1721.4125
2105.10435	1728.6125
2108.09379	1725.0125
2111.08131	1728.9125
2114.0669	1730.4125
2117.05057	1730.0125
2120.03233	1734.9125
2123.01216	1734.6125
2125.99008	1728.7125
2128.96609	1732.8125
2131.94018	1722.7125
2134.91236	1736.4125
2137.88263	1739.8125
2140.851	1735.9125
2143.81746	1735.0125
2146.78201	1739.3125
2149.74466	1738.9125
2152.7054	1738.1125
2155.66425	1733.7125
2158.6212	1726.1125
2161.57625	1731.2125
2164.52941	1733.0125
2167.48067	1723.5125
2170.43004	1720.0125
2173.37752	1719.6125
2176.32311	1712.3125
2179.26681	1716.8125
2182.20863	1714.8125
2185.14856	1727.5125
2188.08661	1717.4125
2191.02278	1720.2125
2193.95707	1721.0125
2196.88948	1715.4125
2199.82001	1720.8125
2202.74867	1709.7125
2205.67545	1716.1125
2208.60037	1712.4125
2211.52341	1707.9125
2214.44458	1705.5125
2217.36388	1684.0125
2220.28132	1679.5125
2223.1969	1679.7125
2226.11061	1682.2125
2229.02246	1677.1125
2231.93245	1662.6125
2234.84058	1660.4125
2237.74686	1666.4125
2240.65128	1666.0125
2243.55385	1664.5125
2246.45456	1658.6125
2249.35343	1657.9125
2252.25044	1660.8125
2255.14561	1651.6125
2258.03893	1658.9125
2260.93041	1650.4125
2263.82004	1646.6125
2266.70783	1639.0125
2269.59378	1638.5125
2272.4779	1631.7125
2275.36017	1633.6125
2278.24061	1611.5125
2281.11922	1623.7125
2283.996	1615.2125
2286.87094	1605.5125
2289.74405	1606.7125
2292.61534	1602.7125
2295.4848	1603.5125
2298.35243	1595.2125
2301.21824	1599.8125
2304.08223	1589.4125
2306.94439	1590.1125
2309.80474	1600.9125
2312.66327	1591.8125
2315.51999	1575.1125
2318.37489	1588.8125
2321.22797	1581.0125
2324.07925	1584.6125
2326.92871	1572.2125
2329.77637	1573.1125
2332.62222	1573.3125
2335.46626	1570.4125
2338.3085	1571.2125
2341.14893	1564.6125
2343.98756	1554.1125
2346.8244	1553.4125
2349.65943	1554.0125
2352.49267	1549.2125
2355.32411	1560.1125
2358.15376	1562.7125
2360.98161	1549.4125
2363.80768	1544.2125
2366.63195	1546.0125
2369.45444	1542.5125
2372.27514	1549.4125
2375.09405	1545.4125
2377.91118	1543.4125
2380.72652	1538.7125
2383.54009	1532.4125
2386.35187	1532.7125
2389.16188	1523.3125
2391.97011	1519.0125
2394.77657	1510.5125
2397.58125	1520.7125
2400.38416	1518.1125
2403.18529	1515.1125
2405.98466	1501.4125
2408.78226	1500.1125
2411.57809	1503.7125
2414.37216	1499.1125
2417.16446	1499.8125
2419.955	1498.6125
2422.74378	1489.2125
2425.5308	1481.9125
2428.31606	1495.7125
2431.09956	1483.9125
2433.88131	1485.7125
2436.6613	1479.7125
2439.43954	1483.4125
2442.21603	1480.5125
2444.99077	1484.1125
2447.76377	1482.6125
2450.53501	1477.1125
2453.30451	1471.2125
2456.07226	1469.2125
2458.83827	1468.3125
2461.60254	1470.9125
2464.36507	1466.4125
2467.12586	1462.7125
2469.88492	1462.7125
2472.64224	1458.0125
2475.39782	1460.4125
2478.15167	1456.0125
2480.90379	1447.1125
2483.65417	1453.7125
2486.40283	1456.1125
2489.14976	1449.1125
2491.89497	1455.8125
2494.63845	1450.1125
2497.3802	1443.7125
2500.12024	1452.7125
2502.85855	1453.7125
2505.59514	1442.7125
2508.33002	1436.0125
2511.06318	1444.5125
2513.79462	1438.9125
2516.52435	1437.0125
2519.25237	1425.3125
2521.97867	1423.4125
2524.70327	1423.5125
2527.42616	1417.9125
2530.14734	1418.3125
2532.86681	1423.1125
2535.58458	1418.7125
2538.30065	1424.8125
2541.01501	1414.3125
2543.72768	1416.8125
2546.43864	1412.3125
2549.14791	1413.5125
2551.85548	1404.4125
2554.56136	1401.8125
2557.26554	1395.7125
2559.96803	1390.7125
2562.66883	1393.8125
2565.36794	1385.7125
2568.06536	1388.9125
2570.7611	1379.6125
2573.45514	1377.2125
2576.14751	1383.8125
2578.83819	1378.9125
2581.52719	1372.7125
2584.21451	1368.9125
2586.90015	1364.1125
2589.58411	1369.7125
2592.2664	1369.1125
2594.94701	1355.6125
2597.62594	1361.3125
2600.30321	1358.9125
2602.9788	1355.7125
2605.65273	1353.6125
2608.32498	1346.5125
2610.99557	1351.8125
2613.66449	1340.0125
2616.33175	1335.1125
2618.99734	1347.6125
2621.66128	1342.2125
2624.32355	1331.9125
2626.98416	1331.7125
2629.64311	1326.5125
2632.30041	1333.1125
2634.95605	1325.7125
2637.61004	1328.1125
2640.26238	1330.2125
2642.91306	1317.3125
2645.56209	1328.8125
2648.20948	1313.3125
2650.85521	1313.0125
2653.4993	1321.2125
2656.14175	1318.3125
2658.78255	1317.0125
2661.42171	1317.4125
2664.05923	1311.0125
2666.6951	1321.0125
2669.32934	1328.0125
2671.96194	1314.9125
2674.59291	1315.2125
2677.22224	1318.2125
2679.84993	1318.4125
2682.476	1312.6125
2685.10043	1315.5125
2687.72324	1323.1125
2690.34441	1306.0125
2692.96396	1301.7125
2695.58188	1306.8125
2698.19818	1301.6125
2700.81285	1306.0125
2703.4259	1306.7125
2706.03733	1304.3125
2708.64714	1300.9125
2711.25533	1305.5125
2713.86191	1299.9125
2716.46687	1307.7125
2719.07021	1315.5125
2721.67194	1310.7125
2724.27206	1306.0125
2726.87057	1306.0125
2729.46747	1311.6125
2732.06276	1307.6125
2734.65644	1311.5125
2737.24852	1307.0125
2739.83899	1306.0125
2742.42786	1307.1125
2745.01513	1300.3125
2747.60079	1289.5125
2750.18486	1288.5125
2752.76733	1289.8125
2755.3482	1290.5125
2757.92747	1289.2125
2760.50515	1288.4125
2763.08123	1292.0125
2765.65573	1289.8125
2768.22863	1276.7125
2770.79994	1274.1125
2773.36967	1277.2125
2775.9378	1275.7125
2778.50435	1273.2125
2781.06932	1270.8125
2783.6327	1272.0125
2786.1945	1276.7125
2788.75471	1276.7125
2791.31335	1264.0125
2793.87041	1270.2125
2796.42589	1258.4125
2798.97979	1263.4125
2801.53212	1260.9125
2804.08288	1262.1125
2806.63206	1257.5125
2809.17967	1254.9125
2811.72571	1252.2125
2814.27018	1253.0125
2816.81308	1236.2125
2819.35442	1244.0125
2821.89419	1241.9125
2824.43239	1244.9125
2826.96904	1235.6125
2829.50412	1244.6125
2832.03763	1243.7125
2834.56959	1237.7125
2837.1	1239.7125
2839.62884	1230.8125
2842.15613	1239.9125
2844.68186	1244.1125
2847.20604	1244.9125
2849.72867	1244.1125
2852.24974	1247.2125
2854.76927	1241.8125
2857.28724	1243.4125
2859.80367	1236.2125
2862.31855	1242.3125
2864.83189	1238.9125
2867.34368	1244.1125
2869.85393	1246.0125
2872.36264	1237.9125
2874.8698	1250.7125
2877.37543	1254.9125
2879.87952	1255.0125
2882.38207	1246.9125
2884.88308	1246.5125
2887.38256	1262.5125
2889.88051	1252.8125
2892.37692	1249.7125
2894.8718	1255.5125
2897.36515	1259.0125
2899.85698	1263.5125
2902.34727	1274.0125
2904.83604	1271.2125
2907.32328	1275.2125
2909.809	1276.0125
2912.29319	1279.7125
2914.77587	1282.7125
2917.25702	1286.2125
2919.73665	1283.6125
2922.21476	1287.5125
2924.69136	1305.2125
2927.16644	1297.9125
2929.64	1305.5125
2932.11205	1305.2125
2934.58258	1296.1125
2937.05161	1302.6125
2939.51912	1302.5125
2941.98513	1304.2125
2944.44962	1302.1125
2946.91261	1297.2125
2949.37409	1299.8125
2951.83407	1308.0125
2954.29254	1293.0125
2956.74951	1298.6125
2959.20498	1281.6125
2961.65895	1294.7125
2964.11142	1289.4125
2966.56239	1278.3125
2969.01186	1276.3125
2971.45984	1277.8125
2973.90632	1271.1125
2976.35131	1259.1125
2978.7948	1266.4125
2981.23681	1259.1125
2983.67732	1260.0125
2986.11635	1255.0125
2988.55388	1253.5125
2990.98993	1242.7125
2993.4245	1250.1125
2995.85758	1245.3125
2998.28917	1237.0125
3000.71928	1244.4125
3003.14791	1242.0125
3005.57506	1235.2125
3008.00073	1227.2125
3010.42493	1199.8125
3012.84764	1232.7125
3015.26888	1230.4125
3017.68865	1232.3125
3020.10694	1227.2125
3022.52376	1225.4125
3024.9391	1234.4125
3027.35298	1231.3125
3029.76539	1229.2125
3032.17632	1220.8125
3034.5858	1228.6125
3036.9938	1232.7125
3039.40034	1228.1125
3041.80542	1239.7125
3044.20903	1243.7125
3046.61118	1234.7125
3049.01187	1236.4125
3051.4111	1235.3125
3053.80888	1235.8125
3056.20519	1245.6125
3058.60005	1240.7125
3060.99345	1240.2125
3063.3854	1252.4125
3065.7759	1239.4125
3068.16494	1241.9125
3070.55254	1235.0125
3072.93868	1245.9125
3075.32338	1238.9125
3077.70662	1240.8125
3080.08842	1251.5125
3082.46878	1249.9125
3084.84769	1251.5125
3087.22515	1264.3125
3089.60118	1271.3125
3091.97576	1272.5125
3094.3489	1270.6125
3096.72061	1278.7125
3099.09087	1279.1125
3101.4597	1290.3125
3103.82709	1299.4125
3106.19305	1297.9125
3108.55757	1305.9125
3110.92066	1310.6125
3113.28232	1318.1125
3115.64255	1327.6125
3118.00134	1333.3125
3120.35871	1341.9125
3122.71466	1332.1125
3125.06917	1337.6125
3127.42226	1340.5125
3129.77393	1341.6125
