Data from AgNPs_UA_50uM_CRN_500uM_AS_RamanShift__4__15-10-11-546.txt Node

Date: Wed Aug 17 15:10:11 BST 2022
User: TCL
Spectrometer: QEP01345
Trigger mode: 4
Integration Time (sec): 7.000000E0
Scans to average: 10
Electric dark correction enabled: true
Nonlinearity correction enabled: false
Boxcar width: 0
XAxis mode: Raman Shifts
Number of Pixels in Spectrum: 1044
>>>>>Begin Spectral Data<<<<<
46.04893	-1.4875
50.45542	-1.2875
54.85868	-1.1875
59.25871	-0.3875
63.6555	42.4125
68.04907	43.4125
72.43941	45.7125
76.82654	50.6125
81.21044	51.2125
85.59113	52.0125
89.96862	54.3125
94.34289	62.8125
98.71396	62.3125
103.08183	60.5125
107.4465	66.0125
111.80798	62.1125
116.16626	61.8125
120.52136	63.4125
124.87327	64.3125
129.222	66.9125
133.56755	66.7125
137.90993	70.5125
142.24913	79.5125
146.58517	83.5125
150.91804	88.3125
155.24774	98.2125
159.57429	109.6125
163.89768	135.6125
168.21792	170.5125
172.53501	227.0125
176.84895	303.2125
181.15975	424.2125
185.46741	585.9125
189.77193	804.6125
194.07331	1059.5125
198.37157	1379.0125
202.6667	1708.0125
206.9587	2037.1125
211.24758	2388.6125
215.53334	2778.3125
219.81599	3199.9125
224.09553	3690.0125
228.37195	4233.4125
232.64527	4784.7125
236.91549	5336.1125
241.18261	5762.8125
245.44663	6028.2125
249.70755	6199.6125
253.96539	6306.6125
258.22014	6367.5125
262.4718	6426.2125
266.72039	6448.5125
270.96589	6366.7125
275.20832	6217.8125
279.44768	6008.1125
283.68397	5818.9125
287.91719	5703.7125
292.14735	5708.4125
296.37445	5889.3125
300.59849	6266.6125
304.81948	6747.1125
309.03742	7171.5125
313.25231	7335.0125
317.46415	7142.9125
321.67296	6611.3125
325.87872	6094.6125
330.08145	5843.8125
334.28114	5787.4125
338.47781	5858.8125
342.67145	6033.7125
346.86207	6287.1125
351.04966	6712.3125
355.23424	7149.9125
359.4158	7469.8125
363.59435	7520.1125
367.76989	7457.5125
371.94243	7322.9125
376.11196	7175.8125
380.27849	7055.5125
384.44203	6965.0125
388.60257	6859.4125
392.76012	6835.8125
396.91468	6912.4125
401.06626	7022.2125
405.21485	7047.4125
409.36047	6768.3125
413.50311	6278.4125
417.64277	5838.3125
421.77947	5594.4125
425.9132	5517.9125
430.04396	5510.8125
434.17176	5566.9125
438.2966	5732.0125
442.41849	5953.7125
446.53742	6228.9125
450.6534	6443.9125
454.76644	6472.0125
458.87653	6387.2125
462.98368	6234.7125
467.08789	6036.5125
471.18916	5871.6125
475.2875	5615.4125
479.38291	5433.6125
483.4754	5269.9125
487.56496	5178.9125
491.6516	5140.7125
495.73531	5143.3125
499.81612	5170.8125
503.89401	5233.0125
507.96899	5321.3125
512.04106	5435.6125
516.11023	5526.0125
520.1765	5620.3125
524.23987	5660.9125
528.30034	5647.7125
532.35792	5617.7125
536.41261	5514.7125
540.46441	5335.3125
544.51333	5230.1125
548.55936	5256.2125
552.60252	5412.0125
556.64279	5637.9125
560.6802	5769.4125
564.71473	5913.1125
568.7464	6188.5125
572.7752	6255.7125
576.80114	5948.9125
580.82422	5685.1125
584.84444	5669.6125
588.86181	5895.2125
592.87633	6332.1125
596.888	6711.2125
600.89682	6912.9125
604.9028	7833.8125
608.90594	10662.5125
612.90624	13949.3125
616.90371	12400.8125
620.89834	7886.1125
624.89015	5900.9125
628.87913	5641.9125
632.86528	5893.4125
636.84862	6098.2125
640.82913	5882.3125
644.80683	5427.2125
648.78172	5133.4125
652.75379	5183.4125
656.72306	5514.0125
660.68952	5839.7125
664.65319	5574.7125
668.61405	5080.3125
672.57211	4922.8125
676.52738	4966.9125
680.47986	4987.0125
684.42955	4898.5125
688.37646	4820.3125
692.32058	4804.5125
696.26192	4856.1125
700.20048	4972.7125
704.13626	5000.7125
708.06928	4959.5125
711.99952	4908.4125
715.927	4935.2125
719.85171	5013.4125
723.77365	5075.9125
727.69284	5055.1125
731.60928	5010.0125
735.52295	5028.2125
739.43388	5038.8125
743.34206	5064.3125
747.24749	5035.7125
751.15017	5052.0125
755.05012	5182.3125
758.94733	5698.2125
762.8418	6942.3125
766.73354	8799.0125
770.62254	10293.9125
774.50882	10683.5125
778.39237	9887.3125
782.27321	8212.4125
786.15132	6579.8125
790.02671	5609.1125
793.89938	5153.9125
797.76935	4954.9125
801.6366	4854.2125
805.50115	4765.8125
809.36299	4731.2125
813.22213	4690.0125
817.07857	4683.3125
820.93231	4656.6125
824.78336	4688.7125
828.63172	4724.8125
832.47738	4723.9125
836.32036	4684.3125
840.16066	4629.4125
843.99827	4597.0125
847.8332	4581.3125
851.66546	4609.3125
855.49504	4617.6125
859.32195	4633.1125
863.1462	4616.3125
866.96777	4592.8125
870.78668	4584.2125
874.60293	4603.0125
878.41652	4650.4125
882.22745	4729.2125
886.03573	4797.2125
889.84136	4789.7125
893.64433	4769.0125
897.44466	4752.8125
901.24235	4734.0125
905.0374	4689.9125
908.8298	4613.5125
912.61957	4545.3125
916.40671	4559.6125
920.19121	4571.9125
923.97308	4677.6125
927.75233	4821.2125
931.52895	4887.2125
935.30295	4745.4125
939.07433	4525.3125
942.84309	4352.4125
946.60924	4268.3125
950.37278	4227.4125
954.13371	4212.5125
957.89203	4204.5125
961.64774	4211.0125
965.40086	4197.4125
969.15137	4179.6125
972.89929	4153.9125
976.64461	4137.0125
980.38733	4163.6125
984.12747	4157.6125
987.86502	4187.1125
991.59999	4214.9125
995.33237	4304.2125
999.06217	4401.4125
1002.78939	4561.5125
1006.51404	4735.4125
1010.23611	4866.3125
1013.95561	4913.6125
1017.67255	4860.9125
1021.38692	4750.6125
1025.09872	4585.6125
1028.80796	4463.2125
1032.51465	4452.4125
1036.21877	4471.5125
1039.92035	4494.9125
1043.61937	4565.7125
1047.31584	4594.3125
1051.00976	4605.4125
1054.70114	4569.0125
1058.38998	4568.1125
1062.07627	4552.9125
1065.76003	4554.8125
1069.44126	4592.2125
1073.11995	4670.7125
1076.79611	4831.1125
1080.46974	5059.3125
1084.14085	5317.9125
1087.80943	5541.6125
1091.47549	5562.9125
1095.13903	5375.6125
1098.80005	5102.9125
1102.45857	4939.5125
1106.11456	4936.0125
1109.76805	5030.5125
1113.41903	5278.4125
1117.06751	5637.5125
1120.71348	6124.4125
1124.35696	6718.9125
1127.99793	7058.2125
1131.63641	6775.4125
1135.2724	6180.8125
1138.90589	5730.9125
1142.5369	5448.5125
1146.16542	5255.3125
1149.79145	5159.2125
1153.415	5132.8125
1157.03607	5189.2125
1160.65467	5360.0125
1164.27079	5658.3125
1167.88443	6164.8125
1171.49561	6934.2125
1175.10432	8195.0125
1178.71056	9866.2125
1182.31434	11247.5125
1185.91565	11567.9125
1189.51451	10959.4125
1193.11091	10034.6125
1196.70485	9156.6125
1200.29634	8451.9125
1203.88538	7729.2125
1207.47197	6959.4125
1211.05612	6306.2125
1214.63782	5915.1125
1218.21708	5768.8125
1221.79391	5785.0125
1225.36829	5834.8125
1228.94024	5818.8125
1232.50976	5721.6125
1236.07685	5633.4125
1239.6415	5578.1125
1243.20374	5605.7125
1246.76355	5647.9125
1250.32093	5706.1125
1253.8759	5854.2125
1257.42845	6085.5125
1260.97859	6444.0125
1264.52631	6845.9125
1268.07163	7196.5125
1271.61453	7413.3125
1275.15503	7540.1125
1278.69312	7647.2125
1282.22882	7798.2125
1285.76211	8245.1125
1289.29301	8802.5125
1292.82151	9350.6125
1296.34761	10005.6125
1299.87133	10982.5125
1303.39266	12542.5125
1306.9116	14694.1125
1310.42815	16637.1125
1313.94233	16932.8125
1317.45412	15528.2125
1320.96354	13470.6125
1324.47058	11509.7125
1327.97525	9948.9125
1331.47754	9067.5125
1334.97747	8662.5125
1338.47502	8789.0125
1341.97022	9323.0125
1345.46305	10288.4125
1348.95352	11654.2125
1352.44163	13369.2125
1355.92738	15751.7125
1359.41078	19102.4125
1362.89183	21601.5125
1366.37053	20052.9125
1369.84688	15616.5125
1373.32088	11880.8125
1376.79254	9947.3125
1380.26186	8974.0125
1383.72883	8257.0125
1387.19347	7617.7125
1390.65578	7095.3125
1394.11575	6761.0125
1397.57339	6599.4125
1401.0287	6538.7125
1404.48168	6477.2125
1407.93234	6447.0125
1411.38068	6469.8125
1414.82669	6536.7125
1418.27039	6547.6125
1421.71177	6456.4125
1425.15083	6341.6125
1428.58758	6314.4125
1432.02203	6496.8125
1435.45416	6619.7125
1438.88399	6626.6125
1442.31151	6579.5125
1445.73673	6549.8125
1449.15965	6562.5125
1452.58027	6462.9125
1455.9986	6335.3125
1459.41463	6308.5125
1462.82837	6427.3125
1466.23982	6715.0125
1469.64898	6972.2125
1473.05586	7138.8125
1476.46045	7285.8125
1479.86276	7436.7125
1483.26279	7707.2125
1486.66054	8118.1125
1490.05602	8764.3125
1493.44922	9693.0125
1496.84016	11060.5125
1500.22882	13149.3125
1503.61521	15893.9125
1506.99934	18550.4125
1510.38121	20024.8125
1513.76081	19413.6125
1517.13816	16777.4125
1520.51324	13589.4125
1523.88607	11080.8125
1527.25665	9613.5125
1530.62498	8902.5125
1533.99105	8418.2125
1537.35488	8037.0125
1540.71647	7745.2125
1544.07581	7502.2125
1547.4329	7319.4125
1550.78776	7215.2125
1554.14038	7172.9125
1557.49077	7205.1125
1560.83892	7476.8125
1564.18484	8026.0125
1567.52853	8733.2125
1570.86999	9275.8125
1574.20922	9577.2125
1577.54624	9316.0125
1580.88103	8457.2125
1584.2136	7471.4125
1587.54395	6999.3125
1590.87208	7073.8125
1594.19801	7649.9125
1597.52172	8344.1125
1600.84321	8541.1125
1604.16251	8092.1125
1607.47959	7431.3125
1610.79447	6711.1125
1614.10715	6066.2125
1617.41763	5591.8125
1620.7259	5289.0125
1624.03199	5202.2125
1627.33587	5227.9125
1630.63757	5506.8125
1633.93707	6048.3125
1637.23439	6989.3125
1640.52951	8527.3125
1643.82246	10621.6125
1647.11321	12737.6125
1650.40179	13588.2125
1653.68819	12429.3125
1656.97241	10000.3125
1660.25446	7706.3125
1663.53433	6155.8125
1666.81203	5269.7125
1670.08756	4753.0125
1673.36092	4473.9125
1676.63211	4263.6125
1679.90115	4117.8125
1683.16801	4013.7125
1686.43272	3941.1125
1689.69527	3880.7125
1692.95567	3819.1125
1696.2139	3805.8125
1699.46999	3783.3125
1702.72392	3740.1125
1705.97571	3705.9125
1709.22535	3675.0125
1712.47284	3704.3125
1715.71819	3671.4125
1718.96139	3655.4125
1722.20246	3619.1125
1725.44139	3579.0125
1728.67818	3549.6125
1731.91284	3495.8125
1735.14537	3448.6125
1738.37576	3425.5125
1741.60403	3411.1125
1744.83017	3390.6125
1748.05418	3391.6125
1751.27607	3388.7125
1754.49584	3370.6125
1757.71349	3375.8125
1760.92903	3360.4125
1764.14244	3315.9125
1767.35375	3292.0125
1770.56294	3271.8125
1773.77002	3248.8125
1776.97499	3221.4125
1780.17785	3193.2125
1783.37861	3172.3125
1786.57727	3152.6125
1789.77382	3135.4125
1792.96828	3125.0125
1796.16064	3105.8125
1799.3509	3092.9125
1802.53907	3082.6125
1805.72514	3075.2125
1808.90913	3057.0125
1812.09102	3035.4125
1815.27083	3022.0125
1818.44856	3007.6125
1821.6242	3010.6125
1824.79776	3002.5125
1827.96924	2970.9125
1831.13864	2970.8125
1834.30597	2982.3125
1837.47122	2960.8125
1840.6344	2937.4125
1843.7955	2935.3125
1846.95454	2938.4125
1850.11151	2929.7125
1853.26642	2918.7125
1856.41926	2931.6125
1859.57004	2918.8125
1862.71876	2908.8125
1865.86542	2915.4125
1869.01003	2902.9125
1872.15258	2911.7125
1875.29308	2915.3125
1878.43152	2916.5125
1881.56792	2896.5125
1884.70227	2899.9125
1887.83457	2892.3125
1890.96482	2883.5125
1894.09304	2885.6125
1897.21921	2871.3125
1900.34335	2879.9125
1903.46544	2879.1125
1906.58551	2882.7125
1909.70353	2872.9125
1912.81953	2856.8125
1915.93349	2861.4125
1919.04543	2862.8125
1922.15534	2846.5125
1925.26322	2831.6125
1928.36908	2820.6125
1931.47292	2810.0125
1934.57473	2793.4125
1937.67453	2780.3125
1940.77232	2767.2125
1943.86808	2745.2125
1946.96184	2738.0125
1950.05358	2732.5125
1953.14331	2731.0125
1956.23103	2714.1125
1959.31675	2725.7125
1962.40046	2717.4125
1965.48217	2711.2125
1968.56188	2699.6125
1971.63959	2704.5125
1974.7153	2684.9125
1977.78901	2669.8125
1980.86073	2664.5125
1983.93046	2645.4125
1986.99819	2637.0125
1990.06394	2614.0125
1993.1277	2612.9125
1996.18947	2585.4125
1999.24925	2589.0125
2002.30706	2578.8125
2005.36288	2563.5125
2008.41672	2558.6125
2011.46859	2544.4125
2014.51848	2539.3125
2017.56639	2532.8125
2020.61233	2539.0125
2023.6563	2516.1125
2026.6983	2525.1125
2029.73833	2501.3125
2032.7764	2485.8125
2035.8125	2487.9125
2038.84664	2485.0125
2041.87881	2479.4125
2044.90903	2468.1125
2047.93729	2469.7125
2050.96359	2473.1125
2053.98794	2467.7125
2057.01034	2455.6125
2060.03078	2460.7125
2063.04927	2448.1125
2066.06582	2441.1125
2069.08042	2435.2125
2072.09307	2438.9125
2075.10378	2444.0125
2078.11255	2435.4125
2081.11938	2434.8125
2084.12426	2441.8125
2087.12722	2439.5125
2090.12824	2440.8125
2093.12732	2440.4125
2096.12447	2438.8125
2099.11969	2440.8125
2102.11299	2434.7125
2105.10435	2426.0125
2108.09379	2434.7125
2111.08131	2440.3125
2114.0669	2431.9125
2117.05057	2451.0125
2120.03233	2453.3125
2123.01216	2446.8125
2125.99008	2457.9125
2128.96609	2464.1125
2131.94018	2460.6125
2134.91236	2449.9125
2137.88263	2447.0125
2140.851	2440.6125
2143.81746	2435.0125
2146.78201	2441.1125
2149.74466	2436.0125
2152.7054	2426.0125
2155.66425	2408.4125
2158.6212	2405.6125
2161.57625	2401.5125
2164.52941	2394.2125
2167.48067	2402.9125
2170.43004	2387.3125
2173.37752	2393.6125
2176.32311	2398.8125
2179.26681	2392.6125
2182.20863	2407.8125
2185.14856	2397.1125
2188.08661	2401.9125
2191.02278	2392.9125
2193.95707	2385.9125
2196.88948	2386.3125
2199.82001	2375.8125
2202.74867	2382.4125
2205.67545	2381.2125
2208.60037	2377.3125
2211.52341	2374.8125
2214.44458	2356.0125
2217.36388	2348.8125
2220.28132	2353.4125
2223.1969	2337.8125
2226.11061	2326.9125
2229.02246	2315.3125
2231.93245	2325.1125
2234.84058	2315.7125
2237.74686	2313.2125
2240.65128	2315.5125
2243.55385	2314.5125
2246.45456	2312.7125
2249.35343	2318.3125
2252.25044	2324.0125
2255.14561	2324.2125
2258.03893	2328.3125
2260.93041	2331.7125
2263.82004	2328.6125
2266.70783	2314.5125
2269.59378	2308.0125
2272.4779	2295.4125
2275.36017	2297.5125
2278.24061	2290.0125
2281.11922	2280.5125
2283.996	2271.4125
2286.87094	2264.3125
2289.74405	2254.5125
2292.61534	2251.2125
2295.4848	2232.7125
2298.35243	2233.1125
2301.21824	2236.2125
2304.08223	2234.3125
2306.94439	2239.9125
2309.80474	2233.1125
2312.66327	2227.3125
2315.51999	2223.6125
2318.37489	2209.4125
2321.22797	2211.1125
2324.07925	2213.0125
2326.92871	2203.9125
2329.77637	2211.7125
2332.62222	2204.7125
2335.46626	2207.1125
2338.3085	2199.4125
2341.14893	2206.3125
2343.98756	2202.8125
2346.8244	2206.5125
2349.65943	2204.0125
2352.49267	2208.1125
2355.32411	2217.4125
2358.15376	2232.8125
2360.98161	2222.5125
2363.80768	2235.6125
2366.63195	2248.5125
2369.45444	2246.6125
2372.27514	2239.7125
2375.09405	2248.8125
2377.91118	2236.7125
2380.72652	2232.2125
2383.54009	2224.6125
2386.35187	2217.1125
2389.16188	2190.6125
2391.97011	2171.9125
2394.77657	2160.6125
2397.58125	2170.7125
2400.38416	2158.9125
2403.18529	2151.5125
2405.98466	2140.8125
2408.78226	2129.8125
2411.57809	2127.1125
2414.37216	2120.5125
2417.16446	2113.4125
2419.955	2122.3125
2422.74378	2131.0125
2425.5308	2131.7125
2428.31606	2128.5125
2431.09956	2131.0125
2433.88131	2129.8125
2436.6613	2134.1125
2439.43954	2140.2125
2442.21603	2133.2125
2444.99077	2128.7125
2447.76377	2134.9125
2450.53501	2141.2125
2453.30451	2131.0125
2456.07226	2141.6125
2458.83827	2147.4125
2461.60254	2138.6125
2464.36507	2140.1125
2467.12586	2134.1125
2469.88492	2125.6125
2472.64224	2131.8125
2475.39782	2148.6125
2478.15167	2160.3125
2480.90379	2154.5125
2483.65417	2158.6125
2486.40283	2170.4125
2489.14976	2190.3125
2491.89497	2186.8125
2494.63845	2182.7125
2497.3802	2180.8125
2500.12024	2182.1125
2502.85855	2183.5125
2505.59514	2150.9125
2508.33002	2129.2125
2511.06318	2130.0125
2513.79462	2101.8125
2516.52435	2095.7125
2519.25237	2099.4125
2521.97867	2071.8125
2524.70327	2067.5125
2527.42616	2072.2125
2530.14734	2061.4125
2532.86681	2063.9125
2535.58458	2059.1125
2538.30065	2060.1125
2541.01501	2065.5125
2543.72768	2069.3125
2546.43864	2074.4125
2549.14791	2065.4125
2551.85548	2062.2125
2554.56136	2063.1125
2557.26554	2062.3125
2559.96803	2058.0125
2562.66883	2060.8125
2565.36794	2056.3125
2568.06536	2042.1125
2570.7611	2046.6125
2573.45514	2033.7125
2576.14751	2041.0125
2578.83819	2028.3125
2581.52719	2039.9125
2584.21451	2024.7125
2586.90015	2025.8125
2589.58411	2034.0125
2592.2664	2026.7125
2594.94701	2021.5125
2597.62594	2019.1125
2600.30321	2015.8125
2602.9788	2024.0125
2605.65273	2019.5125
2608.32498	2020.9125
2610.99557	2018.9125
2613.66449	2016.4125
2616.33175	2016.3125
2618.99734	2016.4125
2621.66128	2008.3125
2624.32355	1998.4125
2626.98416	2005.4125
2629.64311	1993.3125
2632.30041	1991.7125
2634.95605	1986.8125
2637.61004	1987.7125
2640.26238	1977.7125
2642.91306	1982.6125
2645.56209	1966.6125
2648.20948	1972.3125
2650.85521	1975.1125
2653.4993	1974.2125
2656.14175	1976.9125
2658.78255	1985.3125
2661.42171	1978.3125
2664.05923	1993.0125
2666.6951	2001.0125
2669.32934	1999.0125
2671.96194	2005.4125
2674.59291	1989.6125
2677.22224	2009.1125
2679.84993	1998.0125
2682.476	1996.5125
2685.10043	1992.9125
2687.72324	1980.8125
2690.34441	1987.5125
2692.96396	1982.5125
2695.58188	1976.1125
2698.19818	1977.7125
2700.81285	1976.1125
2703.4259	1977.3125
2706.03733	1993.6125
2708.64714	1985.3125
2711.25533	1990.2125
2713.86191	1984.2125
2716.46687	1994.0125
2719.07021	2002.9125
2721.67194	2002.9125
2724.27206	2001.9125
2726.87057	2000.1125
2729.46747	1982.6125
2732.06276	2007.3125
2734.65644	1994.2125
2737.24852	1991.3125
2739.83899	1985.2125
2742.42786	1987.0125
2745.01513	1972.0125
2747.60079	1970.3125
2750.18486	1963.0125
2752.76733	1961.0125
2755.3482	1955.8125
2757.92747	1948.2125
2760.50515	1952.7125
2763.08123	1953.5125
2765.65573	1940.9125
2768.22863	1936.7125
2770.79994	1938.5125
2773.36967	1937.8125
2775.9378	1944.1125
2778.50435	1942.7125
2781.06932	1936.9125
2783.6327	1943.4125
2786.1945	1947.5125
2788.75471	1947.0125
2791.31335	1945.7125
2793.87041	1954.0125
2796.42589	1952.7125
2798.97979	1940.0125
2801.53212	1943.8125
2804.08288	1958.3125
2806.63206	1961.5125
2809.17967	1952.9125
2811.72571	1964.0125
2814.27018	1972.6125
2816.81308	1968.9125
2819.35442	1965.3125
2821.89419	1972.8125
2824.43239	1975.1125
2826.96904	1980.3125
2829.50412	1991.1125
2832.03763	1990.2125
2834.56959	1987.7125
2837.1	1966.2125
2839.62884	1982.9125
2842.15613	1975.9125
2844.68186	1984.4125
2847.20604	2004.9125
2849.72867	2003.1125
2852.24974	2023.3125
2854.76927	2022.6125
2857.28724	2034.9125
2859.80367	2047.8125
2862.31855	2048.2125
2864.83189	2066.9125
2867.34368	2093.0125
2869.85393	2094.8125
2872.36264	2106.9125
2874.8698	2116.9125
2877.37543	2112.7125
2879.87952	2119.7125
2882.38207	2115.4125
2884.88308	2116.7125
2887.38256	2124.5125
2889.88051	2134.6125
2892.37692	2136.8125
2894.8718	2153.4125
2897.36515	2154.0125
2899.85698	2168.3125
2902.34727	2174.5125
2904.83604	2189.2125
2907.32328	2200.7125
2909.809	2202.4125
2912.29319	2205.5125
2914.77587	2213.4125
2917.25702	2220.2125
2919.73665	2211.6125
2922.21476	2216.7125
2924.69136	2210.1125
2927.16644	2207.0125
2929.64	2199.1125
2932.11205	2200.8125
2934.58258	2192.1125
2937.05161	2193.0125
2939.51912	2190.1125
2941.98513	2177.5125
2944.44962	2170.0125
2946.91261	2157.9125
2949.37409	2138.1125
2951.83407	2127.5125
2954.29254	2141.0125
2956.74951	2123.3125
2959.20498	2102.9125
2961.65895	2092.9125
2964.11142	2069.2125
2966.56239	2062.6125
2969.01186	2045.3125
2971.45984	2025.4125
2973.90632	2027.3125
2976.35131	2016.0125
2978.7948	2005.9125
2981.23681	1994.4125
2983.67732	1993.7125
2986.11635	1981.2125
2988.55388	1965.0125
2990.98993	1958.7125
2993.4245	1953.7125
2995.85758	1950.2125
2998.28917	1947.0125
3000.71928	1944.0125
3003.14791	1942.6125
3005.57506	1936.1125
3008.00073	1924.4125
3010.42493	1890.8125
3012.84764	1916.5125
3015.26888	1921.0125
3017.68865	1913.1125
3020.10694	1910.0125
3022.52376	1896.1125
3024.9391	1895.5125
3027.35298	1898.1125
3029.76539	1894.6125
3032.17632	1889.1125
3034.5858	1868.8125
3036.9938	1875.7125
3039.40034	1867.3125
3041.80542	1877.4125
3044.20903	1874.8125
3046.61118	1873.1125
3049.01187	1879.1125
3051.4111	1859.4125
3053.80888	1875.3125
3056.20519	1864.4125
3058.60005	1868.9125
3060.99345	1871.6125
3063.3854	1868.1125
3065.7759	1856.8125
3068.16494	1862.5125
3070.55254	1843.1125
3072.93868	1848.4125
3075.32338	1846.2125
3077.70662	1842.0125
3080.08842	1834.3125
3082.46878	1830.4125
3084.84769	1839.7125
3087.22515	1846.1125
3089.60118	1844.9125
3091.97576	1838.5125
3094.3489	1849.2125
3096.72061	1854.9125
3099.09087	1862.8125
3101.4597	1869.7125
3103.82709	1863.6125
3106.19305	1866.2125
3108.55757	1879.1125
3110.92066	1876.9125
3113.28232	1884.9125
3115.64255	1886.2125
3118.00134	1903.1125
3120.35871	1898.8125
3122.71466	1883.1125
3125.06917	1887.5125
