Data from AgNPs_UA_20uM_CRN_500uM_AS_RamanShift__24__14-51-31-526.txt Node

Date: Wed Aug 17 14:51:31 BST 2022
User: TCL
Spectrometer: QEP01345
Trigger mode: 4
Integration Time (sec): 7.000000E0
Scans to average: 10
Electric dark correction enabled: true
Nonlinearity correction enabled: false
Boxcar width: 0
XAxis mode: Raman Shifts
Number of Pixels in Spectrum: 1044
>>>>>Begin Spectral Data<<<<<
46.04893	-0.425
50.45542	1.675
54.85868	-2.325
59.25871	-0.525
63.6555	37.575
68.04907	40.975
72.43941	43.775
76.82654	47.775
81.21044	46.775
85.59113	47.775
89.96862	51.475
94.34289	57.375
98.71396	59.375
103.08183	60.275
107.4465	59.675
111.80798	59.275
116.16626	60.875
120.52136	61.375
124.87327	60.975
129.222	62.175
133.56755	64.475
137.90993	64.175
142.24913	72.975
146.58517	76.775
150.91804	84.575
155.24774	95.175
159.57429	106.175
163.89768	129.275
168.21792	169.375
172.53501	222.875
176.84895	300.075
181.15975	417.375
185.46741	578.675
189.77193	800.375
194.07331	1062.875
198.37157	1372.875
202.6667	1712.975
206.9587	2045.275
211.24758	2417.675
215.53334	2809.375
219.81599	3286.875
224.09553	3814.875
228.37195	4391.275
232.64527	5004.775
236.91549	5532.575
241.18261	5937.075
245.44663	6207.275
249.70755	6367.175
253.96539	6500.375
258.22014	6638.475
262.4718	6755.175
266.72039	6793.875
270.96589	6732.875
275.20832	6528.175
279.44768	6250.675
283.68397	5997.875
287.91719	5860.875
292.14735	5942.575
296.37445	6265.575
300.59849	6811.875
304.81948	7482.975
309.03742	7980.175
313.25231	8082.575
317.46415	7559.475
321.67296	6684.875
325.87872	5938.775
330.08145	5613.575
334.28114	5614.975
338.47781	5766.975
342.67145	6000.475
346.86207	6384.875
351.04966	7004.375
355.23424	7774.175
359.4158	8329.175
363.59435	8573.275
367.76989	8583.675
371.94243	8389.075
376.11196	8184.975
380.27849	8006.475
384.44203	7776.175
388.60257	7525.475
392.76012	7354.275
396.91468	7320.975
401.06626	7501.275
405.21485	7547.075
409.36047	7206.775
413.50311	6497.475
417.64277	5851.875
421.77947	5462.075
425.9132	5286.375
430.04396	5246.475
434.17176	5251.175
438.2966	5358.675
442.41849	5530.675
446.53742	5706.775
450.6534	5858.975
454.76644	5882.175
458.87653	5847.975
462.98368	5744.875
467.08789	5627.875
471.18916	5446.075
475.2875	5275.575
479.38291	5118.475
483.4754	5008.975
487.56496	4916.675
491.6516	4895.475
495.73531	4901.375
499.81612	4935.575
503.89401	5056.775
507.96899	5205.575
512.04106	5399.875
516.11023	5616.775
520.1765	5745.275
524.23987	5718.675
528.30034	5603.575
532.35792	5498.575
536.41261	5367.075
540.46441	5179.075
544.51333	5060.775
548.55936	5105.475
552.60252	5253.475
556.64279	5459.875
560.6802	5625.375
564.71473	5942.975
568.7464	6428.775
572.7752	6461.975
576.80114	5811.275
580.82422	5230.875
584.84444	4965.975
588.86181	4933.175
592.87633	4999.475
596.888	5198.275
600.89682	5710.875
604.9028	7418.275
608.90594	11546.775
612.90624	16230.375
616.90371	14485.675
620.89834	8475.875
624.89015	5876.775
628.87913	5434.675
632.86528	5663.275
636.84862	5976.375
640.82913	5801.875
644.80683	5255.275
648.78172	4916.375
652.75379	4982.575
656.72306	5473.475
660.68952	5951.475
664.65319	5632.875
668.61405	4998.775
672.57211	4795.675
676.52738	4826.075
680.47986	4832.175
684.42955	4718.175
688.37646	4637.175
692.32058	4604.675
696.26192	4654.675
700.20048	4736.175
704.13626	4774.375
708.06928	4750.775
711.99952	4656.075
715.927	4679.875
719.85171	4749.175
723.77365	4808.575
727.69284	4793.875
731.60928	4736.575
735.52295	4717.275
739.43388	4731.675
743.34206	4754.375
747.24749	4764.475
751.15017	4771.175
755.05012	4925.875
758.94733	5503.975
762.8418	6945.275
766.73354	9270.975
770.62254	11259.075
774.50882	12061.775
778.39237	11226.475
782.27321	8996.075
786.15132	6796.175
790.02671	5549.875
793.89938	4985.775
797.76935	4777.775
801.6366	4667.975
805.50115	4605.975
809.36299	4568.675
813.22213	4514.775
817.07857	4518.875
820.93231	4502.375
824.78336	4549.575
828.63172	4592.375
832.47738	4608.175
836.32036	4540.375
840.16066	4467.975
843.99827	4422.975
847.8332	4410.975
851.66546	4406.275
855.49504	4450.775
859.32195	4432.075
863.1462	4448.075
866.96777	4432.875
870.78668	4422.775
874.60293	4436.075
878.41652	4471.875
882.22745	4524.975
886.03573	4564.575
889.84136	4563.175
893.64433	4524.175
897.44466	4512.675
901.24235	4524.675
905.0374	4461.175
908.8298	4387.775
912.61957	4325.775
916.40671	4309.675
920.19121	4323.875
923.97308	4398.275
927.75233	4584.375
931.52895	4739.675
935.30295	4654.175
939.07433	4399.575
942.84309	4181.175
946.60924	4052.175
950.37278	4009.875
954.13371	3964.475
957.89203	3966.475
961.64774	3937.375
965.40086	3942.075
969.15137	3912.575
972.89929	3905.275
976.64461	3886.775
980.38733	3891.275
984.12747	3904.775
987.86502	3918.075
991.59999	3938.675
995.33237	3974.675
999.06217	4076.075
1002.78939	4198.975
1006.51404	4358.475
1010.23611	4457.175
1013.95561	4472.675
1017.67255	4392.375
1021.38692	4348.375
1025.09872	4231.875
1028.80796	4150.975
1032.51465	4161.775
1036.21877	4220.275
1039.92035	4280.775
1043.61937	4341.275
1047.31584	4349.475
1051.00976	4353.575
1054.70114	4307.475
1058.38998	4271.275
1062.07627	4251.875
1065.76003	4248.975
1069.44126	4257.275
1073.11995	4309.975
1076.79611	4474.675
1080.46974	4752.375
1084.14085	5071.075
1087.80943	5366.975
1091.47549	5437.375
1095.13903	5224.575
1098.80005	4921.275
1102.45857	4725.075
1106.11456	4720.975
1109.76805	4877.175
1113.41903	5214.175
1117.06751	5731.675
1120.71348	6359.575
1124.35696	7079.975
1127.99793	7536.775
1131.63641	7147.975
1135.2724	6309.775
1138.90589	5640.375
1142.5369	5230.775
1146.16542	4950.475
1149.79145	4787.775
1153.415	4738.575
1157.03607	4751.175
1160.65467	4904.575
1164.27079	5204.775
1167.88443	5637.475
1171.49561	6380.275
1175.10432	7640.575
1178.71056	9484.675
1182.31434	11017.375
1185.91565	11265.075
1189.51451	10393.775
1193.11091	9098.375
1196.70485	7948.375
1200.29634	7282.075
1203.88538	6746.675
1207.47197	6066.975
1211.05612	5426.475
1214.63782	5016.375
1218.21708	4820.275
1221.79391	4728.175
1225.36829	4741.075
1228.94024	4695.875
1232.50976	4667.475
1236.07685	4647.875
1239.6415	4686.975
1243.20374	4742.075
1246.76355	4809.775
1250.32093	4920.375
1253.8759	5043.575
1257.42845	5270.075
1260.97859	5549.475
1264.52631	5906.175
1268.07163	6246.975
1271.61453	6531.575
1275.15503	6662.975
1278.69312	6694.975
1282.22882	6758.875
1285.76211	7079.075
1289.29301	7537.475
1292.82151	7988.775
1296.34761	8563.975
1299.87133	9488.675
1303.39266	11256.875
1306.9116	13909.375
1310.42815	16318.775
1313.94233	16600.275
1317.45412	14574.275
1320.96354	11969.475
1324.47058	9750.175
1327.97525	8134.475
1331.47754	7203.775
1334.97747	6868.075
1338.47502	6985.475
1341.97022	7624.175
1345.46305	8818.775
1348.95352	10514.675
1352.44163	12600.975
1355.92738	15485.875
1359.41078	19792.275
1362.89183	23447.975
1366.37053	21628.675
1369.84688	15907.275
1373.32088	11425.975
1376.79254	9133.175
1380.26186	7882.075
1383.72883	7029.975
1387.19347	6322.975
1390.65578	5790.275
1394.11575	5384.375
1397.57339	5140.375
1401.0287	4996.775
1404.48168	4950.275
1407.93234	4912.975
1411.38068	4940.075
1414.82669	5091.075
1418.27039	5224.075
1421.71177	5235.875
1425.15083	5168.375
1428.58758	5178.775
1432.02203	5335.875
1435.45416	5426.475
1438.88399	5371.975
1442.31151	5251.875
1445.73673	5234.875
1449.15965	5255.475
1452.58027	5238.875
1455.9986	5158.075
1459.41463	5129.175
1462.82837	5229.975
1466.23982	5455.175
1469.64898	5661.475
1473.05586	5789.275
1476.46045	5814.675
1479.86276	5898.175
1483.26279	6125.375
1486.66054	6524.575
1490.05602	7143.075
1493.44922	8132.875
1496.84016	9779.975
1500.22882	12504.575
1503.61521	16395.075
1506.99934	20534.675
1510.38121	23184.875
1513.76081	22696.575
1517.13816	19206.375
1520.51324	14754.775
1523.88607	11129.675
1527.25665	8962.575
1530.62498	7764.175
1533.99105	7095.675
1537.35488	6641.575
1540.71647	6391.175
1544.07581	6311.375
1547.4329	6372.475
1550.78776	6522.675
1554.14038	6700.875
1557.49077	6935.275
1560.83892	7260.075
1564.18484	7877.475
1567.52853	8619.775
1570.86999	9276.175
1574.20922	9574.575
1577.54624	9257.275
1580.88103	8144.375
1584.2136	6841.575
1587.54395	6022.975
1590.87208	5811.775
1594.19801	6162.875
1597.52172	6676.375
1600.84321	6816.375
1604.16251	6414.775
1607.47959	5970.375
1610.79447	5535.375
1614.10715	5106.075
1617.41763	4730.875
1620.7259	4527.575
1624.03199	4485.375
1627.33587	4548.975
1630.63757	4751.775
1633.93707	5136.375
1637.23439	5832.975
1640.52951	7058.475
1643.82246	9004.075
1647.11321	11454.375
1650.40179	13000.675
1653.68819	12326.575
1656.97241	9938.575
1660.25446	7477.475
1663.53433	5817.975
1666.81203	4898.375
1670.08756	4365.575
1673.36092	4064.975
1676.63211	3870.775
1679.90115	3725.575
1683.16801	3629.375
1686.43272	3574.975
1689.69527	3520.475
1692.95567	3471.075
1696.2139	3485.175
1699.46999	3454.775
1702.72392	3446.375
1705.97571	3411.975
1709.22535	3409.975
1712.47284	3399.875
1715.71819	3388.675
1718.96139	3361.075
1722.20246	3308.675
1725.44139	3276.975
1728.67818	3230.275
1731.91284	3177.075
1735.14537	3138.175
1738.37576	3135.775
1741.60403	3118.875
1744.83017	3108.875
1748.05418	3100.775
1751.27607	3085.475
1754.49584	3089.675
1757.71349	3069.575
1760.92903	3043.675
1764.14244	3017.475
1767.35375	2997.675
1770.56294	2970.675
1773.77002	2947.875
1776.97499	2911.975
1780.17785	2882.775
1783.37861	2852.875
1786.57727	2841.475
1789.77382	2833.775
1792.96828	2825.775
1796.16064	2797.075
1799.3509	2797.375
1802.53907	2800.075
1805.72514	2766.975
1808.90913	2759.075
1812.09102	2735.075
1815.27083	2723.275
1818.44856	2720.275
1821.6242	2704.475
1824.79776	2705.375
1827.96924	2694.775
1831.13864	2682.175
1834.30597	2667.075
1837.47122	2656.775
1840.6344	2644.275
1843.7955	2643.775
1846.95454	2630.775
1850.11151	2629.275
1853.26642	2615.375
1856.41926	2625.575
1859.57004	2607.575
1862.71876	2610.175
1865.86542	2612.575
1869.01003	2615.475
1872.15258	2610.275
1875.29308	2619.775
1878.43152	2606.775
1881.56792	2608.175
1884.70227	2600.375
1887.83457	2598.775
1890.96482	2601.275
1894.09304	2584.675
1897.21921	2594.075
1900.34335	2577.075
1903.46544	2582.775
1906.58551	2575.875
1909.70353	2576.775
1912.81953	2571.575
1915.93349	2577.075
1919.04543	2560.375
1922.15534	2552.575
1925.26322	2538.775
1928.36908	2533.475
1931.47292	2521.975
1934.57473	2516.275
1937.67453	2495.175
1940.77232	2470.875
1943.86808	2462.675
1946.96184	2458.575
1950.05358	2448.675
1953.14331	2447.075
1956.23103	2437.375
1959.31675	2439.875
1962.40046	2421.875
1965.48217	2428.675
1968.56188	2423.575
1971.63959	2436.175
1974.7153	2415.075
1977.78901	2411.375
1980.86073	2397.575
1983.93046	2376.575
1986.99819	2363.575
1990.06394	2358.475
1993.1277	2337.775
1996.18947	2321.975
1999.24925	2320.575
2002.30706	2304.375
2005.36288	2296.975
2008.41672	2288.975
2011.46859	2281.175
2014.51848	2273.075
2017.56639	2272.275
2020.61233	2259.575
2023.6563	2249.275
2026.6983	2237.875
2029.73833	2239.975
2032.7764	2228.475
2035.8125	2218.275
2038.84664	2211.175
2041.87881	2217.575
2044.90903	2214.275
2047.93729	2210.275
2050.96359	2201.375
2053.98794	2188.875
2057.01034	2189.675
2060.03078	2200.775
2063.04927	2178.975
2066.06582	2178.375
2069.08042	2165.675
2072.09307	2163.675
2075.10378	2159.375
2078.11255	2160.875
2081.11938	2158.075
2084.12426	2157.175
2087.12722	2156.375
2090.12824	2162.675
2093.12732	2172.175
2096.12447	2162.475
2099.11969	2160.975
2102.11299	2162.975
2105.10435	2152.175
2108.09379	2160.575
2111.08131	2172.175
2114.0669	2163.175
2117.05057	2175.875
2120.03233	2193.575
2123.01216	2192.575
2125.99008	2185.375
2128.96609	2188.275
2131.94018	2181.075
2134.91236	2183.375
2137.88263	2183.575
2140.851	2175.675
2143.81746	2169.875
2146.78201	2171.875
2149.74466	2156.975
2152.7054	2148.375
2155.66425	2145.475
2158.6212	2155.075
2161.57625	2151.075
2164.52941	2143.975
2167.48067	2136.175
2170.43004	2133.275
2173.37752	2136.275
2176.32311	2120.275
2179.26681	2123.575
2182.20863	2133.075
2185.14856	2148.675
2188.08661	2135.575
2191.02278	2140.075
2193.95707	2127.475
2196.88948	2124.575
2199.82001	2124.875
2202.74867	2126.975
2205.67545	2118.275
2208.60037	2120.375
2211.52341	2101.075
2214.44458	2106.775
2217.36388	2085.475
2220.28132	2092.975
2223.1969	2076.775
2226.11061	2079.875
2229.02246	2068.175
2231.93245	2062.675
2234.84058	2064.975
2237.74686	2057.075
2240.65128	2060.875
2243.55385	2064.475
2246.45456	2073.375
2249.35343	2073.975
2252.25044	2070.675
2255.14561	2080.675
2258.03893	2082.775
2260.93041	2090.175
2263.82004	2090.575
2266.70783	2093.275
2269.59378	2079.875
2272.4779	2074.375
2275.36017	2047.875
2278.24061	2064.875
2281.11922	2050.075
2283.996	2048.175
2286.87094	2030.575
2289.74405	2026.775
2292.61534	2014.475
2295.4848	2012.875
2298.35243	2007.075
2301.21824	1999.875
2304.08223	1989.975
2306.94439	2000.675
2309.80474	2000.075
2312.66327	1996.575
2315.51999	1993.775
2318.37489	1992.475
2321.22797	1988.275
2324.07925	1990.675
2326.92871	1985.975
2329.77637	1990.675
2332.62222	1966.375
2335.46626	1976.675
2338.3085	1973.675
2341.14893	1972.475
2343.98756	1980.975
2346.8244	1975.775
2349.65943	1992.175
2352.49267	1983.275
2355.32411	2005.775
2358.15376	2012.675
2360.98161	2022.675
2363.80768	2029.375
2366.63195	2047.775
2369.45444	2036.275
2372.27514	2045.575
2375.09405	2039.575
2377.91118	2040.675
2380.72652	2013.475
2383.54009	2008.275
2386.35187	2000.175
2389.16188	1969.275
2391.97011	1964.775
2394.77657	1954.075
2397.58125	1949.075
2400.38416	1933.875
2403.18529	1924.175
2405.98466	1923.675
2408.78226	1910.575
2411.57809	1912.175
2414.37216	1896.275
2417.16446	1898.475
2419.955	1904.275
2422.74378	1904.575
2425.5308	1906.175
2428.31606	1918.175
2431.09956	1909.975
2433.88131	1915.975
2436.6613	1924.075
2439.43954	1904.575
2442.21603	1924.375
2444.99077	1920.875
2447.76377	1922.475
2450.53501	1922.875
2453.30451	1932.475
2456.07226	1928.075
2458.83827	1924.975
2461.60254	1930.475
2464.36507	1923.175
2467.12586	1926.675
2469.88492	1919.575
2472.64224	1932.275
2475.39782	1942.775
2478.15167	1941.975
2480.90379	1947.575
2483.65417	1961.675
2486.40283	1976.575
2489.14976	1973.375
2491.89497	1978.775
2494.63845	1985.875
2497.3802	1986.575
2500.12024	1971.075
2502.85855	1972.675
2505.59514	1956.175
2508.33002	1933.175
2511.06318	1911.975
2513.79462	1902.075
2516.52435	1876.075
2519.25237	1853.875
2521.97867	1848.575
2524.70327	1839.375
2527.42616	1828.575
2530.14734	1826.975
2532.86681	1820.175
2535.58458	1819.475
2538.30065	1825.675
2541.01501	1838.575
2543.72768	1844.975
2546.43864	1837.275
2549.14791	1835.975
2551.85548	1838.875
2554.56136	1838.275
2557.26554	1844.675
2559.96803	1831.475
2562.66883	1829.875
2565.36794	1826.175
2568.06536	1820.275
2570.7611	1817.275
2573.45514	1814.575
2576.14751	1804.275
2578.83819	1800.675
2581.52719	1793.075
2584.21451	1794.275
2586.90015	1800.175
2589.58411	1789.175
2592.2664	1779.075
2594.94701	1781.175
2597.62594	1784.775
2600.30321	1778.675
2602.9788	1786.075
2605.65273	1772.675
2608.32498	1783.375
2610.99557	1780.775
2613.66449	1784.375
2616.33175	1783.975
2618.99734	1781.375
2621.66128	1779.075
2624.32355	1768.975
2626.98416	1762.275
2629.64311	1759.875
2632.30041	1759.475
2634.95605	1755.075
2637.61004	1748.875
2640.26238	1739.575
2642.91306	1738.275
2645.56209	1733.375
2648.20948	1733.475
2650.85521	1729.675
2653.4993	1730.375
2656.14175	1730.675
2658.78255	1739.875
2661.42171	1753.275
2664.05923	1749.975
2666.6951	1752.875
2669.32934	1757.975
2671.96194	1761.275
2674.59291	1758.575
2677.22224	1758.975
2679.84993	1761.075
2682.476	1766.775
2685.10043	1754.075
2687.72324	1741.575
2690.34441	1746.375
2692.96396	1738.775
2695.58188	1735.675
2698.19818	1735.075
2700.81285	1735.575
2703.4259	1732.075
2706.03733	1748.475
2708.64714	1751.375
2711.25533	1753.275
2713.86191	1746.075
2716.46687	1754.475
2719.07021	1753.575
2721.67194	1753.875
2724.27206	1750.375
2726.87057	1752.175
2729.46747	1746.575
2732.06276	1742.875
2734.65644	1738.075
2737.24852	1728.975
2739.83899	1719.775
2742.42786	1722.775
2745.01513	1718.475
2747.60079	1709.175
2750.18486	1704.875
2752.76733	1704.675
2755.3482	1702.275
2757.92747	1694.375
2760.50515	1687.175
2763.08123	1687.575
2765.65573	1681.475
2768.22863	1684.975
2770.79994	1670.875
2773.36967	1677.475
2775.9378	1671.975
2778.50435	1663.275
2781.06932	1675.375
2783.6327	1678.875
2786.1945	1682.775
2788.75471	1678.275
2791.31335	1681.175
2793.87041	1684.375
2796.42589	1692.975
2798.97979	1689.675
2801.53212	1692.975
2804.08288	1690.675
2806.63206	1690.675
2809.17967	1704.875
2811.72571	1713.475
2814.27018	1724.175
2816.81308	1719.275
2819.35442	1725.575
2821.89419	1729.875
2824.43239	1735.275
2826.96904	1741.575
2829.50412	1740.475
2832.03763	1734.375
2834.56959	1739.075
2837.1	1728.875
2839.62884	1731.975
2842.15613	1732.375
2844.68186	1743.475
2847.20604	1743.675
2849.72867	1748.375
2852.24974	1764.175
2854.76927	1775.175
2857.28724	1777.875
2859.80367	1782.075
2862.31855	1792.875
2864.83189	1806.975
2867.34368	1825.275
2869.85393	1836.775
2872.36264	1839.575
2874.8698	1849.975
2877.37543	1847.975
2879.87952	1854.875
2882.38207	1863.275
2884.88308	1866.175
2887.38256	1862.075
2889.88051	1854.275
2892.37692	1863.175
2894.8718	1865.275
2897.36515	1875.975
2899.85698	1880.175
2902.34727	1889.675
2904.83604	1887.875
2907.32328	1886.575
2909.809	1883.575
2912.29319	1888.375
2914.77587	1885.375
2917.25702	1892.875
2919.73665	1887.275
2922.21476	1902.475
2924.69136	1899.675
2927.16644	1901.075
2929.64	1892.575
2932.11205	1885.575
2934.58258	1880.775
2937.05161	1877.575
2939.51912	1877.975
2941.98513	1873.175
2944.44962	1871.675
2946.91261	1863.875
2949.37409	1846.475
2951.83407	1843.175
2954.29254	1844.475
2956.74951	1834.975
2959.20498	1818.475
2961.65895	1813.675
2964.11142	1800.075
2966.56239	1791.775
2969.01186	1782.475
2971.45984	1769.175
2973.90632	1766.675
2976.35131	1755.075
2978.7948	1750.475
2981.23681	1745.075
2983.67732	1734.675
2986.11635	1728.675
2988.55388	1726.975
2990.98993	1717.175
2993.4245	1710.975
2995.85758	1712.975
2998.28917	1722.875
3000.71928	1713.475
3003.14791	1725.175
3005.57506	1714.875
3008.00073	1715.075
3010.42493	1677.375
3012.84764	1704.975
3015.26888	1707.075
3017.68865	1706.475
3020.10694	1709.275
3022.52376	1703.575
3024.9391	1695.775
3027.35298	1690.475
3029.76539	1679.875
3032.17632	1681.375
3034.5858	1664.375
3036.9938	1667.175
3039.40034	1667.775
3041.80542	1669.175
3044.20903	1658.675
3046.61118	1656.275
3049.01187	1644.075
3051.4111	1647.575
3053.80888	1652.075
3056.20519	1652.175
3058.60005	1659.475
3060.99345	1649.075
3063.3854	1658.475
3065.7759	1647.475
3068.16494	1648.775
3070.55254	1645.275
3072.93868	1625.775
3075.32338	1622.175
3077.70662	1631.475
3080.08842	1632.075
3082.46878	1631.475
3084.84769	1618.975
3087.22515	1636.475
3089.60118	1629.475
3091.97576	1637.475
3094.3489	1637.875
3096.72061	1652.375
3099.09087	1652.175
3101.4597	1654.075
3103.82709	1663.375
3106.19305	1669.475
3108.55757	1678.475
3110.92066	1674.075
3113.28232	1682.175
3115.64255	1689.475
3118.00134	1697.375
3120.35871	1689.375
3122.71466	1685.275
3125.06917	1701.375
3127.42226	1703.075
3129.77393	1699.675
3132.12417	1720.975
3134.47299	1712.675
3136.82039	1725.775
3139.16636	1729.275
3141.51092	1735.575
3143.85406	1735.375
3146.19579	1746.475
3148.53609	1748.575
3150.87499	1751.375
3153.21246	1779.475
3155.54853	1787.475
3157.88318	1780.575
3160.21642	1800.675
3162.54826	1797.875
3164.87868	1802.175
3167.2077	1817.975
3169.5353	1826.475
3171.86151	1828.275
3174.18631	1841.875
3176.5097	1833.275
3178.83169	1837.975
3181.15228	1839.875
3183.47147	1837.175
3185.78926	1840.875
3188.10565	1849.975
3190.42065	1859.975
3192.73424	1855.875
3195.04645	1870.475
3197.35725	1876.875
3199.66667	1875.075
3201.97469	1889.775
3204.28132	1888.175
3206.58656	1910.075
3208.8904	1917.875
3211.19287	1933.475
3213.49394	1935.875
3215.79363	1935.475
3218.09193	1943.775
3220.38884	1953.175
3222.68438	1968.175
3224.97853	1962.975
3227.2713	1963.775
3229.56269	1967.175
3231.8527	1979.675
3234.14133	1976.075
3236.42858	1967.075
