Data from AgNPs_UA_5uM_CRN_500uM_AS_RamanShift__21__13-22-03-844.txt Node

Date: Wed Aug 17 13:22:03 BST 2022
User: TCL
Spectrometer: QEP01345
Trigger mode: 4
Integration Time (sec): 7.000000E0
Scans to average: 10
Electric dark correction enabled: true
Nonlinearity correction enabled: false
Boxcar width: 0
XAxis mode: Raman Shifts
Number of Pixels in Spectrum: 1044
>>>>>Begin Spectral Data<<<<<
46.04893	-0.225
50.45542	0.775
54.85868	-0.425
59.25871	-0.525
63.6555	44.275
68.04907	49.175
72.43941	52.475
76.82654	56.975
81.21044	61.875
85.59113	60.375
89.96862	67.675
94.34289	70.375
98.71396	69.575
103.08183	74.775
107.4465	76.975
111.80798	73.875
116.16626	76.575
120.52136	76.375
124.87327	77.375
129.222	77.875
133.56755	83.275
137.90993	83.875
142.24913	89.475
146.58517	88.375
150.91804	91.975
155.24774	105.675
159.57429	124.975
163.89768	147.975
168.21792	179.075
172.53501	227.275
176.84895	297.475
181.15975	395.475
185.46741	536.175
189.77193	742.575
194.07331	1007.575
198.37157	1331.875
202.6667	1696.975
206.9587	2074.475
211.24758	2490.775
215.53334	2943.475
219.81599	3432.075
224.09553	3974.775
228.37195	4517.275
232.64527	5035.475
236.91549	5480.075
241.18261	5769.675
245.44663	5886.975
249.70755	5895.075
253.96539	5845.175
258.22014	5779.875
262.4718	5670.175
266.72039	5516.775
270.96589	5270.375
275.20832	4996.475
279.44768	4686.575
283.68397	4438.175
287.91719	4290.075
292.14735	4286.975
296.37445	4430.475
300.59849	4743.875
304.81948	5180.875
309.03742	5553.975
313.25231	5677.775
317.46415	5346.375
321.67296	4739.575
325.87872	4211.075
330.08145	3955.975
334.28114	3954.975
338.47781	4081.275
342.67145	4245.375
346.86207	4500.275
351.04966	4962.475
355.23424	5479.775
359.4158	5829.975
363.59435	5931.475
367.76989	5843.075
371.94243	5625.275
376.11196	5429.375
380.27849	5265.675
384.44203	5080.775
388.60257	4929.675
392.76012	4815.075
396.91468	4801.075
401.06626	4921.675
405.21485	4981.875
409.36047	4742.975
413.50311	4336.875
417.64277	3956.875
421.77947	3721.175
425.9132	3615.375
430.04396	3594.675
434.17176	3623.175
438.2966	3702.475
442.41849	3838.275
446.53742	3978.075
450.6534	4078.675
454.76644	4102.475
458.87653	4093.075
462.98368	4018.075
467.08789	3927.175
471.18916	3809.675
475.2875	3676.975
479.38291	3544.675
483.4754	3476.775
487.56496	3418.575
491.6516	3402.275
495.73531	3395.675
499.81612	3439.875
503.89401	3479.975
507.96899	3582.375
512.04106	3665.575
516.11023	3784.875
520.1765	3860.475
524.23987	3842.575
528.30034	3775.875
532.35792	3700.075
536.41261	3609.975
540.46441	3508.275
544.51333	3436.075
548.55936	3459.575
552.60252	3542.075
556.64279	3675.875
560.6802	3830.475
564.71473	4132.475
568.7464	4583.575
572.7752	4633.875
576.80114	4162.375
580.82422	3723.375
584.84444	3490.075
588.86181	3409.975
592.87633	3419.975
596.888	3554.375
600.89682	3932.675
604.9028	5045.375
608.90594	7672.675
612.90624	10739.675
616.90371	9783.875
620.89834	5946.775
624.89015	4259.175
628.87913	3972.375
632.86528	4154.675
636.84862	4388.575
640.82913	4320.675
644.80683	4033.975
648.78172	3872.675
652.75379	3908.675
656.72306	4185.675
660.68952	4433.275
664.65319	4283.275
668.61405	4032.675
672.57211	4127.575
676.52738	4480.575
680.47986	4742.775
684.42955	4704.475
688.37646	4501.375
692.32058	4294.975
696.26192	4185.775
700.20048	4157.675
704.13626	4126.375
708.06928	3978.975
711.99952	3772.075
715.927	3645.275
719.85171	3632.175
723.77365	3680.075
727.69284	3669.275
731.60928	3630.675
735.52295	3595.275
739.43388	3572.975
743.34206	3594.975
747.24749	3625.075
751.15017	3659.875
755.05012	3813.875
758.94733	4222.875
762.8418	5137.075
766.73354	6483.875
770.62254	7485.375
774.50882	7819.275
778.39237	7417.075
782.27321	6118.075
786.15132	4731.075
790.02671	3905.875
793.89938	3568.775
797.76935	3443.875
801.6366	3387.375
805.50115	3395.475
809.36299	3377.275
813.22213	3321.975
817.07857	3278.275
820.93231	3268.275
824.78336	3294.275
828.63172	3331.975
832.47738	3342.075
836.32036	3292.575
840.16066	3249.175
843.99827	3208.275
847.8332	3217.675
851.66546	3277.775
855.49504	3382.975
859.32195	3539.275
863.1462	3642.475
866.96777	3655.575
870.78668	3557.775
874.60293	3425.975
878.41652	3379.075
882.22745	3388.875
886.03573	3368.975
889.84136	3326.675
893.64433	3290.575
897.44466	3289.275
901.24235	3283.475
905.0374	3244.475
908.8298	3199.075
912.61957	3179.575
916.40671	3218.175
920.19121	3326.675
923.97308	3504.975
927.75233	3781.975
931.52895	3999.175
935.30295	3967.375
939.07433	3701.875
942.84309	3438.375
946.60924	3222.275
950.37278	3065.275
954.13371	3002.675
957.89203	2978.575
961.64774	2967.875
965.40086	2957.575
969.15137	2928.275
972.89929	2922.775
976.64461	2925.375
980.38733	2896.675
984.12747	2886.375
987.86502	2898.075
991.59999	2895.575
995.33237	2921.575
999.06217	2956.975
1002.78939	3028.175
1006.51404	3137.475
1010.23611	3187.675
1013.95561	3176.275
1017.67255	3124.475
1021.38692	3100.775
1025.09872	3065.275
1028.80796	3036.275
1032.51465	3064.575
1036.21877	3137.575
1039.92035	3193.175
1043.61937	3269.475
1047.31584	3320.675
1051.00976	3343.075
1054.70114	3303.675
1058.38998	3242.175
1062.07627	3200.675
1065.76003	3145.175
1069.44126	3114.975
1073.11995	3147.675
1076.79611	3226.075
1080.46974	3384.775
1084.14085	3611.075
1087.80943	3784.975
1091.47549	3797.075
1095.13903	3658.875
1098.80005	3443.075
1102.45857	3335.275
1106.11456	3330.275
1109.76805	3442.675
1113.41903	3659.375
1117.06751	4004.675
1120.71348	4488.275
1124.35696	5037.775
1127.99793	5375.975
1131.63641	5041.075
1135.2724	4470.475
1138.90589	4024.675
1142.5369	3773.575
1146.16542	3572.675
1149.79145	3463.475
1153.415	3407.175
1157.03607	3414.475
1160.65467	3477.975
1164.27079	3633.975
1167.88443	3893.175
1171.49561	4322.075
1175.10432	5087.875
1178.71056	6105.575
1182.31434	6922.575
1185.91565	6945.975
1189.51451	6404.075
1193.11091	5708.175
1196.70485	5125.275
1200.29634	4812.175
1203.88538	4535.175
1207.47197	4130.175
1211.05612	3748.575
1214.63782	3542.675
1218.21708	3419.275
1221.79391	3393.475
1225.36829	3378.775
1228.94024	3351.975
1232.50976	3352.875
1236.07685	3342.275
1239.6415	3389.575
1243.20374	3442.775
1246.76355	3475.575
1250.32093	3562.275
1253.8759	3645.875
1257.42845	3776.875
1260.97859	3966.075
1264.52631	4168.275
1268.07163	4360.075
1271.61453	4494.475
1275.15503	4530.175
1278.69312	4517.375
1282.22882	4575.375
1285.76211	4816.175
1289.29301	5072.375
1292.82151	5334.875
1296.34761	5630.975
1299.87133	6186.675
1303.39266	7284.675
1306.9116	8934.575
1310.42815	10410.275
1313.94233	10509.875
1317.45412	9145.375
1320.96354	7505.875
1324.47058	6168.875
1327.97525	5303.975
1331.47754	4858.475
1334.97747	4780.975
1338.47502	4974.075
1341.97022	5463.175
1345.46305	6381.475
1348.95352	7467.575
1352.44163	8773.475
1355.92738	10578.775
1359.41078	13315.175
1362.89183	15420.675
1366.37053	13866.975
1369.84688	10310.475
1373.32088	7743.575
1376.79254	6454.675
1380.26186	5692.375
1383.72883	5056.675
1387.19347	4537.375
1390.65578	4154.375
1394.11575	3958.875
1397.57339	3852.175
1401.0287	3853.175
1404.48168	3905.175
1407.93234	3997.775
1411.38068	4188.475
1414.82669	4465.775
1418.27039	4739.275
1421.71177	4932.475
1425.15083	4958.975
1428.58758	5020.775
1432.02203	5077.775
1435.45416	4972.375
1438.88399	4737.175
1442.31151	4431.175
1445.73673	4259.875
1449.15965	4182.275
1452.58027	4109.475
1455.9986	4036.475
1459.41463	3989.475
1462.82837	4024.975
1466.23982	4127.975
1469.64898	4194.775
1473.05586	4187.075
1476.46045	4149.575
1479.86276	4153.075
1483.26279	4249.075
1486.66054	4486.375
1490.05602	4837.975
1493.44922	5482.175
1496.84016	6533.575
1500.22882	8221.475
1503.61521	10583.175
1506.99934	13152.775
1510.38121	14773.375
1513.76081	14488.475
1517.13816	12330.875
1520.51324	9561.075
1523.88607	7331.775
1527.25665	5941.775
1530.62498	5209.075
1533.99105	4750.775
1537.35488	4484.275
1540.71647	4365.875
1544.07581	4362.575
1547.4329	4438.875
1550.78776	4542.675
1554.14038	4657.975
1557.49077	4775.975
1560.83892	4990.275
1564.18484	5388.075
1567.52853	5909.875
1570.86999	6300.075
1574.20922	6456.675
1577.54624	6181.275
1580.88103	5448.675
1584.2136	4650.375
1587.54395	4184.275
1590.87208	4072.775
1594.19801	4263.875
1597.52172	4524.275
1600.84321	4530.975
1604.16251	4252.575
1607.47959	3992.275
1610.79447	3740.575
1614.10715	3545.875
1617.41763	3387.575
1620.7259	3290.475
1624.03199	3301.175
1627.33587	3356.375
1630.63757	3513.475
1633.93707	3747.275
1637.23439	4195.875
1640.52951	4961.475
1643.82246	6188.975
1647.11321	7709.475
1650.40179	8600.375
1653.68819	8173.675
1656.97241	6738.975
1660.25446	5308.575
1663.53433	4373.575
1666.81203	3865.675
1670.08756	3583.075
1673.36092	3430.175
1676.63211	3328.775
1679.90115	3241.275
1683.16801	3176.575
1686.43272	3104.275
1689.69527	3035.475
1692.95567	2964.275
1696.2139	2921.275
1699.46999	2883.775
1702.72392	2844.275
1705.97571	2812.975
1709.22535	2817.175
1712.47284	2826.275
1715.71819	2807.375
1718.96139	2805.975
1722.20246	2791.875
1725.44139	2789.975
1728.67818	2795.175
1731.91284	2789.275
1735.14537	2767.375
1738.37576	2781.475
1741.60403	2814.375
1744.83017	2872.975
1748.05418	2948.875
1751.27607	3013.475
1754.49584	2985.275
1757.71349	2938.575
1760.92903	2816.575
1764.14244	2684.375
1767.35375	2552.075
1770.56294	2434.375
1773.77002	2359.175
1776.97499	2289.775
1780.17785	2232.375
1783.37861	2170.375
1786.57727	2155.475
1789.77382	2124.075
1792.96828	2069.075
1796.16064	2058.375
1799.3509	2046.075
1802.53907	2021.775
1805.72514	1996.975
1808.90913	1988.275
1812.09102	1965.875
1815.27083	1964.575
1818.44856	1953.875
1821.6242	1939.275
1824.79776	1931.875
1827.96924	1923.575
1831.13864	1906.875
1834.30597	1900.875
1837.47122	1892.575
1840.6344	1892.675
1843.7955	1886.475
1846.95454	1871.575
1850.11151	1875.475
1853.26642	1867.375
1856.41926	1859.375
1859.57004	1858.175
1862.71876	1856.175
1865.86542	1844.775
1869.01003	1855.375
1872.15258	1861.475
1875.29308	1855.575
1878.43152	1864.675
1881.56792	1858.775
1884.70227	1845.375
1887.83457	1835.175
1890.96482	1847.175
1894.09304	1819.675
1897.21921	1827.875
1900.34335	1830.475
1903.46544	1821.575
1906.58551	1824.475
1909.70353	1824.475
1912.81953	1818.175
1915.93349	1817.175
1919.04543	1811.775
1922.15534	1808.375
1925.26322	1796.875
1928.36908	1798.775
1931.47292	1786.875
1934.57473	1778.775
1937.67453	1770.575
1940.77232	1756.275
1943.86808	1750.375
1946.96184	1730.375
1950.05358	1733.775
1953.14331	1721.975
1956.23103	1724.875
1959.31675	1724.675
1962.40046	1727.275
1965.48217	1720.975
1968.56188	1718.475
1971.63959	1719.575
1974.7153	1706.775
1977.78901	1699.975
1980.86073	1683.875
1983.93046	1685.375
1986.99819	1674.675
1990.06394	1669.575
1993.1277	1658.875
1996.18947	1646.975
1999.24925	1637.675
2002.30706	1634.975
2005.36288	1616.775
2008.41672	1623.275
2011.46859	1607.075
2014.51848	1619.575
2017.56639	1608.475
2020.61233	1600.075
2023.6563	1593.375
2026.6983	1588.375
2029.73833	1581.575
2032.7764	1572.275
2035.8125	1580.875
2038.84664	1567.175
2041.87881	1568.975
2044.90903	1565.875
2047.93729	1545.675
2050.96359	1560.275
2053.98794	1554.175
2057.01034	1552.075
2060.03078	1550.575
2063.04927	1551.175
2066.06582	1552.975
2069.08042	1546.175
2072.09307	1544.075
2075.10378	1542.975
2078.11255	1553.075
2081.11938	1557.975
2084.12426	1566.575
2087.12722	1561.375
2090.12824	1578.675
2093.12732	1590.475
2096.12447	1599.475
2099.11969	1628.675
2102.11299	1634.675
2105.10435	1628.575
2108.09379	1638.475
2111.08131	1635.375
2114.0669	1637.475
2117.05057	1617.075
2120.03233	1603.775
2123.01216	1587.875
2125.99008	1587.875
2128.96609	1562.575
2131.94018	1561.175
2134.91236	1548.675
2137.88263	1548.275
2140.851	1538.975
2143.81746	1527.375
2146.78201	1529.375
2149.74466	1529.675
2152.7054	1514.975
2155.66425	1512.775
2158.6212	1514.575
2161.57625	1513.875
2164.52941	1498.475
2167.48067	1507.875
2170.43004	1502.375
2173.37752	1498.075
2176.32311	1504.975
2179.26681	1500.375
2182.20863	1499.475
2185.14856	1502.875
2188.08661	1496.975
2191.02278	1487.775
2193.95707	1493.075
2196.88948	1480.375
2199.82001	1483.875
2202.74867	1466.175
2205.67545	1477.175
2208.60037	1471.175
2211.52341	1471.775
2214.44458	1469.175
2217.36388	1454.275
2220.28132	1462.975
2223.1969	1446.675
2226.11061	1436.875
2229.02246	1440.275
2231.93245	1440.975
2234.84058	1433.475
2237.74686	1427.675
2240.65128	1426.675
2243.55385	1431.475
2246.45456	1435.975
2249.35343	1441.375
2252.25044	1431.375
2255.14561	1443.475
2258.03893	1444.975
2260.93041	1440.875
2263.82004	1439.675
2266.70783	1438.475
2269.59378	1440.975
2272.4779	1426.775
2275.36017	1429.575
2278.24061	1413.275
2281.11922	1413.575
2283.996	1415.475
2286.87094	1413.475
2289.74405	1387.375
2292.61534	1378.675
2295.4848	1391.275
2298.35243	1385.375
2301.21824	1375.075
2304.08223	1390.075
2306.94439	1374.175
2309.80474	1370.575
2312.66327	1375.175
2315.51999	1371.775
2318.37489	1373.275
2321.22797	1359.075
2324.07925	1360.575
2326.92871	1355.675
2329.77637	1360.875
2332.62222	1357.975
2335.46626	1357.775
2338.3085	1357.675
2341.14893	1353.475
2343.98756	1361.775
2346.8244	1360.475
2349.65943	1363.075
2352.49267	1369.375
2355.32411	1369.175
2358.15376	1374.075
2360.98161	1379.775
2363.80768	1387.475
2366.63195	1391.775
2369.45444	1389.975
2372.27514	1402.575
2375.09405	1390.975
2377.91118	1388.175
2380.72652	1382.775
2383.54009	1380.275
2386.35187	1364.875
2389.16188	1355.075
2391.97011	1343.975
2394.77657	1336.475
2397.58125	1338.975
2400.38416	1338.275
2403.18529	1323.975
2405.98466	1313.775
2408.78226	1315.975
2411.57809	1315.975
2414.37216	1314.175
2417.16446	1299.475
2419.955	1306.675
2422.74378	1307.375
2425.5308	1303.875
2428.31606	1308.775
2431.09956	1306.275
2433.88131	1303.575
2436.6613	1313.775
2439.43954	1306.075
2442.21603	1296.775
2444.99077	1306.475
2447.76377	1304.575
2450.53501	1309.675
2453.30451	1306.275
2456.07226	1302.075
2458.83827	1303.075
2461.60254	1309.875
2464.36507	1313.075
2467.12586	1302.175
2469.88492	1303.975
2472.64224	1303.475
2475.39782	1308.275
2478.15167	1314.475
2480.90379	1316.675
2483.65417	1331.175
2486.40283	1324.375
2489.14976	1335.875
2491.89497	1333.975
2494.63845	1335.475
2497.3802	1333.675
2500.12024	1330.875
2502.85855	1324.875
2505.59514	1312.475
2508.33002	1296.775
2511.06318	1283.375
2513.79462	1278.075
2516.52435	1250.575
2519.25237	1250.275
2521.97867	1239.775
2524.70327	1238.875
2527.42616	1236.075
2530.14734	1225.275
2532.86681	1229.075
2535.58458	1227.075
2538.30065	1226.675
2541.01501	1232.575
2543.72768	1232.175
2546.43864	1232.675
2549.14791	1227.075
2551.85548	1231.375
2554.56136	1225.175
2557.26554	1223.175
2559.96803	1221.575
2562.66883	1225.475
2565.36794	1225.775
2568.06536	1219.475
2570.7611	1210.775
2573.45514	1208.075
2576.14751	1211.875
2578.83819	1208.675
2581.52719	1197.175
2584.21451	1200.975
2586.90015	1200.675
2589.58411	1190.475
2592.2664	1188.275
2594.94701	1185.375
2597.62594	1186.975
2600.30321	1195.775
2602.9788	1191.275
2605.65273	1192.575
2608.32498	1179.575
2610.99557	1186.575
2613.66449	1192.575
2616.33175	1188.575
2618.99734	1184.375
2621.66128	1182.775
2624.32355	1170.875
2626.98416	1175.875
2629.64311	1166.075
2632.30041	1169.175
2634.95605	1166.275
2637.61004	1164.575
2640.26238	1154.575
2642.91306	1160.675
2645.56209	1158.575
2648.20948	1159.875
2650.85521	1155.475
2653.4993	1154.375
2656.14175	1152.675
2658.78255	1159.775
2661.42171	1171.375
2664.05923	1168.675
2666.6951	1169.475
2669.32934	1178.875
2671.96194	1181.075
2674.59291	1174.075
2677.22224	1176.675
2679.84993	1178.175
2682.476	1179.775
2685.10043	1180.275
2687.72324	1165.575
2690.34441	1168.875
2692.96396	1171.575
2695.58188	1174.475
2698.19818	1169.075
2700.81285	1179.475
2703.4259	1164.375
2706.03733	1162.375
2708.64714	1166.775
2711.25533	1177.075
2713.86191	1176.975
2716.46687	1177.675
2719.07021	1176.875
2721.67194	1183.675
2724.27206	1190.075
2726.87057	1183.075
2729.46747	1186.475
2732.06276	1186.575
2734.65644	1172.975
2737.24852	1165.675
2739.83899	1165.575
2742.42786	1172.975
2745.01513	1159.075
2747.60079	1157.275
2750.18486	1161.875
2752.76733	1168.175
2755.3482	1168.075
2757.92747	1156.775
2760.50515	1158.775
2763.08123	1164.175
2765.65573	1160.875
2768.22863	1162.275
2770.79994	1167.075
2773.36967	1167.175
2775.9378	1173.675
2778.50435	1177.475
2781.06932	1175.075
2783.6327	1187.375
2786.1945	1186.775
2788.75471	1202.775
2791.31335	1206.075
2793.87041	1228.075
2796.42589	1231.775
2798.97979	1240.975
2801.53212	1252.475
2804.08288	1270.875
2806.63206	1289.275
2809.17967	1310.975
2811.72571	1319.775
2814.27018	1333.575
2816.81308	1358.375
2819.35442	1363.675
2821.89419	1378.875
2824.43239	1392.175
2826.96904	1392.175
2829.50412	1404.475
2832.03763	1410.875
2834.56959	1408.875
2837.1	1415.375
2839.62884	1428.575
2842.15613	1433.475
2844.68186	1442.975
2847.20604	1457.675
2849.72867	1466.275
2852.24974	1469.275
2854.76927	1477.975
2857.28724	1483.175
2859.80367	1512.175
2862.31855	1510.475
2864.83189	1522.475
2867.34368	1559.075
2869.85393	1592.175
2872.36264	1619.775
2874.8698	1653.575
2877.37543	1683.675
2879.87952	1710.175
2882.38207	1749.875
2884.88308	1779.175
2887.38256	1806.475
2889.88051	1842.175
2892.37692	1859.175
2894.8718	1899.775
2897.36515	1932.375
2899.85698	1963.375
2902.34727	2007.675
2904.83604	2027.175
2907.32328	2066.875
2909.809	2097.375
2912.29319	2130.375
2914.77587	2158.475
2917.25702	2176.775
2919.73665	2196.175
2922.21476	2219.275
2924.69136	2225.775
2927.16644	2251.675
2929.64	2237.475
2932.11205	2230.275
2934.58258	2224.075
2937.05161	2212.575
2939.51912	2202.075
2941.98513	2179.675
2944.44962	2162.275
2946.91261	2139.675
2949.37409	2106.375
2951.83407	2068.675
2954.29254	2034.775
2956.74951	1993.175
2959.20498	1946.475
2961.65895	1884.875
2964.11142	1853.175
2966.56239	1803.975
2969.01186	1749.675
2971.45984	1717.175
2973.90632	1671.775
2976.35131	1636.175
2978.7948	1605.575
2981.23681	1588.975
2983.67732	1573.375
2986.11635	1562.075
2988.55388	1542.175
2990.98993	1526.375
2993.4245	1510.875
2995.85758	1519.975
2998.28917	1510.575
3000.71928	1512.275
3003.14791	1501.775
3005.57506	1519.075
3008.00073	1493.075
3010.42493	1528.575
3012.84764	1484.975
3015.26888	1480.175
3017.68865	1464.975
3020.10694	1446.175
3022.52376	1435.175
3024.9391	1429.675
3027.35298	1410.675
3029.76539	1380.075
3032.17632	1368.475
3034.5858	1348.275
3036.9938	1342.275
3039.40034	1327.275
3041.80542	1321.375
3044.20903	1305.975
3046.61118	1303.075
3049.01187	1295.375
3051.4111	1284.475
3053.80888	1281.875
3056.20519	1272.275
3058.60005	1270.075
3060.99345	1262.375
3063.3854	1266.875
3065.7759	1256.175
3068.16494	1251.575
3070.55254	1250.475
3072.93868	1238.875
3075.32338	1241.675
3077.70662	1243.075
3080.08842	1247.875
3082.46878	1241.875
3084.84769	1247.875
3087.22515	1253.275
3089.60118	1256.275
3091.97576	1256.675
3094.3489	1271.675
3096.72061	1270.075
3099.09087	1278.275
3101.4597	1282.675
3103.82709	1297.975
3106.19305	1312.575
3108.55757	1303.075
3110.92066	1312.275
3113.28232	1320.375
3115.64255	1327.775
3118.00134	1336.875
3120.35871	1328.975
3122.71466	1343.975
3125.06917	1347.975
3127.42226	1353.875
3129.77393	1362.875
3132.12417	1369.575
3134.47299	1364.575
3136.82039	1392.775
3139.16636	1400.275
3141.51092	1396.075
3143.85406	1421.975
3146.19579	1425.475
3148.53609	1426.175
3150.87499	1454.375
3153.21246	1459.975
3155.54853	1459.075
3157.88318	1472.675
3160.21642	1487.275
3162.54826	1496.675
3164.87868	1508.475
3167.2077	1516.475
3169.5353	1531.475
3171.86151	1530.875
3174.18631	1543.475
3176.5097	1562.775
3178.83169	1559.175
3181.15228	1566.375
3183.47147	1578.675
3185.78926	1581.275
3188.10565	1583.975
3190.42065	1589.575
3192.73424	1604.075
3195.04645	1605.075
3197.35725	1617.875
3199.66667	1638.975
3201.97469	1647.875
3204.28132	1640.875
3206.58656	1656.975
3208.8904	1677.075
3211.19287	1685.375
3213.49394	1687.675
3215.79363	1695.275
3218.09193	1703.475
3220.38884	1709.975
3222.68438	1711.375
3224.97853	1716.675
3227.2713	1723.475
3229.56269	1736.475
3231.8527	1735.575
3234.14133	1742.675
3236.42858	1744.675
3238.71446	1741.675
