Data from AgNPs_UA_50uM_CRN_500uM_AS_RamanShift__17__15-25-21-562.txt Node

Date: Wed Aug 17 15:25:21 BST 2022
User: TCL
Spectrometer: QEP01345
Trigger mode: 4
Integration Time (sec): 7.000000E0
Scans to average: 10
Electric dark correction enabled: true
Nonlinearity correction enabled: false
Boxcar width: 0
XAxis mode: Raman Shifts
Number of Pixels in Spectrum: 1044
>>>>>Begin Spectral Data<<<<<
46.04893	-1.325
50.45542	-0.425
54.85868	-1.625
59.25871	-0.625
63.6555	27.375
68.04907	25.075
72.43941	29.175
76.82654	31.075
81.21044	31.675
85.59113	32.175
89.96862	33.575
94.34289	39.575
98.71396	38.575
103.08183	38.675
107.4465	41.375
111.80798	38.475
116.16626	39.075
120.52136	39.375
124.87327	38.675
129.222	40.875
133.56755	38.775
137.90993	36.675
142.24913	44.675
146.58517	44.675
150.91804	46.175
155.24774	50.775
159.57429	53.175
163.89768	63.775
168.21792	79.275
172.53501	100.475
176.84895	132.475
181.15975	174.875
185.46741	239.675
189.77193	327.075
194.07331	435.075
198.37157	553.875
202.6667	679.575
206.9587	810.575
211.24758	944.675
215.53334	1085.375
219.81599	1219.575
224.09553	1371.575
228.37195	1543.575
232.64527	1725.775
236.91549	1902.775
241.18261	2078.275
245.44663	2224.575
249.70755	2347.175
253.96539	2442.975
258.22014	2542.675
262.4718	2584.275
266.72039	2628.575
270.96589	2633.175
275.20832	2602.475
279.44768	2549.675
283.68397	2489.875
287.91719	2441.275
292.14735	2414.975
296.37445	2420.575
300.59849	2443.375
304.81948	2510.875
309.03742	2520.275
313.25231	2505.975
317.46415	2441.075
321.67296	2378.775
325.87872	2320.875
330.08145	2296.775
334.28114	2304.175
338.47781	2344.375
342.67145	2375.075
346.86207	2432.975
351.04966	2524.275
355.23424	2581.175
359.4158	2680.275
363.59435	2736.075
367.76989	2763.175
371.94243	2795.475
376.11196	2812.675
380.27849	2815.375
384.44203	2821.475
388.60257	2825.675
392.76012	2825.575
396.91468	2840.675
401.06626	2876.475
405.21485	2899.175
409.36047	2875.275
413.50311	2834.575
417.64277	2762.675
421.77947	2731.975
425.9132	2731.175
430.04396	2747.875
434.17176	2756.875
438.2966	2806.175
442.41849	2847.275
446.53742	2876.075
450.6534	2913.875
454.76644	2953.475
458.87653	2968.475
462.98368	2964.775
467.08789	2956.875
471.18916	2930.775
475.2875	2916.675
479.38291	2900.075
483.4754	2899.975
487.56496	2884.975
491.6516	2892.475
495.73531	2923.875
499.81612	2909.475
503.89401	2928.975
507.96899	2962.475
512.04106	2963.675
516.11023	2986.475
520.1765	3009.675
524.23987	3025.875
528.30034	3014.475
532.35792	3000.575
536.41261	3000.575
540.46441	2975.275
544.51333	2974.675
548.55936	2986.075
552.60252	3003.475
556.64279	3034.775
560.6802	3058.975
564.71473	3077.075
568.7464	3123.275
572.7752	3141.875
576.80114	3112.175
580.82422	3071.375
584.84444	3062.075
588.86181	3076.375
592.87633	3114.275
596.888	3156.375
600.89682	3215.675
604.9028	3420.475
608.90594	3892.175
612.90624	4395.875
616.90371	4180.075
620.89834	3505.075
624.89015	3213.975
628.87913	3195.075
632.86528	3240.575
636.84862	3278.575
640.82913	3263.775
644.80683	3233.075
648.78172	3190.675
652.75379	3188.375
656.72306	3240.075
660.68952	3301.275
664.65319	3273.075
668.61405	3241.675
672.57211	3259.175
676.52738	3305.975
680.47986	3344.675
684.42955	3342.775
688.37646	3312.475
692.32058	3277.875
696.26192	3257.775
700.20048	3273.075
704.13626	3286.275
708.06928	3262.175
711.99952	3245.975
715.927	3251.175
719.85171	3247.675
723.77365	3256.775
727.69284	3271.975
731.60928	3268.575
735.52295	3272.375
739.43388	3269.275
743.34206	3274.675
747.24749	3275.675
751.15017	3289.575
755.05012	3305.975
758.94733	3384.175
762.8418	3530.475
766.73354	3812.975
770.62254	4092.275
774.50882	4210.575
778.39237	4104.875
782.27321	3836.575
786.15132	3579.175
790.02671	3440.175
793.89938	3343.075
797.76935	3326.475
801.6366	3330.275
805.50115	3317.475
809.36299	3326.875
813.22213	3313.275
817.07857	3315.975
820.93231	3315.275
824.78336	3299.475
828.63172	3315.375
832.47738	3315.375
836.32036	3312.975
840.16066	3316.175
843.99827	3297.875
847.8332	3317.075
851.66546	3323.875
855.49504	3334.375
859.32195	3343.275
863.1462	3357.875
866.96777	3361.975
870.78668	3379.075
874.60293	3399.075
878.41652	3409.575
882.22745	3421.175
886.03573	3426.675
889.84136	3423.175
893.64433	3421.075
897.44466	3410.875
901.24235	3414.375
905.0374	3408.075
908.8298	3399.875
912.61957	3394.375
916.40671	3396.275
920.19121	3406.175
923.97308	3425.675
927.75233	3439.975
931.52895	3466.975
935.30295	3469.075
939.07433	3446.675
942.84309	3423.275
946.60924	3400.275
950.37278	3384.075
954.13371	3376.875
957.89203	3374.075
961.64774	3378.075
965.40086	3375.875
969.15137	3369.175
972.89929	3360.375
976.64461	3349.875
980.38733	3348.875
984.12747	3356.875
987.86502	3390.775
991.59999	3391.875
995.33237	3417.175
999.06217	3432.875
1002.78939	3459.875
1006.51404	3502.275
1010.23611	3524.075
1013.95561	3529.375
1017.67255	3545.475
1021.38692	3550.775
1025.09872	3527.975
1028.80796	3519.775
1032.51465	3533.875
1036.21877	3548.375
1039.92035	3556.475
1043.61937	3568.675
1047.31584	3587.475
1051.00976	3609.375
1054.70114	3624.675
1058.38998	3635.375
1062.07627	3640.175
1065.76003	3636.875
1069.44126	3652.275
1073.11995	3668.775
1076.79611	3701.875
1080.46974	3733.375
1084.14085	3765.375
1087.80943	3815.775
1091.47549	3834.175
1095.13903	3819.175
1098.80005	3772.175
1102.45857	3765.475
1106.11456	3762.175
1109.76805	3791.075
1113.41903	3843.675
1117.06751	3880.275
1120.71348	3956.275
1124.35696	4031.075
1127.99793	4093.475
1131.63641	4100.975
1135.2724	4039.375
1138.90589	3974.675
1142.5369	3945.975
1146.16542	3902.675
1149.79145	3843.275
1153.415	3818.075
1157.03607	3850.375
1160.65467	3855.075
1164.27079	3910.475
1167.88443	3984.575
1171.49561	4101.875
1175.10432	4260.975
1178.71056	4519.975
1182.31434	4758.175
1185.91565	4833.975
1189.51451	4754.375
1193.11091	4618.675
1196.70485	4479.175
1200.29634	4362.375
1203.88538	4279.175
1207.47197	4193.375
1211.05612	4082.775
1214.63782	4012.175
1218.21708	3987.475
1221.79391	3983.175
1225.36829	4001.175
1228.94024	4005.975
1232.50976	4007.575
1236.07685	3998.175
1239.6415	4026.575
1243.20374	4037.475
1246.76355	4054.475
1250.32093	4079.675
1253.8759	4105.875
1257.42845	4145.975
1260.97859	4175.575
1264.52631	4251.875
1268.07163	4300.875
1271.61453	4335.075
1275.15503	4367.075
1278.69312	4367.575
1282.22882	4387.175
1285.76211	4419.075
1289.29301	4482.375
1292.82151	4561.775
1296.34761	4648.475
1299.87133	4766.975
1303.39266	4998.975
1306.9116	5279.275
1310.42815	5555.375
1313.94233	5615.575
1317.45412	5456.975
1320.96354	5196.475
1324.47058	4958.475
1327.97525	4759.175
1331.47754	4634.875
1334.97747	4569.475
1338.47502	4572.875
1341.97022	4644.175
1345.46305	4767.975
1348.95352	4989.975
1352.44163	5260.375
1355.92738	5621.775
1359.41078	6068.475
1362.89183	6490.575
1366.37053	6356.075
1369.84688	5732.875
1373.32088	5151.875
1376.79254	4792.475
1380.26186	4617.375
1383.72883	4475.875
1387.19347	4376.575
1390.65578	4280.575
1394.11575	4205.775
1397.57339	4151.475
1401.0287	4133.875
1404.48168	4117.475
1407.93234	4101.475
1411.38068	4104.575
1414.82669	4136.875
1418.27039	4158.375
1421.71177	4154.275
1425.15083	4131.175
1428.58758	4126.675
1432.02203	4108.675
1435.45416	4132.975
1438.88399	4122.175
1442.31151	4140.075
1445.73673	4135.075
1449.15965	4125.175
1452.58027	4123.875
1455.9986	4109.275
1459.41463	4125.275
1462.82837	4135.575
1466.23982	4190.575
1469.64898	4233.275
1473.05586	4261.875
1476.46045	4275.275
1479.86276	4299.575
1483.26279	4354.575
1486.66054	4400.675
1490.05602	4465.975
1493.44922	4590.075
1496.84016	4784.875
1500.22882	5081.175
1503.61521	5499.775
1506.99934	5923.875
1510.38121	6200.075
1513.76081	6182.275
1517.13816	5811.975
1520.51324	5352.275
1523.88607	4978.575
1527.25665	4742.975
1530.62498	4652.375
1533.99105	4577.075
1537.35488	4550.775
1540.71647	4511.575
1544.07581	4523.275
1547.4329	4538.975
1550.78776	4532.375
1554.14038	4548.675
1557.49077	4572.875
1560.83892	4619.275
1564.18484	4708.075
1567.52853	4778.275
1570.86999	4873.475
1574.20922	4926.075
1577.54624	4899.275
1580.88103	4796.975
1584.2136	4647.475
1587.54395	4552.975
1590.87208	4533.575
1594.19801	4583.275
1597.52172	4690.875
1600.84321	4717.675
1604.16251	4680.675
1607.47959	4609.375
1610.79447	4528.675
1614.10715	4462.475
1617.41763	4390.875
1620.7259	4349.375
1624.03199	4311.075
1627.33587	4323.775
1630.63757	4341.975
1633.93707	4380.875
1637.23439	4504.775
1640.52951	4658.475
1643.82246	4900.975
1647.11321	5186.875
1650.40179	5395.675
1653.68819	5327.775
1656.97241	5044.075
1660.25446	4736.375
1663.53433	4531.375
1666.81203	4417.675
1670.08756	4339.475
1673.36092	4267.175
1676.63211	4237.475
1679.90115	4209.875
1683.16801	4192.975
1686.43272	4187.975
1689.69527	4186.075
1692.95567	4159.475
1696.2139	4165.375
1699.46999	4171.275
1702.72392	4173.775
1705.97571	4145.275
1709.22535	4126.175
1712.47284	4131.875
1715.71819	4121.375
1718.96139	4112.675
1722.20246	4093.575
1725.44139	4114.875
1728.67818	4096.275
1731.91284	4075.475
1735.14537	4072.075
1738.37576	4060.775
1741.60403	4068.275
1744.83017	4089.775
1748.05418	4088.075
1751.27607	4117.075
1754.49584	4121.775
1757.71349	4136.575
1760.92903	4123.875
1764.14244	4135.475
1767.35375	4108.575
1770.56294	4104.075
1773.77002	4092.575
1776.97499	4092.775
1780.17785	4085.475
1783.37861	4069.675
1786.57727	4058.675
1789.77382	4065.775
1792.96828	4050.375
1796.16064	4048.675
1799.3509	4059.875
1802.53907	4046.875
1805.72514	4055.275
1808.90913	4024.975
1812.09102	4007.575
1815.27083	3998.475
1818.44856	4004.475
1821.6242	4041.875
1824.79776	4020.375
1827.96924	4022.775
1831.13864	4024.475
1834.30597	4016.075
1837.47122	4028.075
1840.6344	3995.975
1843.7955	4014.675
1846.95454	4023.575
1850.11151	3991.775
1853.26642	3995.475
1856.41926	4020.875
1859.57004	4017.775
1862.71876	3997.175
1865.86542	4015.675
1869.01003	4030.875
1872.15258	4037.875
1875.29308	4045.875
1878.43152	4028.875
1881.56792	4041.475
1884.70227	4035.375
1887.83457	4052.975
1890.96482	4046.975
1894.09304	4038.175
1897.21921	4039.275
1900.34335	4042.875
1903.46544	4048.875
1906.58551	4061.775
1909.70353	4057.875
1912.81953	4053.975
1915.93349	4038.775
1919.04543	4039.375
1922.15534	4054.575
1925.26322	4049.175
1928.36908	4051.675
1931.47292	4052.875
1934.57473	4041.875
1937.67453	4063.875
1940.77232	4054.675
1943.86808	4039.475
1946.96184	4025.775
1950.05358	4006.775
1953.14331	4023.575
1956.23103	4002.575
1959.31675	4006.175
1962.40046	4004.375
1965.48217	3997.375
1968.56188	4001.575
1971.63959	3989.875
1974.7153	3962.375
1977.78901	3964.075
1980.86073	3968.475
1983.93046	3956.375
1986.99819	3958.075
1990.06394	3948.075
1993.1277	3937.875
1996.18947	3951.875
1999.24925	3938.375
2002.30706	3940.975
2005.36288	3908.975
2008.41672	3913.475
2011.46859	3905.475
2014.51848	3912.775
2017.56639	3915.075
2020.61233	3904.875
2023.6563	3901.475
2026.6983	3903.275
2029.73833	3900.575
2032.7764	3867.575
2035.8125	3881.775
2038.84664	3870.575
2041.87881	3877.975
2044.90903	3875.775
2047.93729	3879.575
2050.96359	3883.075
2053.98794	3866.375
2057.01034	3882.175
2060.03078	3889.675
2063.04927	3898.975
2066.06582	3891.175
2069.08042	3899.475
2072.09307	3892.275
2075.10378	3894.675
2078.11255	3906.875
2081.11938	3912.075
2084.12426	3898.675
2087.12722	3908.275
2090.12824	3931.575
2093.12732	3947.875
2096.12447	3938.075
2099.11969	3942.975
2102.11299	3950.775
2105.10435	3969.975
2108.09379	3967.575
2111.08131	3974.875
2114.0669	3972.875
2117.05057	3990.375
2120.03233	3993.375
2123.01216	4021.175
2125.99008	4032.875
2128.96609	4032.075
2131.94018	4039.875
2134.91236	4050.775
2137.88263	4072.175
2140.851	4069.775
2143.81746	4093.975
2146.78201	4081.975
2149.74466	4083.475
2152.7054	4082.175
2155.66425	4074.875
2158.6212	4073.875
2161.57625	4088.375
2164.52941	4117.675
2167.48067	4101.775
2170.43004	4108.975
2173.37752	4127.375
2176.32311	4114.775
2179.26681	4132.675
2182.20863	4141.275
2185.14856	4135.675
2188.08661	4145.775
2191.02278	4160.175
2193.95707	4157.075
2196.88948	4159.275
2199.82001	4146.275
2202.74867	4157.475
2205.67545	4181.675
2208.60037	4178.175
2211.52341	4167.275
2214.44458	4168.575
2217.36388	4155.075
2220.28132	4158.975
2223.1969	4148.475
2226.11061	4130.875
2229.02246	4118.875
2231.93245	4143.575
2234.84058	4159.275
2237.74686	4141.675
2240.65128	4153.075
2243.55385	4170.175
2246.45456	4175.275
2249.35343	4155.275
2252.25044	4165.175
2255.14561	4167.575
2258.03893	4180.675
2260.93041	4178.775
2263.82004	4155.975
2266.70783	4147.875
2269.59378	4153.675
2272.4779	4130.175
2275.36017	4128.175
2278.24061	4131.475
2281.11922	4133.575
2283.996	4151.275
2286.87094	4139.575
2289.74405	4141.475
2292.61534	4130.375
2295.4848	4141.875
2298.35243	4139.075
2301.21824	4144.675
2304.08223	4149.475
2306.94439	4168.175
2309.80474	4162.775
2312.66327	4171.575
2315.51999	4157.575
2318.37489	4169.975
2321.22797	4147.675
2324.07925	4154.375
2326.92871	4152.275
2329.77637	4140.875
2332.62222	4145.775
2335.46626	4148.675
2338.3085	4149.075
2341.14893	4126.175
2343.98756	4144.075
2346.8244	4143.275
2349.65943	4147.275
2352.49267	4134.375
2355.32411	4161.575
2358.15376	4168.275
2360.98161	4161.775
2363.80768	4172.175
2366.63195	4174.075
2369.45444	4174.975
2372.27514	4163.775
2375.09405	4184.075
2377.91118	4169.975
2380.72652	4172.875
2383.54009	4191.175
2386.35187	4189.475
2389.16188	4179.475
2391.97011	4148.675
2394.77657	4147.575
2397.58125	4165.675
2400.38416	4165.375
2403.18529	4153.675
2405.98466	4148.375
2408.78226	4133.475
2411.57809	4147.875
2414.37216	4137.175
2417.16446	4142.975
2419.955	4162.175
2422.74378	4162.175
2425.5308	4177.575
2428.31606	4170.175
2431.09956	4160.975
2433.88131	4171.475
2436.6613	4175.775
2439.43954	4195.175
2442.21603	4174.775
2444.99077	4154.375
2447.76377	4160.175
2450.53501	4151.475
2453.30451	4161.475
2456.07226	4164.675
2458.83827	4159.275
2461.60254	4170.875
2464.36507	4170.475
2467.12586	4155.975
2469.88492	4167.375
2472.64224	4150.075
2475.39782	4181.275
2478.15167	4180.075
2480.90379	4178.175
2483.65417	4183.275
2486.40283	4202.775
2489.14976	4204.175
2491.89497	4211.375
2494.63845	4210.675
2497.3802	4214.875
2500.12024	4212.075
2502.85855	4201.675
2505.59514	4199.475
2508.33002	4189.075
2511.06318	4200.275
2513.79462	4194.575
2516.52435	4192.675
2519.25237	4183.375
2521.97867	4196.675
2524.70327	4187.575
2527.42616	4195.175
2530.14734	4191.275
2532.86681	4186.575
2535.58458	4183.775
2538.30065	4199.475
2541.01501	4205.475
2543.72768	4208.875
2546.43864	4214.775
2549.14791	4199.175
2551.85548	4182.175
2554.56136	4176.575
2557.26554	4189.275
2559.96803	4195.975
2562.66883	4187.075
2565.36794	4178.475
2568.06536	4160.775
2570.7611	4164.275
2573.45514	4153.475
2576.14751	4140.875
2578.83819	4147.575
2581.52719	4159.375
2584.21451	4163.175
2586.90015	4168.175
2589.58411	4169.675
2592.2664	4175.275
2594.94701	4163.475
2597.62594	4186.575
2600.30321	4167.475
2602.9788	4159.375
2605.65273	4153.375
2608.32498	4153.375
2610.99557	4154.075
2613.66449	4175.775
2616.33175	4168.275
2618.99734	4155.275
2621.66128	4145.075
2624.32355	4116.575
2626.98416	4147.575
2629.64311	4137.475
2632.30041	4143.575
2634.95605	4134.975
2637.61004	4115.775
2640.26238	4107.775
2642.91306	4122.375
2645.56209	4113.575
2648.20948	4102.275
2650.85521	4126.975
2653.4993	4130.975
2656.14175	4129.975
2658.78255	4139.175
2661.42171	4172.475
2664.05923	4161.175
2666.6951	4158.175
2669.32934	4184.375
2671.96194	4176.375
2674.59291	4172.575
2677.22224	4174.875
2679.84993	4184.175
2682.476	4186.775
2685.10043	4182.775
2687.72324	4165.575
2690.34441	4186.575
2692.96396	4181.375
2695.58188	4200.875
2698.19818	4186.575
2700.81285	4208.175
2703.4259	4219.975
2706.03733	4233.075
2708.64714	4218.375
2711.25533	4216.675
2713.86191	4208.875
2716.46687	4232.075
2719.07021	4233.075
2721.67194	4242.475
2724.27206	4246.575
2726.87057	4260.975
2729.46747	4239.075
2732.06276	4261.775
2734.65644	4245.175
2737.24852	4237.275
2739.83899	4240.175
2742.42786	4247.375
2745.01513	4230.375
2747.60079	4241.575
2750.18486	4230.175
2752.76733	4247.175
2755.3482	4231.775
2757.92747	4221.475
2760.50515	4234.375
2763.08123	4234.575
2765.65573	4229.275
2768.22863	4213.875
2770.79994	4237.775
2773.36967	4236.575
2775.9378	4232.575
2778.50435	4216.175
2781.06932	4215.075
2783.6327	4211.675
2786.1945	4223.675
2788.75471	4215.375
2791.31335	4204.275
2793.87041	4205.975
2796.42589	4209.775
2798.97979	4222.875
2801.53212	4205.775
2804.08288	4205.775
2806.63206	4187.875
2809.17967	4202.275
2811.72571	4175.275
2814.27018	4193.275
2816.81308	4180.475
2819.35442	4166.275
2821.89419	4156.875
2824.43239	4174.275
2826.96904	4156.775
2829.50412	4171.375
2832.03763	4156.475
2834.56959	4151.175
2837.1	4154.275
2839.62884	4157.275
2842.15613	4167.875
2844.68186	4160.575
2847.20604	4176.675
2849.72867	4167.775
2852.24974	4155.375
2854.76927	4156.175
2857.28724	4167.375
2859.80367	4168.975
2862.31855	4157.275
2864.83189	4173.175
2867.34368	4174.175
2869.85393	4169.875
2872.36264	4174.375
2874.8698	4181.575
2877.37543	4166.375
2879.87952	4189.475
2882.38207	4190.075
2884.88308	4164.975
2887.38256	4180.975
2889.88051	4194.375
2892.37692	4199.575
2894.8718	4214.175
2897.36515	4228.775
2899.85698	4238.275
2902.34727	4269.375
2904.83604	4278.975
2907.32328	4274.675
2909.809	4306.875
2912.29319	4296.975
2914.77587	4299.475
2917.25702	4309.475
2919.73665	4333.775
2922.21476	4314.075
2924.69136	4314.175
2927.16644	4320.675
2929.64	4314.275
2932.11205	4330.675
2934.58258	4312.375
2937.05161	4332.675
2939.51912	4340.275
2941.98513	4373.675
2944.44962	4364.775
2946.91261	4335.875
2949.37409	4338.075
2951.83407	4348.575
2954.29254	4358.875
2956.74951	4348.675
2959.20498	4334.775
2961.65895	4331.775
2964.11142	4338.475
2966.56239	4325.275
2969.01186	4318.675
2971.45984	4325.575
2973.90632	4334.875
2976.35131	4324.475
2978.7948	4321.575
2981.23681	4330.975
2983.67732	4333.075
2986.11635	4316.875
2988.55388	4321.375
2990.98993	4318.075
2993.4245	4311.075
2995.85758	4296.475
2998.28917	4287.675
3000.71928	4284.975
3003.14791	4286.775
3005.57506	4285.275
3008.00073	4271.275
3010.42493	4245.075
3012.84764	4281.475
3015.26888	4250.175
3017.68865	4245.575
3020.10694	4239.475
3022.52376	4267.275
3024.9391	4265.875
3027.35298	4260.475
3029.76539	4253.875
3032.17632	4261.675
3034.5858	4246.875
3036.9938	4236.875
3039.40034	4247.675
3041.80542	4257.075
3044.20903	4276.175
3046.61118	4277.875
3049.01187	4263.675
3051.4111	4270.975
3053.80888	4276.375
3056.20519	4269.475
3058.60005	4281.675
3060.99345	4278.775
3063.3854	4278.775
3065.7759	4272.375
3068.16494	4233.775
3070.55254	4236.075
3072.93868	4226.375
3075.32338	4218.675
3077.70662	4213.875
3080.08842	4213.175
3082.46878	4231.675
3084.84769	4239.475
3087.22515	4252.075
3089.60118	4252.675
3091.97576	4243.475
3094.3489	4253.875
3096.72061	4251.775
3099.09087	4281.975
3101.4597	4287.975
3103.82709	4313.475
3106.19305	4314.275
3108.55757	4321.075
3110.92066	4296.375
3113.28232	4320.575
3115.64255	4321.575
3118.00134	4341.375
3120.35871	4327.775
3122.71466	4317.875
3125.06917	4322.275
3127.42226	4313.375
3129.77393	4319.975
3132.12417	4333.675
3134.47299	4345.375
3136.82039	4355.575
3139.16636	4344.475
3141.51092	4357.975
3143.85406	4343.875
3146.19579	4353.775
3148.53609	4379.775
3150.87499	4404.175
3153.21246	4411.475
3155.54853	4430.675
3157.88318	4415.175
3160.21642	4439.275
3162.54826	4424.975
3164.87868	4443.375
3167.2077	4473.675
3169.5353	4478.375
3171.86151	4498.175
3174.18631	4497.175
3176.5097	4507.075
3178.83169	4495.575
3181.15228	4505.275
3183.47147	4501.775
3185.78926	4494.675
3188.10565	4492.075
3190.42065	4509.875
3192.73424	4527.575
3195.04645	4499.975
3197.35725	4494.175
3199.66667	4489.875
3201.97469	4512.975
3204.28132	4534.675
3206.58656	4549.175
3208.8904	4576.575
3211.19287	4557.075
3213.49394	4549.975
3215.79363	4556.175
3218.09193	4562.475
3220.38884	4593.175
3222.68438	4614.075
3224.97853	4621.175
3227.2713	4623.375
3229.56269	4606.675
3231.8527	4609.975
3234.14133	4602.875
3236.42858	4599.375
3238.71446	4612.575
3240.99896	4594.375
