Data from AgNPs_UA_50uM_CRN_500uM_AS_RamanShift__3__15-09-01-544.txt Node

Date: Wed Aug 17 15:09:01 BST 2022
User: TCL
Spectrometer: QEP01345
Trigger mode: 4
Integration Time (sec): 7.000000E0
Scans to average: 10
Electric dark correction enabled: true
Nonlinearity correction enabled: false
Boxcar width: 0
XAxis mode: Raman Shifts
Number of Pixels in Spectrum: 1044
>>>>>Begin Spectral Data<<<<<
46.04893	-0.6875
50.45542	-0.4875
54.85868	-2.3875
59.25871	1.2125
63.6555	41.6125
68.04907	42.9125
72.43941	44.8125
76.82654	49.4125
81.21044	51.0125
85.59113	50.7125
89.96862	55.5125
94.34289	64.7125
98.71396	58.7125
103.08183	61.5125
107.4465	64.3125
111.80798	59.8125
116.16626	64.1125
120.52136	64.2125
124.87327	64.8125
129.222	66.8125
133.56755	66.4125
137.90993	70.6125
142.24913	80.8125
146.58517	82.6125
150.91804	90.0125
155.24774	95.9125
159.57429	111.0125
163.89768	139.5125
168.21792	179.3125
172.53501	230.1125
176.84895	308.9125
181.15975	428.2125
185.46741	589.1125
189.77193	815.3125
194.07331	1083.9125
198.37157	1391.7125
202.6667	1734.6125
206.9587	2061.4125
211.24758	2438.5125
215.53334	2823.5125
219.81599	3257.8125
224.09553	3766.2125
228.37195	4303.1125
232.64527	4878.3125
236.91549	5422.7125
241.18261	5851.4125
245.44663	6144.4125
249.70755	6298.7125
253.96539	6414.3125
258.22014	6474.1125
262.4718	6519.9125
266.72039	6555.1125
270.96589	6484.1125
275.20832	6317.7125
279.44768	6089.8125
283.68397	5907.0125
287.91719	5785.6125
292.14735	5822.9125
296.37445	6012.8125
300.59849	6378.2125
304.81948	6872.1125
309.03742	7294.4125
313.25231	7483.7125
317.46415	7291.4125
321.67296	6737.0125
325.87872	6203.5125
330.08145	5920.5125
334.28114	5861.2125
338.47781	5960.3125
342.67145	6131.4125
346.86207	6389.9125
351.04966	6858.9125
355.23424	7321.7125
359.4158	7609.6125
363.59435	7714.6125
367.76989	7625.4125
371.94243	7469.8125
376.11196	7294.7125
380.27849	7222.3125
384.44203	7081.1125
388.60257	6991.1125
392.76012	6962.9125
396.91468	7034.0125
401.06626	7171.7125
405.21485	7177.8125
409.36047	6896.3125
413.50311	6413.4125
417.64277	5933.1125
421.77947	5664.2125
425.9132	5575.5125
430.04396	5584.0125
434.17176	5641.7125
438.2966	5787.2125
442.41849	6034.9125
446.53742	6283.8125
450.6534	6486.7125
454.76644	6544.4125
458.87653	6445.5125
462.98368	6291.0125
467.08789	6114.2125
471.18916	5914.5125
475.2875	5687.5125
479.38291	5476.4125
483.4754	5325.3125
487.56496	5262.2125
491.6516	5193.7125
495.73531	5219.4125
499.81612	5232.0125
503.89401	5307.6125
507.96899	5407.2125
512.04106	5508.0125
516.11023	5628.9125
520.1765	5722.8125
524.23987	5782.9125
528.30034	5756.5125
532.35792	5724.0125
536.41261	5601.9125
540.46441	5414.0125
544.51333	5311.1125
548.55936	5339.9125
552.60252	5514.1125
556.64279	5706.8125
560.6802	5849.8125
564.71473	6030.9125
568.7464	6318.8125
572.7752	6376.6125
576.80114	6019.8125
580.82422	5737.0125
584.84444	5707.8125
588.86181	5937.4125
592.87633	6360.2125
596.888	6736.7125
600.89682	6965.4125
604.9028	7937.2125
608.90594	10914.7125
612.90624	14299.6125
616.90371	12746.5125
620.89834	8047.2125
624.89015	6012.4125
628.87913	5707.1125
632.86528	5996.8125
636.84862	6207.2125
640.82913	5983.4125
644.80683	5525.4125
648.78172	5240.5125
652.75379	5267.8125
656.72306	5631.0125
660.68952	5948.7125
664.65319	5673.2125
668.61405	5167.0125
672.57211	5013.7125
676.52738	5060.0125
680.47986	5083.6125
684.42955	4980.8125
688.37646	4896.4125
692.32058	4898.1125
696.26192	4963.7125
700.20048	5060.1125
704.13626	5100.4125
708.06928	5062.1125
711.99952	4995.2125
715.927	5016.7125
719.85171	5104.2125
723.77365	5154.4125
727.69284	5149.0125
731.60928	5115.7125
735.52295	5083.3125
739.43388	5111.4125
743.34206	5157.8125
747.24749	5130.2125
751.15017	5136.3125
755.05012	5278.5125
758.94733	5797.5125
762.8418	7093.1125
766.73354	9008.0125
770.62254	10519.0125
774.50882	10929.8125
778.39237	10170.3125
782.27321	8459.3125
786.15132	6741.4125
790.02671	5724.9125
793.89938	5256.4125
797.76935	5034.2125
801.6366	4949.7125
805.50115	4881.3125
809.36299	4818.3125
813.22213	4790.2125
817.07857	4794.6125
820.93231	4780.1125
824.78336	4786.0125
828.63172	4817.2125
832.47738	4819.5125
836.32036	4773.7125
840.16066	4728.7125
843.99827	4699.9125
847.8332	4675.4125
851.66546	4702.4125
855.49504	4726.8125
859.32195	4726.4125
863.1462	4693.2125
866.96777	4686.1125
870.78668	4697.9125
874.60293	4719.1125
878.41652	4759.8125
882.22745	4841.5125
886.03573	4894.0125
889.84136	4891.2125
893.64433	4858.9125
897.44466	4831.6125
901.24235	4831.5125
905.0374	4783.7125
908.8298	4715.9125
912.61957	4651.9125
916.40671	4653.0125
920.19121	4694.7125
923.97308	4781.1125
927.75233	4916.9125
931.52895	5017.0125
935.30295	4864.0125
939.07433	4646.7125
942.84309	4447.7125
946.60924	4379.5125
950.37278	4350.0125
954.13371	4304.5125
957.89203	4319.5125
961.64774	4305.1125
965.40086	4295.3125
969.15137	4288.4125
972.89929	4261.7125
976.64461	4234.4125
980.38733	4240.4125
984.12747	4243.0125
987.86502	4270.6125
991.59999	4297.3125
995.33237	4382.2125
999.06217	4506.7125
1002.78939	4681.7125
1006.51404	4848.6125
1010.23611	4959.9125
1013.95561	4998.6125
1017.67255	4976.5125
1021.38692	4848.4125
1025.09872	4691.4125
1028.80796	4569.8125
1032.51465	4544.4125
1036.21877	4567.4125
1039.92035	4637.0125
1043.61937	4668.6125
1047.31584	4693.7125
1051.00976	4700.4125
1054.70114	4672.7125
1058.38998	4664.5125
1062.07627	4655.3125
1065.76003	4657.3125
1069.44126	4682.6125
1073.11995	4777.2125
1076.79611	4928.5125
1080.46974	5173.7125
1084.14085	5446.8125
1087.80943	5666.4125
1091.47549	5684.3125
1095.13903	5510.2125
1098.80005	5212.8125
1102.45857	5059.9125
1106.11456	5032.1125
1109.76805	5160.7125
1113.41903	5411.8125
1117.06751	5754.9125
1120.71348	6272.5125
1124.35696	6880.9125
1127.99793	7249.4125
1131.63641	6941.7125
1135.2724	6344.5125
1138.90589	5859.3125
1142.5369	5530.9125
1146.16542	5362.8125
1149.79145	5265.5125
1153.415	5232.3125
1157.03607	5291.7125
1160.65467	5463.8125
1164.27079	5770.5125
1167.88443	6266.6125
1171.49561	7056.4125
1175.10432	8336.8125
1178.71056	10018.3125
1182.31434	11433.9125
1185.91565	11768.4125
1189.51451	11130.5125
1193.11091	10168.0125
1196.70485	9263.5125
1200.29634	8538.3125
1203.88538	7833.0125
1207.47197	7051.9125
1211.05612	6390.8125
1214.63782	5982.4125
1218.21708	5852.2125
1221.79391	5868.1125
1225.36829	5914.4125
1228.94024	5908.0125
1232.50976	5806.8125
1236.07685	5732.2125
1239.6415	5677.8125
1243.20374	5696.1125
1246.76355	5742.8125
1250.32093	5806.9125
1253.8759	5935.4125
1257.42845	6203.6125
1260.97859	6554.8125
1264.52631	6962.3125
1268.07163	7317.6125
1271.61453	7545.3125
1275.15503	7665.7125
1278.69312	7740.3125
1282.22882	7908.1125
1285.76211	8353.4125
1289.29301	8910.4125
1292.82151	9478.7125
1296.34761	10120.3125
1299.87133	11112.7125
1303.39266	12689.7125
1306.9116	14902.1125
1310.42815	16895.2125
1313.94233	17242.8125
1317.45412	15753.1125
1320.96354	13642.1125
1324.47058	11613.0125
1327.97525	10049.8125
1331.47754	9092.8125
1334.97747	8753.5125
1338.47502	8847.9125
1341.97022	9389.2125
1345.46305	10386.7125
1348.95352	11786.4125
1352.44163	13559.8125
1355.92738	16014.7125
1359.41078	19495.0125
1362.89183	22026.6125
1366.37053	20480.2125
1369.84688	15902.7125
1373.32088	12082.7125
1376.79254	10084.6125
1380.26186	9085.4125
1383.72883	8377.6125
1387.19347	7703.2125
1390.65578	7171.0125
1394.11575	6832.8125
1397.57339	6669.5125
1401.0287	6582.3125
1404.48168	6537.6125
1407.93234	6512.7125
1411.38068	6519.0125
1414.82669	6608.2125
1418.27039	6631.0125
1421.71177	6568.9125
1425.15083	6417.6125
1428.58758	6418.7125
1432.02203	6596.8125
1435.45416	6714.8125
1438.88399	6711.7125
1442.31151	6673.7125
1445.73673	6634.1125
1449.15965	6659.8125
1452.58027	6543.6125
1455.9986	6422.2125
1459.41463	6400.9125
1462.82837	6520.5125
1466.23982	6781.2125
1469.64898	7047.6125
1473.05586	7232.3125
1476.46045	7351.0125
1479.86276	7546.8125
1483.26279	7786.6125
1486.66054	8218.4125
1490.05602	8846.7125
1493.44922	9789.4125
1496.84016	11233.7125
1500.22882	13355.5125
1503.61521	16185.9125
1506.99934	18989.1125
1510.38121	20558.9125
1513.76081	19944.2125
1517.13816	17265.2125
1520.51324	13929.1125
1523.88607	11304.6125
1527.25665	9762.4125
1530.62498	8993.8125
1533.99105	8528.9125
1537.35488	8139.3125
1540.71647	7800.7125
1544.07581	7579.4125
1547.4329	7433.7125
1550.78776	7339.8125
1554.14038	7305.3125
1557.49077	7353.0125
1560.83892	7610.2125
1564.18484	8190.7125
1567.52853	8941.4125
1570.86999	9540.0125
1574.20922	9793.8125
1577.54624	9530.4125
1580.88103	8619.4125
1584.2136	7607.7125
1587.54395	7075.6125
1590.87208	7166.6125
1594.19801	7734.1125
1597.52172	8414.4125
1600.84321	8615.3125
1604.16251	8192.8125
1607.47959	7527.8125
1610.79447	6788.0125
1614.10715	6153.5125
1617.41763	5684.3125
1620.7259	5395.5125
1624.03199	5292.6125
1627.33587	5331.5125
1630.63757	5589.4125
1633.93707	6147.6125
1637.23439	7095.8125
1640.52951	8620.4125
1643.82246	10750.5125
1647.11321	12947.1125
1650.40179	13855.5125
1653.68819	12719.9125
1656.97241	10257.1125
1660.25446	7900.7125
1663.53433	6304.6125
1666.81203	5410.7125
1670.08756	4893.1125
1673.36092	4578.9125
1676.63211	4378.7125
1679.90115	4234.8125
1683.16801	4131.1125
1686.43272	4045.5125
1689.69527	3980.1125
1692.95567	3922.2125
1696.2139	3931.0125
1699.46999	3884.0125
1702.72392	3853.1125
1705.97571	3813.4125
1709.22535	3815.7125
1712.47284	3808.1125
1715.71819	3815.1125
1718.96139	3755.7125
1722.20246	3727.1125
1725.44139	3683.4125
1728.67818	3648.6125
1731.91284	3599.5125
1735.14537	3564.5125
1738.37576	3521.7125
1741.60403	3518.4125
1744.83017	3501.8125
1748.05418	3492.0125
1751.27607	3498.5125
1754.49584	3499.9125
1757.71349	3475.9125
1760.92903	3459.1125
1764.14244	3445.0125
1767.35375	3401.2125
1770.56294	3379.4125
1773.77002	3352.7125
1776.97499	3338.6125
1780.17785	3309.6125
1783.37861	3267.0125
1786.57727	3261.7125
1789.77382	3247.0125
1792.96828	3235.0125
1796.16064	3208.8125
1799.3509	3194.3125
1802.53907	3184.5125
1805.72514	3178.8125
1808.90913	3161.1125
1812.09102	3133.8125
1815.27083	3118.8125
1818.44856	3129.6125
1821.6242	3094.5125
1824.79776	3103.8125
1827.96924	3087.5125
1831.13864	3088.5125
1834.30597	3061.5125
1837.47122	3054.4125
1840.6344	3037.2125
1843.7955	3036.4125
1846.95454	3036.7125
1850.11151	3032.3125
1853.26642	3020.6125
1856.41926	3010.7125
1859.57004	3013.1125
1862.71876	3014.3125
1865.86542	3007.4125
1869.01003	3005.8125
1872.15258	3016.5125
1875.29308	3018.7125
1878.43152	3017.1125
1881.56792	3005.6125
1884.70227	2990.2125
1887.83457	3001.2125
1890.96482	2992.7125
1894.09304	2984.1125
1897.21921	2982.2125
1900.34335	2976.3125
1903.46544	2971.2125
1906.58551	2967.2125
1909.70353	2959.7125
1912.81953	2960.0125
1915.93349	2961.8125
1919.04543	2957.5125
1922.15534	2942.6125
1925.26322	2946.5125
1928.36908	2920.2125
1931.47292	2908.9125
1934.57473	2891.5125
1937.67453	2884.0125
1940.77232	2855.0125
1943.86808	2849.0125
1946.96184	2843.4125
1950.05358	2840.6125
1953.14331	2826.2125
1956.23103	2809.1125
1959.31675	2807.3125
1962.40046	2812.2125
1965.48217	2806.2125
1968.56188	2815.8125
1971.63959	2796.2125
1974.7153	2776.4125
1977.78901	2777.0125
1980.86073	2765.4125
1983.93046	2750.2125
1986.99819	2734.9125
1990.06394	2730.8125
1993.1277	2723.4125
1996.18947	2692.7125
1999.24925	2684.9125
2002.30706	2676.1125
2005.36288	2665.7125
2008.41672	2666.4125
2011.46859	2636.0125
2014.51848	2635.4125
2017.56639	2624.8125
2020.61233	2620.7125
2023.6563	2628.3125
2026.6983	2596.9125
2029.73833	2608.8125
2032.7764	2586.5125
2035.8125	2587.8125
2038.84664	2582.0125
2041.87881	2569.9125
2044.90903	2576.0125
2047.93729	2565.6125
2050.96359	2559.8125
2053.98794	2553.4125
2057.01034	2556.6125
2060.03078	2543.9125
2063.04927	2542.5125
2066.06582	2536.8125
2069.08042	2535.5125
2072.09307	2521.5125
2075.10378	2527.5125
2078.11255	2525.3125
2081.11938	2526.2125
2084.12426	2533.9125
2087.12722	2528.3125
2090.12824	2521.3125
2093.12732	2528.3125
2096.12447	2531.1125
2099.11969	2524.9125
2102.11299	2530.8125
2105.10435	2528.9125
2108.09379	2525.8125
2111.08131	2520.7125
2114.0669	2519.7125
2117.05057	2530.3125
2120.03233	2551.2125
2123.01216	2557.5125
2125.99008	2557.0125
2128.96609	2549.9125
2131.94018	2561.7125
2134.91236	2548.8125
2137.88263	2542.3125
2140.851	2541.8125
2143.81746	2534.8125
2146.78201	2533.4125
2149.74466	2520.8125
2152.7054	2515.1125
2155.66425	2499.7125
2158.6212	2505.3125
2161.57625	2499.1125
2164.52941	2490.5125
2167.48067	2487.8125
2170.43004	2488.7125
2173.37752	2486.7125
2176.32311	2482.2125
2179.26681	2483.1125
2182.20863	2497.2125
2185.14856	2486.0125
2188.08661	2493.1125
2191.02278	2499.1125
2193.95707	2473.5125
2196.88948	2472.8125
2199.82001	2476.3125
2202.74867	2469.1125
2205.67545	2479.0125
2208.60037	2478.6125
2211.52341	2470.3125
2214.44458	2459.6125
2217.36388	2450.9125
2220.28132	2432.5125
2223.1969	2422.2125
2226.11061	2430.4125
2229.02246	2415.7125
2231.93245	2411.7125
2234.84058	2404.1125
2237.74686	2405.2125
2240.65128	2419.6125
2243.55385	2415.2125
2246.45456	2405.4125
2249.35343	2407.6125
2252.25044	2417.3125
2255.14561	2415.1125
2258.03893	2423.9125
2260.93041	2424.5125
2263.82004	2406.4125
2266.70783	2403.4125
2269.59378	2398.2125
2272.4779	2400.3125
2275.36017	2376.3125
2278.24061	2381.5125
2281.11922	2368.7125
2283.996	2362.8125
2286.87094	2355.5125
2289.74405	2348.0125
2292.61534	2352.4125
2295.4848	2329.3125
2298.35243	2321.0125
2301.21824	2324.8125
2304.08223	2330.0125
2306.94439	2324.5125
2309.80474	2323.8125
2312.66327	2322.9125
2315.51999	2318.8125
2318.37489	2318.6125
2321.22797	2304.3125
2324.07925	2289.1125
2326.92871	2290.8125
2329.77637	2297.3125
2332.62222	2292.6125
2335.46626	2288.6125
2338.3085	2296.3125
2341.14893	2296.2125
2343.98756	2291.6125
2346.8244	2293.0125
2349.65943	2296.0125
2352.49267	2296.2125
2355.32411	2301.9125
2358.15376	2313.0125
2360.98161	2312.3125
2363.80768	2319.8125
2366.63195	2324.0125
2369.45444	2338.7125
2372.27514	2350.5125
2375.09405	2331.6125
2377.91118	2330.5125
2380.72652	2330.8125
2383.54009	2323.9125
2386.35187	2301.1125
2389.16188	2280.4125
2391.97011	2268.8125
2394.77657	2253.1125
2397.58125	2246.9125
2400.38416	2248.6125
2403.18529	2241.2125
2405.98466	2226.0125
2408.78226	2223.8125
2411.57809	2214.6125
2414.37216	2208.3125
2417.16446	2213.7125
2419.955	2219.0125
2422.74378	2216.5125
2425.5308	2211.4125
2428.31606	2224.7125
2431.09956	2234.5125
2433.88131	2213.6125
2436.6613	2219.3125
2439.43954	2213.3125
2442.21603	2211.8125
2444.99077	2214.1125
2447.76377	2227.4125
2450.53501	2228.5125
2453.30451	2220.8125
2456.07226	2225.4125
2458.83827	2224.7125
2461.60254	2231.5125
2464.36507	2228.0125
2467.12586	2224.7125
2469.88492	2221.0125
2472.64224	2221.6125
2475.39782	2230.6125
2478.15167	2245.9125
2480.90379	2240.9125
2483.65417	2258.9125
2486.40283	2267.0125
2489.14976	2268.5125
2491.89497	2273.8125
2494.63845	2286.0125
2497.3802	2283.8125
2500.12024	2273.2125
2502.85855	2262.3125
2505.59514	2245.7125
2508.33002	2227.1125
2511.06318	2219.0125
2513.79462	2200.2125
2516.52435	2193.7125
2519.25237	2175.0125
2521.97867	2156.9125
2524.70327	2167.9125
2527.42616	2155.4125
2530.14734	2140.1125
2532.86681	2147.6125
2535.58458	2159.2125
2538.30065	2146.9125
2541.01501	2159.4125
2543.72768	2155.3125
2546.43864	2153.4125
2549.14791	2156.6125
2551.85548	2155.0125
2554.56136	2149.0125
2557.26554	2151.1125
2559.96803	2146.4125
2562.66883	2144.8125
2565.36794	2149.7125
2568.06536	2130.2125
2570.7611	2127.5125
2573.45514	2127.3125
2576.14751	2133.3125
2578.83819	2121.0125
2581.52719	2117.3125
2584.21451	2113.7125
2586.90015	2115.8125
2589.58411	2107.8125
2592.2664	2101.7125
2594.94701	2102.4125
2597.62594	2109.6125
2600.30321	2110.0125
2602.9788	2102.7125
2605.65273	2103.0125
2608.32498	2109.5125
2610.99557	2094.4125
2613.66449	2106.4125
2616.33175	2106.9125
2618.99734	2097.4125
2621.66128	2090.5125
2624.32355	2093.3125
2626.98416	2075.4125
2629.64311	2076.4125
2632.30041	2070.3125
2634.95605	2074.1125
2637.61004	2068.4125
2640.26238	2066.3125
2642.91306	2063.9125
2645.56209	2048.2125
2648.20948	2045.5125
2650.85521	2050.4125
2653.4993	2043.7125
2656.14175	2058.9125
2658.78255	2063.3125
2661.42171	2064.1125
2664.05923	2069.6125
2666.6951	2079.8125
2669.32934	2091.5125
2671.96194	2078.0125
2674.59291	2087.9125
2677.22224	2085.8125
2679.84993	2087.6125
2682.476	2081.9125
2685.10043	2081.4125
2687.72324	2075.3125
2690.34441	2078.3125
2692.96396	2063.6125
2695.58188	2063.2125
2698.19818	2060.2125
2700.81285	2057.9125
2703.4259	2046.5125
2706.03733	2071.1125
2708.64714	2067.8125
2711.25533	2068.3125
2713.86191	2077.5125
2716.46687	2071.9125
2719.07021	2074.4125
2721.67194	2080.9125
2724.27206	2089.7125
2726.87057	2086.8125
2729.46747	2083.0125
2732.06276	2073.9125
2734.65644	2074.1125
2737.24852	2070.1125
2739.83899	2054.5125
2742.42786	2064.6125
2745.01513	2053.3125
2747.60079	2047.8125
2750.18486	2045.1125
2752.76733	2049.9125
2755.3482	2039.1125
2757.92747	2031.5125
2760.50515	2029.1125
2763.08123	2031.0125
2765.65573	2023.4125
2768.22863	2023.0125
2770.79994	2011.0125
2773.36967	2028.7125
2775.9378	2018.0125
2778.50435	2023.4125
2781.06932	2018.9125
2783.6327	2023.2125
2786.1945	2021.2125
2788.75471	2029.5125
2791.31335	2027.5125
2793.87041	2026.3125
2796.42589	2030.2125
2798.97979	2027.2125
2801.53212	2028.6125
2804.08288	2035.9125
2806.63206	2027.0125
2809.17967	2041.7125
2811.72571	2041.4125
2814.27018	2049.0125
2816.81308	2047.9125
2819.35442	2058.8125
2821.89419	2053.2125
2824.43239	2051.3125
2826.96904	2053.9125
2829.50412	2066.3125
2832.03763	2067.4125
2834.56959	2055.4125
2837.1	2050.9125
2839.62884	2057.0125
2842.15613	2057.8125
2844.68186	2069.6125
2847.20604	2074.0125
2849.72867	2084.6125
2852.24974	2100.0125
2854.76927	2108.8125
2857.28724	2114.0125
2859.80367	2129.6125
2862.31855	2127.7125
2864.83189	2152.4125
2867.34368	2171.3125
2869.85393	2181.0125
2872.36264	2187.5125
2874.8698	2194.7125
2877.37543	2197.3125
2879.87952	2197.4125
2882.38207	2203.0125
2884.88308	2200.8125
2887.38256	2221.7125
2889.88051	2208.7125
2892.37692	2227.1125
2894.8718	2223.7125
2897.36515	2231.7125
2899.85698	2251.6125
2902.34727	2253.4125
2904.83604	2259.1125
2907.32328	2283.1125
2909.809	2276.9125
2912.29319	2285.1125
2914.77587	2287.6125
2917.25702	2297.3125
2919.73665	2303.1125
2922.21476	2304.3125
2924.69136	2297.8125
2927.16644	2284.5125
2929.64	2281.9125
2932.11205	2287.8125
2934.58258	2276.1125
2937.05161	2273.6125
2939.51912	2268.1125
2941.98513	2252.1125
2944.44962	2247.0125
2946.91261	2236.0125
2949.37409	2220.0125
2951.83407	2214.7125
2954.29254	2216.0125
2956.74951	2195.9125
2959.20498	2184.7125
2961.65895	2172.1125
2964.11142	2165.6125
2966.56239	2143.9125
2969.01186	2129.9125
2971.45984	2109.9125
2973.90632	2105.0125
2976.35131	2094.9125
2978.7948	2074.3125
2981.23681	2071.3125
2983.67732	2071.3125
2986.11635	2058.9125
2988.55388	2047.2125
2990.98993	2042.3125
2993.4245	2032.9125
2995.85758	2034.8125
2998.28917	2025.7125
3000.71928	2009.5125
3003.14791	2017.2125
3005.57506	2013.6125
3008.00073	2004.8125
3010.42493	1971.9125
3012.84764	2002.5125
3015.26888	1984.6125
3017.68865	1989.7125
3020.10694	1977.1125
3022.52376	1975.7125
3024.9391	1975.7125
3027.35298	1969.4125
3029.76539	1968.6125
3032.17632	1959.6125
3034.5858	1954.6125
3036.9938	1942.6125
3039.40034	1945.8125
3041.80542	1943.9125
3044.20903	1945.6125
3046.61118	1945.2125
3049.01187	1948.1125
3051.4111	1947.2125
3053.80888	1940.3125
3056.20519	1936.2125
3058.60005	1945.6125
3060.99345	1940.2125
3063.3854	1947.1125
3065.7759	1934.0125
3068.16494	1930.1125
3070.55254	1924.3125
3072.93868	1918.3125
3075.32338	1910.9125
3077.70662	1914.8125
3080.08842	1901.8125
3082.46878	1906.1125
3084.84769	1912.9125
3087.22515	1918.8125
3089.60118	1910.2125
3091.97576	1912.8125
3094.3489	1925.2125
3096.72061	1924.9125
3099.09087	1924.5125
3101.4597	1945.0125
3103.82709	1934.5125
3106.19305	1941.6125
3108.55757	1948.9125
3110.92066	1947.5125
3113.28232	1959.8125
3115.64255	1946.6125
3118.00134	1953.9125
3120.35871	1956.0125
3122.71466	1955.5125
