Data from AgNPs_UA_5uM_CRN_500uM_AS_RamanShift__2__12-59-53-820.txt Node

Date: Wed Aug 17 12:59:53 BST 2022
User: TCL
Spectrometer: QEP01345
Trigger mode: 4
Integration Time (sec): 7.000000E0
Scans to average: 10
Electric dark correction enabled: true
Nonlinearity correction enabled: false
Boxcar width: 0
XAxis mode: Raman Shifts
Number of Pixels in Spectrum: 1044
>>>>>Begin Spectral Data<<<<<
46.04893	0.9125
50.45542	0.7125
54.85868	-0.5875
59.25871	0.3125
63.6555	43.7125
68.04907	50.9125
72.43941	54.2125
76.82654	56.4125
81.21044	63.7125
85.59113	63.7125
89.96862	68.9125
94.34289	73.1125
98.71396	69.3125
103.08183	74.9125
107.4465	74.7125
111.80798	73.6125
116.16626	78.5125
120.52136	78.3125
124.87327	79.2125
129.222	78.1125
133.56755	84.2125
137.90993	83.1125
142.24913	83.6125
146.58517	85.7125
150.91804	89.1125
155.24774	96.9125
159.57429	105.8125
163.89768	125.8125
168.21792	148.7125
172.53501	179.8125
176.84895	240.5125
181.15975	318.4125
185.46741	426.8125
189.77193	583.4125
194.07331	793.8125
198.37157	1042.4125
202.6667	1322.0125
206.9587	1612.2125
211.24758	1916.0125
215.53334	2211.4125
219.81599	2526.2125
224.09553	2845.7125
228.37195	3199.1125
232.64527	3545.7125
236.91549	3910.0125
241.18261	4276.2125
245.44663	4579.7125
249.70755	4801.4125
253.96539	4902.2125
258.22014	4910.6125
262.4718	4846.8125
266.72039	4698.1125
270.96589	4504.6125
275.20832	4273.9125
279.44768	4032.3125
283.68397	3779.5125
287.91719	3546.0125
292.14735	3332.2125
296.37445	3119.0125
300.59849	2969.4125
304.81948	2824.4125
309.03742	2695.1125
313.25231	2601.7125
317.46415	2530.2125
321.67296	2435.8125
325.87872	2378.1125
330.08145	2339.2125
334.28114	2319.6125
338.47781	2300.0125
342.67145	2321.9125
346.86207	2313.5125
351.04966	2318.3125
355.23424	2312.9125
359.4158	2314.3125
363.59435	2291.8125
367.76989	2273.3125
371.94243	2257.8125
376.11196	2253.1125
380.27849	2251.1125
384.44203	2252.3125
388.60257	2228.6125
392.76012	2239.4125
396.91468	2246.8125
401.06626	2252.7125
405.21485	2263.7125
409.36047	2254.3125
413.50311	2254.9125
417.64277	2266.6125
421.77947	2272.8125
425.9132	2284.1125
430.04396	2307.3125
434.17176	2322.5125
438.2966	2335.4125
442.41849	2362.0125
446.53742	2386.9125
450.6534	2402.8125
454.76644	2421.6125
458.87653	2433.9125
462.98368	2449.2125
467.08789	2447.9125
471.18916	2456.4125
475.2875	2443.5125
479.38291	2444.8125
483.4754	2441.7125
487.56496	2431.5125
491.6516	2456.0125
495.73531	2444.4125
499.81612	2461.5125
503.89401	2478.9125
507.96899	2467.1125
512.04106	2456.3125
516.11023	2444.0125
520.1765	2437.2125
524.23987	2431.6125
528.30034	2428.2125
532.35792	2428.2125
536.41261	2438.2125
540.46441	2428.8125
544.51333	2432.3125
548.55936	2454.4125
552.60252	2456.2125
556.64279	2452.4125
560.6802	2475.3125
564.71473	2492.7125
568.7464	2527.7125
572.7752	2572.3125
576.80114	2589.9125
580.82422	2587.4125
584.84444	2575.0125
588.86181	2591.9125
592.87633	2616.1125
596.888	2657.8125
600.89682	2705.4125
604.9028	2769.9125
608.90594	2863.8125
612.90624	2951.1125
616.90371	2936.4125
620.89834	2863.9125
624.89015	2796.4125
628.87913	2767.9125
632.86528	2744.5125
636.84862	2739.7125
640.82913	2749.0125
644.80683	2776.9125
648.78172	2808.9125
652.75379	2822.0125
656.72306	2807.8125
660.68952	2821.8125
664.65319	2881.1125
668.61405	3024.3125
672.57211	3275.7125
676.52738	3636.6125
680.47986	3987.9125
684.42955	4145.5125
688.37646	4034.1125
692.32058	3813.8125
696.26192	3588.4125
700.20048	3435.2125
704.13626	3326.5125
708.06928	3216.7125
711.99952	3107.5125
715.927	3025.6125
719.85171	2966.8125
723.77365	2957.7125
727.69284	2977.8125
731.60928	2975.8125
735.52295	2935.5125
739.43388	2903.4125
743.34206	2870.6125
747.24749	2886.2125
751.15017	2905.4125
755.05012	2952.2125
758.94733	2967.3125
762.8418	2989.5125
766.73354	2964.1125
770.62254	2934.9125
774.50882	2902.4125
778.39237	2872.9125
782.27321	2830.1125
786.15132	2798.1125
790.02671	2793.3125
793.89938	2785.0125
797.76935	2797.7125
801.6366	2798.7125
805.50115	2805.2125
809.36299	2802.5125
813.22213	2785.3125
817.07857	2767.6125
820.93231	2774.3125
824.78336	2775.5125
828.63172	2780.0125
832.47738	2787.2125
836.32036	2791.6125
840.16066	2788.9125
843.99827	2799.1125
847.8332	2808.7125
851.66546	2808.5125
855.49504	2834.3125
859.32195	2851.9125
863.1462	2893.8125
866.96777	2927.4125
870.78668	2940.1125
874.60293	2962.4125
878.41652	2962.8125
882.22745	2970.9125
886.03573	2978.9125
889.84136	2970.8125
893.64433	2983.1125
897.44466	2990.8125
901.24235	3015.3125
905.0374	3037.3125
908.8298	3060.5125
912.61957	3080.0125
916.40671	3086.4125
920.19121	3098.9125
923.97308	3124.0125
927.75233	3148.3125
931.52895	3160.1125
935.30295	3149.9125
939.07433	3105.8125
942.84309	3075.8125
946.60924	3026.0125
950.37278	2977.3125
954.13371	2951.9125
957.89203	2949.8125
961.64774	2954.5125
965.40086	2936.7125
969.15137	2912.8125
972.89929	2894.8125
976.64461	2863.5125
980.38733	2857.3125
984.12747	2843.9125
987.86502	2836.2125
991.59999	2838.0125
995.33237	2815.3125
999.06217	2838.8125
1002.78939	2829.5125
1006.51404	2826.8125
1010.23611	2835.6125
1013.95561	2864.8125
1017.67255	2848.7125
1021.38692	2859.0125
1025.09872	2869.7125
1028.80796	2886.0125
1032.51465	2899.2125
1036.21877	2925.4125
1039.92035	2965.1125
1043.61937	3010.7125
1047.31584	3081.5125
1051.00976	3098.6125
1054.70114	3111.6125
1058.38998	3101.6125
1062.07627	3050.1125
1065.76003	2997.5125
1069.44126	2960.3125
1073.11995	2914.2125
1076.79611	2895.7125
1080.46974	2861.9125
1084.14085	2847.8125
1087.80943	2845.6125
1091.47549	2848.1125
1095.13903	2836.0125
1098.80005	2823.7125
1102.45857	2820.1125
1106.11456	2827.8125
1109.76805	2827.8125
1113.41903	2839.5125
1117.06751	2849.6125
1120.71348	2864.4125
1124.35696	2885.9125
1127.99793	2892.0125
1131.63641	2911.1125
1135.2724	2913.5125
1138.90589	2910.9125
1142.5369	2909.3125
1146.16542	2910.3125
1149.79145	2903.4125
1153.415	2902.7125
1157.03607	2902.4125
1160.65467	2895.0125
1164.27079	2921.6125
1167.88443	2920.7125
1171.49561	2926.2125
1175.10432	2964.1125
1178.71056	2984.3125
1182.31434	3008.8125
1185.91565	3027.8125
1189.51451	3026.3125
1193.11091	3014.8125
1196.70485	2987.7125
1200.29634	2974.2125
1203.88538	2953.1125
1207.47197	2935.4125
1211.05612	2929.2125
1214.63782	2931.2125
1218.21708	2932.3125
1221.79391	2940.5125
1225.36829	2967.7125
1228.94024	2975.1125
1232.50976	2992.2125
1236.07685	3017.1125
1239.6415	3058.3125
1243.20374	3080.4125
1246.76355	3108.9125
1250.32093	3114.7125
1253.8759	3150.2125
1257.42845	3149.4125
1260.97859	3163.2125
1264.52631	3169.8125
1268.07163	3163.9125
1271.61453	3161.3125
1275.15503	3155.8125
1278.69312	3168.8125
1282.22882	3173.0125
1285.76211	3173.1125
1289.29301	3190.7125
1292.82151	3218.9125
1296.34761	3215.7125
1299.87133	3204.3125
1303.39266	3233.4125
1306.9116	3252.4125
1310.42815	3268.0125
1313.94233	3275.8125
1317.45412	3254.9125
1320.96354	3246.3125
1324.47058	3218.1125
1327.97525	3222.7125
1331.47754	3217.3125
1334.97747	3222.5125
1338.47502	3239.1125
1341.97022	3266.0125
1345.46305	3314.5125
1348.95352	3374.0125
1352.44163	3410.7125
1355.92738	3457.1125
1359.41078	3511.9125
1362.89183	3567.2125
1366.37053	3567.1125
1369.84688	3519.4125
1373.32088	3432.7125
1376.79254	3341.6125
1380.26186	3298.7125
1383.72883	3258.5125
1387.19347	3218.2125
1390.65578	3180.9125
1394.11575	3148.1125
1397.57339	3146.3125
1401.0287	3137.9125
1404.48168	3182.7125
1407.93234	3198.0125
1411.38068	3255.1125
1414.82669	3294.5125
1418.27039	3358.6125
1421.71177	3372.2125
1425.15083	3344.1125
1428.58758	3286.0125
1432.02203	3245.2125
1435.45416	3200.5125
1438.88399	3175.6125
1442.31151	3143.8125
1445.73673	3135.4125
1449.15965	3138.4125
1452.58027	3141.9125
1455.9986	3130.7125
1459.41463	3141.1125
1462.82837	3137.6125
1466.23982	3146.4125
1469.64898	3140.3125
1473.05586	3132.1125
1476.46045	3098.5125
1479.86276	3048.7125
1483.26279	3019.7125
1486.66054	2997.6125
1490.05602	3005.0125
1493.44922	2990.2125
1496.84016	2996.7125
1500.22882	3023.4125
1503.61521	3051.5125
1506.99934	3084.8125
1510.38121	3114.8125
1513.76081	3118.8125
1517.13816	3082.4125
1520.51324	3068.4125
1523.88607	3038.8125
1527.25665	3024.6125
1530.62498	3026.0125
1533.99105	3040.3125
1537.35488	3048.7125
1540.71647	3033.6125
1544.07581	3042.9125
1547.4329	3064.8125
1550.78776	3082.8125
1554.14038	3088.6125
1557.49077	3109.2125
1560.83892	3102.7125
1564.18484	3108.8125
1567.52853	3103.5125
1570.86999	3112.5125
1574.20922	3116.4125
1577.54624	3102.3125
1580.88103	3092.3125
1584.2136	3077.5125
1587.54395	3061.3125
1590.87208	3068.0125
1594.19801	3072.8125
1597.52172	3094.4125
1600.84321	3107.9125
1604.16251	3074.8125
1607.47959	3060.0125
1610.79447	3060.6125
1614.10715	3016.5125
1617.41763	3004.0125
1620.7259	2988.1125
1624.03199	2967.3125
1627.33587	2959.5125
1630.63757	2963.3125
1633.93707	2963.4125
1637.23439	2965.7125
1640.52951	2973.8125
1643.82246	2987.3125
1647.11321	3033.0125
1650.40179	3057.3125
1653.68819	3053.9125
1656.97241	3035.1125
1660.25446	3021.3125
1663.53433	3027.5125
1666.81203	3028.8125
1670.08756	3035.7125
1673.36092	3056.7125
1676.63211	3075.1125
1679.90115	3085.6125
1683.16801	3088.5125
1686.43272	3084.7125
1689.69527	3081.0125
1692.95567	3068.0125
1696.2139	3064.3125
1699.46999	3048.8125
1702.72392	3042.6125
1705.97571	3022.6125
1709.22535	3000.0125
1712.47284	3003.7125
1715.71819	2990.6125
1718.96139	2968.5125
1722.20246	2976.6125
1725.44139	2994.8125
1728.67818	3007.2125
1731.91284	3042.5125
1735.14537	3073.8125
1738.37576	3102.4125
1741.60403	3172.6125
1744.83017	3236.6125
1748.05418	3345.5125
1751.27607	3496.3125
1754.49584	3632.1125
1757.71349	3721.1125
1760.92903	3768.2125
1764.14244	3734.5125
1767.35375	3663.8125
1770.56294	3556.8125
1773.77002	3491.7125
1776.97499	3425.8125
1780.17785	3383.4125
1783.37861	3356.6125
1786.57727	3323.6125
1789.77382	3292.0125
1792.96828	3236.3125
1796.16064	3194.5125
1799.3509	3143.7125
1802.53907	3104.5125
1805.72514	3069.0125
1808.90913	3019.9125
1812.09102	2967.7125
1815.27083	2913.1125
1818.44856	2894.8125
1821.6242	2838.5125
1824.79776	2813.6125
1827.96924	2773.2125
1831.13864	2730.2125
1834.30597	2696.2125
1837.47122	2674.8125
1840.6344	2659.0125
1843.7955	2644.6125
1846.95454	2621.3125
1850.11151	2600.9125
1853.26642	2596.4125
1856.41926	2586.2125
1859.57004	2570.3125
1862.71876	2563.3125
1865.86542	2575.7125
1869.01003	2558.6125
1872.15258	2578.3125
1875.29308	2573.0125
1878.43152	2583.8125
1881.56792	2582.3125
1884.70227	2567.6125
1887.83457	2591.5125
1890.96482	2601.2125
1894.09304	2588.1125
1897.21921	2600.4125
1900.34335	2610.6125
1903.46544	2612.9125
1906.58551	2622.5125
1909.70353	2641.3125
1912.81953	2658.6125
1915.93349	2655.6125
1919.04543	2681.1125
1922.15534	2687.2125
1925.26322	2717.9125
1928.36908	2726.5125
1931.47292	2733.0125
1934.57473	2748.9125
1937.67453	2756.2125
1940.77232	2764.3125
1943.86808	2763.9125
1946.96184	2741.8125
1950.05358	2747.2125
1953.14331	2727.2125
1956.23103	2694.0125
1959.31675	2685.0125
1962.40046	2660.4125
1965.48217	2637.2125
1968.56188	2613.2125
1971.63959	2608.8125
1974.7153	2577.8125
1977.78901	2550.0125
1980.86073	2526.2125
1983.93046	2525.4125
1986.99819	2504.7125
1990.06394	2472.1125
1993.1277	2469.6125
1996.18947	2444.6125
1999.24925	2429.8125
2002.30706	2422.3125
2005.36288	2405.9125
2008.41672	2394.3125
2011.46859	2378.9125
2014.51848	2378.5125
2017.56639	2358.5125
2020.61233	2360.5125
2023.6563	2346.4125
2026.6983	2335.1125
2029.73833	2327.4125
2032.7764	2334.9125
2035.8125	2304.2125
2038.84664	2308.1125
2041.87881	2302.5125
2044.90903	2300.6125
2047.93729	2303.2125
2050.96359	2290.5125
2053.98794	2297.3125
2057.01034	2301.6125
2060.03078	2305.5125
2063.04927	2314.6125
2066.06582	2316.6125
2069.08042	2305.0125
2072.09307	2316.0125
2075.10378	2327.5125
2078.11255	2340.9125
2081.11938	2329.5125
2084.12426	2354.5125
2087.12722	2356.3125
2090.12824	2365.5125
2093.12732	2377.4125
2096.12447	2378.1125
2099.11969	2398.5125
2102.11299	2403.3125
2105.10435	2384.7125
2108.09379	2395.1125
2111.08131	2401.4125
2114.0669	2391.9125
2117.05057	2399.1125
2120.03233	2399.9125
2123.01216	2380.2125
2125.99008	2395.8125
2128.96609	2390.5125
2131.94018	2376.0125
2134.91236	2376.4125
2137.88263	2373.7125
2140.851	2364.1125
2143.81746	2359.0125
2146.78201	2352.0125
2149.74466	2334.2125
2152.7054	2331.5125
2155.66425	2332.9125
2158.6212	2310.8125
2161.57625	2319.4125
2164.52941	2303.4125
2167.48067	2308.5125
2170.43004	2304.8125
2173.37752	2289.1125
2176.32311	2275.5125
2179.26681	2298.6125
2182.20863	2291.5125
2185.14856	2291.5125
2188.08661	2290.0125
2191.02278	2289.2125
2193.95707	2282.9125
2196.88948	2285.4125
2199.82001	2284.9125
2202.74867	2282.3125
2205.67545	2271.1125
2208.60037	2264.7125
2211.52341	2266.3125
2214.44458	2270.0125
2217.36388	2268.0125
2220.28132	2248.2125
2223.1969	2238.1125
2226.11061	2237.0125
2229.02246	2234.4125
2231.93245	2243.7125
2234.84058	2235.3125
2237.74686	2232.9125
2240.65128	2229.3125
2243.55385	2227.0125
2246.45456	2227.0125
2249.35343	2226.9125
2252.25044	2223.0125
2255.14561	2212.7125
2258.03893	2213.7125
2260.93041	2210.1125
2263.82004	2204.9125
2266.70783	2194.5125
2269.59378	2182.5125
2272.4779	2185.2125
2275.36017	2177.7125
2278.24061	2175.6125
2281.11922	2174.1125
2283.996	2169.9125
2286.87094	2172.5125
2289.74405	2161.5125
2292.61534	2158.1125
2295.4848	2161.7125
2298.35243	2165.7125
2301.21824	2143.4125
2304.08223	2149.0125
2306.94439	2154.4125
2309.80474	2149.2125
2312.66327	2155.4125
2315.51999	2144.9125
2318.37489	2147.9125
2321.22797	2145.6125
2324.07925	2124.3125
2326.92871	2130.4125
2329.77637	2138.8125
2332.62222	2138.1125
2335.46626	2130.9125
2338.3085	2129.3125
2341.14893	2115.0125
2343.98756	2125.7125
2346.8244	2113.8125
2349.65943	2115.8125
2352.49267	2118.0125
2355.32411	2111.8125
2358.15376	2113.1125
2360.98161	2112.9125
2363.80768	2099.4125
2366.63195	2105.9125
2369.45444	2114.9125
2372.27514	2106.7125
2375.09405	2101.9125
2377.91118	2100.9125
2380.72652	2098.1125
2383.54009	2103.8125
2386.35187	2094.7125
2389.16188	2085.2125
2391.97011	2087.6125
2394.77657	2076.9125
2397.58125	2088.5125
2400.38416	2080.2125
2403.18529	2069.9125
2405.98466	2070.2125
2408.78226	2072.3125
2411.57809	2069.4125
2414.37216	2070.5125
2417.16446	2057.0125
2419.955	2068.8125
2422.74378	2066.6125
2425.5308	2058.6125
2428.31606	2051.3125
2431.09956	2058.3125
2433.88131	2059.7125
2436.6613	2052.0125
2439.43954	2051.9125
2442.21603	2042.0125
2444.99077	2035.5125
2447.76377	2044.7125
2450.53501	2036.3125
2453.30451	2029.7125
2456.07226	2034.4125
2458.83827	2032.2125
2461.60254	2028.6125
2464.36507	2031.6125
2467.12586	2036.0125
2469.88492	2027.5125
2472.64224	2014.6125
2475.39782	2027.3125
2478.15167	2024.9125
2480.90379	2024.4125
2483.65417	2021.5125
2486.40283	2025.3125
2489.14976	2021.5125
2491.89497	2020.9125
2494.63845	2016.2125
2497.3802	2017.5125
2500.12024	2015.5125
2502.85855	2009.4125
2505.59514	2000.1125
2508.33002	2012.1125
2511.06318	2002.4125
2513.79462	2010.1125
2516.52435	2000.0125
2519.25237	1986.6125
2521.97867	1989.7125
2524.70327	1984.5125
2527.42616	2002.7125
2530.14734	1985.4125
2532.86681	1979.6125
2535.58458	1990.3125
2538.30065	1982.6125
2541.01501	1968.8125
2543.72768	1970.8125
2546.43864	1977.4125
2549.14791	1969.5125
2551.85548	1963.0125
2554.56136	1953.8125
2557.26554	1948.2125
2559.96803	1959.2125
2562.66883	1955.9125
2565.36794	1952.0125
2568.06536	1936.5125
2570.7611	1931.6125
2573.45514	1932.9125
2576.14751	1939.5125
2578.83819	1934.6125
2581.52719	1929.6125
2584.21451	1937.9125
2586.90015	1931.5125
2589.58411	1925.8125
2592.2664	1927.6125
2594.94701	1911.3125
2597.62594	1914.9125
2600.30321	1907.8125
2602.9788	1904.3125
2605.65273	1909.3125
2608.32498	1906.0125
2610.99557	1905.9125
2613.66449	1901.3125
2616.33175	1899.7125
2618.99734	1896.5125
2621.66128	1905.6125
2624.32355	1891.5125
2626.98416	1879.9125
2629.64311	1884.7125
2632.30041	1889.3125
2634.95605	1894.2125
2637.61004	1871.1125
2640.26238	1880.1125
2642.91306	1881.4125
2645.56209	1879.3125
2648.20948	1882.6125
2650.85521	1887.2125
2653.4993	1877.4125
2656.14175	1890.1125
2658.78255	1876.2125
2661.42171	1880.1125
2664.05923	1878.8125
2666.6951	1882.2125
2669.32934	1888.3125
2671.96194	1879.7125
2674.59291	1877.7125
2677.22224	1882.3125
2679.84993	1894.9125
2682.476	1883.2125
2685.10043	1869.9125
2687.72324	1868.9125
2690.34441	1876.4125
2692.96396	1876.2125
2695.58188	1891.3125
2698.19818	1875.6125
2700.81285	1880.7125
2703.4259	1875.3125
2706.03733	1879.4125
2708.64714	1887.2125
2711.25533	1884.2125
2713.86191	1885.6125
2716.46687	1884.1125
2719.07021	1889.9125
2721.67194	1886.1125
2724.27206	1896.4125
2726.87057	1889.7125
2729.46747	1882.7125
2732.06276	1889.7125
2734.65644	1885.3125
2737.24852	1877.9125
2739.83899	1886.4125
2742.42786	1877.8125
2745.01513	1867.1125
2747.60079	1880.9125
2750.18486	1872.0125
2752.76733	1874.3125
2755.3482	1876.4125
2757.92747	1868.5125
2760.50515	1868.1125
2763.08123	1867.4125
2765.65573	1859.4125
2768.22863	1851.3125
2770.79994	1858.1125
2773.36967	1858.9125
2775.9378	1857.1125
2778.50435	1855.1125
2781.06932	1854.6125
2783.6327	1856.9125
2786.1945	1855.2125
2788.75471	1861.7125
2791.31335	1850.5125
2793.87041	1861.2125
2796.42589	1859.6125
2798.97979	1857.8125
2801.53212	1859.1125
2804.08288	1851.9125
2806.63206	1858.5125
2809.17967	1852.9125
2811.72571	1850.0125
2814.27018	1846.5125
2816.81308	1841.7125
2819.35442	1844.7125
2821.89419	1845.4125
2824.43239	1836.9125
2826.96904	1835.6125
2829.50412	1846.9125
2832.03763	1840.3125
2834.56959	1836.3125
2837.1	1841.9125
2839.62884	1847.3125
2842.15613	1845.2125
2844.68186	1846.3125
2847.20604	1855.5125
2849.72867	1849.9125
2852.24974	1857.1125
2854.76927	1848.3125
2857.28724	1853.2125
2859.80367	1852.0125
2862.31855	1854.4125
2864.83189	1841.1125
2867.34368	1851.4125
2869.85393	1863.8125
2872.36264	1871.1125
2874.8698	1849.5125
2877.37543	1865.9125
2879.87952	1876.8125
2882.38207	1886.6125
2884.88308	1887.7125
2887.38256	1892.9125
2889.88051	1917.6125
2892.37692	1921.9125
2894.8718	1927.7125
2897.36515	1943.4125
2899.85698	1963.9125
2902.34727	1983.8125
2904.83604	1981.0125
2907.32328	2002.1125
2909.809	2005.9125
2912.29319	2028.1125
2914.77587	2030.9125
2917.25702	2050.8125
2919.73665	2060.2125
2922.21476	2073.3125
2924.69136	2084.9125
2927.16644	2102.9125
2929.64	2099.8125
2932.11205	2114.6125
2934.58258	2119.4125
2937.05161	2133.6125
2939.51912	2144.5125
2941.98513	2155.4125
2944.44962	2167.4125
2946.91261	2164.4125
2949.37409	2188.6125
2951.83407	2193.2125
2954.29254	2190.7125
2956.74951	2176.8125
2959.20498	2156.7125
2961.65895	2135.6125
2964.11142	2122.5125
2966.56239	2096.2125
2969.01186	2064.2125
2971.45984	2043.0125
2973.90632	2029.5125
2976.35131	2018.5125
2978.7948	1989.0125
2981.23681	1994.2125
2983.67732	1981.0125
2986.11635	1965.2125
2988.55388	1961.8125
2990.98993	1947.7125
2993.4245	1943.0125
2995.85758	1946.9125
2998.28917	1946.3125
3000.71928	1955.1125
3003.14791	1946.0125
3005.57506	1940.3125
3008.00073	1943.4125
3010.42493	1943.6125
3012.84764	1943.8125
3015.26888	1942.9125
3017.68865	1937.5125
3020.10694	1938.4125
3022.52376	1933.4125
3024.9391	1931.1125
3027.35298	1928.1125
3029.76539	1921.2125
3032.17632	1911.0125
3034.5858	1908.1125
3036.9938	1910.0125
3039.40034	1906.6125
3041.80542	1907.2125
3044.20903	1894.6125
3046.61118	1905.8125
3049.01187	1891.4125
3051.4111	1896.1125
3053.80888	1884.0125
3056.20519	1881.2125
3058.60005	1877.6125
3060.99345	1892.0125
3063.3854	1881.1125
3065.7759	1877.0125
3068.16494	1881.5125
3070.55254	1868.1125
3072.93868	1870.9125
3075.32338	1870.2125
3077.70662	1882.1125
3080.08842	1872.6125
3082.46878	1883.5125
3084.84769	1892.5125
3087.22515	1895.9125
3089.60118	1902.6125
3091.97576	1915.0125
3094.3489	1910.8125
3096.72061	1925.2125
3099.09087	1935.8125
3101.4597	1938.2125
3103.82709	1945.7125
3106.19305	1953.6125
3108.55757	1963.4125
3110.92066	1966.3125
3113.28232	1979.9125
3115.64255	1977.6125
3118.00134	1984.5125
3120.35871	1989.9125
3122.71466	1991.4125
3125.06917	2002.3125
3127.42226	2006.9125
3129.77393	2014.6125
