Data from AgNPs_UA_50uM_CRN_500uM_AS_RamanShift__31__15-41-41-579.txt Node

Date: Wed Aug 17 15:41:41 BST 2022
User: TCL
Spectrometer: QEP01345
Trigger mode: 4
Integration Time (sec): 7.000000E0
Scans to average: 10
Electric dark correction enabled: true
Nonlinearity correction enabled: false
Boxcar width: 0
XAxis mode: Raman Shifts
Number of Pixels in Spectrum: 1044
>>>>>Begin Spectral Data<<<<<
46.04893	-0.1875
50.45542	-0.5875
54.85868	-1.8875
59.25871	-0.5875
63.6555	29.7125
68.04907	29.6125
72.43941	32.0125
76.82654	34.8125
81.21044	36.6125
85.59113	35.3125
89.96862	34.6125
94.34289	40.9125
98.71396	42.3125
103.08183	40.6125
107.4465	43.3125
111.80798	41.7125
116.16626	42.8125
120.52136	42.9125
124.87327	41.9125
129.222	46.4125
133.56755	44.7125
137.90993	48.5125
142.24913	54.2125
146.58517	56.9125
150.91804	60.8125
155.24774	72.8125
159.57429	75.8125
163.89768	100.2125
168.21792	124.6125
172.53501	167.8125
176.84895	225.1125
181.15975	311.3125
185.46741	430.3125
189.77193	599.3125
194.07331	808.0125
198.37157	1038.7125
202.6667	1299.4125
206.9587	1554.5125
211.24758	1838.0125
215.53334	2155.3125
219.81599	2490.7125
224.09553	2896.0125
228.37195	3329.1125
232.64527	3801.1125
236.91549	4197.5125
241.18261	4495.0125
245.44663	4702.4125
249.70755	4852.4125
253.96539	4992.2125
258.22014	5080.7125
262.4718	5131.2125
266.72039	5108.2125
270.96589	4960.7125
275.20832	4784.7125
279.44768	4560.0125
283.68397	4433.6125
287.91719	4324.9125
292.14735	4401.4125
296.37445	4625.8125
300.59849	5069.4125
304.81948	5611.0125
309.03742	6080.9125
313.25231	6211.8125
317.46415	5793.3125
321.67296	5077.8125
325.87872	4463.8125
330.08145	4205.7125
334.28114	4247.9125
338.47781	4428.2125
342.67145	4656.3125
346.86207	5027.9125
351.04966	5625.8125
355.23424	6264.1125
359.4158	6662.8125
363.59435	6711.0125
367.76989	6579.2125
371.94243	6338.7125
376.11196	6086.5125
380.27849	5900.4125
384.44203	5700.5125
388.60257	5524.7125
392.76012	5419.9125
396.91468	5458.9125
401.06626	5616.4125
405.21485	5695.8125
409.36047	5412.4125
413.50311	4905.6125
417.64277	4391.9125
421.77947	4134.1125
425.9132	4008.5125
430.04396	3979.8125
434.17176	3992.2125
438.2966	4096.8125
442.41849	4242.3125
446.53742	4388.3125
450.6534	4492.5125
454.76644	4490.1125
458.87653	4420.8125
462.98368	4318.0125
467.08789	4217.4125
471.18916	4098.4125
475.2875	3984.3125
479.38291	3878.5125
483.4754	3818.5125
487.56496	3767.5125
491.6516	3739.9125
495.73531	3749.9125
499.81612	3779.0125
503.89401	3857.6125
507.96899	3968.5125
512.04106	4118.7125
516.11023	4270.4125
520.1765	4389.8125
524.23987	4420.5125
528.30034	4361.6125
532.35792	4277.5125
536.41261	4175.8125
540.46441	4049.5125
544.51333	3939.9125
548.55936	3974.0125
552.60252	4089.2125
556.64279	4244.8125
560.6802	4386.4125
564.71473	4723.6125
568.7464	5195.8125
572.7752	5201.4125
576.80114	4606.6125
580.82422	4091.9125
584.84444	3859.4125
588.86181	3793.6125
592.87633	3816.8125
596.888	3970.5125
600.89682	4366.8125
604.9028	5631.5125
608.90594	8791.0125
612.90624	12278.1125
616.90371	10866.6125
620.89834	6527.7125
624.89015	4688.1125
628.87913	4454.2125
632.86528	4723.8125
636.84862	4871.2125
640.82913	4629.6125
644.80683	4180.3125
648.78172	3940.3125
652.75379	3979.3125
656.72306	4323.9125
660.68952	4609.9125
664.65319	4389.5125
668.61405	3958.2125
672.57211	3782.9125
676.52738	3822.3125
680.47986	3821.4125
684.42955	3742.0125
688.37646	3708.7125
692.32058	3711.2125
696.26192	3768.8125
700.20048	3838.7125
704.13626	3887.1125
708.06928	3830.1125
711.99952	3795.4125
715.927	3816.4125
719.85171	3891.0125
723.77365	3940.9125
727.69284	3922.2125
731.60928	3869.2125
735.52295	3852.2125
739.43388	3845.2125
743.34206	3878.9125
747.24749	3869.9125
751.15017	3894.4125
755.05012	4056.2125
758.94733	4581.0125
762.8418	5799.1125
766.73354	7412.8125
770.62254	8524.3125
774.50882	8962.8125
778.39237	8557.1125
782.27321	7059.9125
786.15132	5423.4125
790.02671	4520.8125
793.89938	4119.2125
797.76935	3990.5125
801.6366	3950.2125
805.50115	3936.7125
809.36299	3931.5125
813.22213	3928.4125
817.07857	3913.2125
820.93231	3911.3125
824.78336	3938.9125
828.63172	3982.1125
832.47738	4008.8125
836.32036	3948.5125
840.16066	3866.8125
843.99827	3814.7125
847.8332	3800.7125
851.66546	3808.0125
855.49504	3825.9125
859.32195	3813.2125
863.1462	3825.5125
866.96777	3813.5125
870.78668	3812.8125
874.60293	3860.9125
878.41652	3932.4125
882.22745	3993.1125
886.03573	4058.9125
889.84136	4068.7125
893.64433	4042.3125
897.44466	4053.5125
901.24235	4040.4125
905.0374	3980.4125
908.8298	3914.7125
912.61957	3860.8125
916.40671	3841.6125
920.19121	3851.8125
923.97308	3898.9125
927.75233	4069.0125
931.52895	4227.6125
935.30295	4141.2125
939.07433	3910.3125
942.84309	3771.6125
946.60924	3694.4125
950.37278	3671.5125
954.13371	3665.3125
957.89203	3663.8125
961.64774	3678.5125
965.40086	3660.3125
969.15137	3664.1125
972.89929	3671.8125
976.64461	3636.5125
980.38733	3657.1125
984.12747	3662.8125
987.86502	3694.3125
991.59999	3714.7125
995.33237	3757.4125
999.06217	3808.2125
1002.78939	3908.3125
1006.51404	3998.1125
1010.23611	4059.9125
1013.95561	4072.6125
1017.67255	4063.2125
1021.38692	4004.0125
1025.09872	3941.8125
1028.80796	3906.0125
1032.51465	3911.4125
1036.21877	3929.9125
1039.92035	4006.9125
1043.61937	4043.1125
1047.31584	4097.5125
1051.00976	4093.2125
1054.70114	4080.0125
1058.38998	4079.0125
1062.07627	4083.1125
1065.76003	4093.1125
1069.44126	4117.1125
1073.11995	4184.0125
1076.79611	4329.7125
1080.46974	4562.5125
1084.14085	4883.7125
1087.80943	5054.3125
1091.47549	5068.9125
1095.13903	4872.3125
1098.80005	4618.1125
1102.45857	4487.1125
1106.11456	4490.3125
1109.76805	4618.6125
1113.41903	4870.3125
1117.06751	5278.9125
1120.71348	5883.8125
1124.35696	6587.1125
1127.99793	6889.8125
1131.63641	6421.2125
1135.2724	5730.4125
1138.90589	5261.3125
1142.5369	4968.1125
1146.16542	4754.3125
1149.79145	4622.2125
1153.415	4587.3125
1157.03607	4599.7125
1160.65467	4723.0125
1164.27079	4918.9125
1167.88443	5224.0125
1171.49561	5763.5125
1175.10432	6655.3125
1178.71056	7849.4125
1182.31434	8676.9125
1185.91565	8742.0125
1189.51451	8201.4125
1193.11091	7477.7125
1196.70485	6876.9125
1200.29634	6496.0125
1203.88538	6118.2125
1207.47197	5630.4125
1211.05612	5172.8125
1214.63782	4873.3125
1218.21708	4734.3125
1221.79391	4664.9125
1225.36829	4666.2125
1228.94024	4646.2125
1232.50976	4649.1125
1236.07685	4686.5125
1239.6415	4725.5125
1243.20374	4789.5125
1246.76355	4864.4125
1250.32093	4946.3125
1253.8759	5037.5125
1257.42845	5221.5125
1260.97859	5469.4125
1264.52631	5727.2125
1268.07163	5917.1125
1271.61453	5999.6125
1275.15503	6004.0125
1278.69312	5952.0125
1282.22882	6050.0125
1285.76211	6320.5125
1289.29301	6625.8125
1292.82151	6872.2125
1296.34761	7142.6125
1299.87133	7739.1125
1303.39266	8922.1125
1306.9116	10687.3125
1310.42815	12331.3125
1313.94233	12487.5125
1317.45412	11104.3125
1320.96354	9300.0125
1324.47058	7755.8125
1327.97525	6739.1125
1331.47754	6198.9125
1334.97747	6080.0125
1338.47502	6281.9125
1341.97022	6851.0125
1345.46305	7832.2125
1348.95352	8964.5125
1352.44163	10354.0125
1355.92738	12461.1125
1359.41078	15498.4125
1362.89183	17256.3125
1366.37053	15239.6125
1369.84688	11682.8125
1373.32088	9157.4125
1376.79254	7794.4125
1380.26186	6966.1125
1383.72883	6331.5125
1387.19347	5807.6125
1390.65578	5413.6125
1394.11575	5124.3125
1397.57339	4986.8125
1401.0287	4908.2125
1404.48168	4872.9125
1407.93234	4833.4125
1411.38068	4910.9125
1414.82669	5012.8125
1418.27039	5085.4125
1421.71177	5068.7125
1425.15083	5050.3125
1428.58758	5145.8125
1432.02203	5267.5125
1435.45416	5259.2125
1438.88399	5169.5125
1442.31151	5136.0125
1445.73673	5145.2125
1449.15965	5164.7125
1452.58027	5124.5125
1455.9986	5065.7125
1459.41463	5044.6125
1462.82837	5154.1125
1466.23982	5296.8125
1469.64898	5391.7125
1473.05586	5399.9125
1476.46045	5403.1125
1479.86276	5505.1125
1483.26279	5657.5125
1486.66054	5978.1125
1490.05602	6408.3125
1493.44922	7160.4125
1496.84016	8288.0125
1500.22882	10112.4125
1503.61521	12647.6125
1506.99934	15378.0125
1510.38121	17341.2125
1513.76081	17256.1125
1517.13816	15015.6125
1520.51324	11958.3125
1523.88607	9450.8125
1527.25665	7900.8125
1530.62498	7058.0125
1533.99105	6565.6125
1537.35488	6262.7125
1540.71647	6126.8125
1544.07581	6138.9125
1547.4329	6236.5125
1550.78776	6375.8125
1554.14038	6527.0125
1557.49077	6655.8125
1560.83892	6902.3125
1564.18484	7367.4125
1567.52853	7862.5125
1570.86999	8169.5125
1574.20922	8261.6125
1577.54624	8035.6125
1580.88103	7305.3125
1584.2136	6483.8125
1587.54395	5973.5125
1590.87208	5852.4125
1594.19801	6088.6125
1597.52172	6417.9125
1600.84321	6532.1125
1604.16251	6288.1125
1607.47959	6026.5125
1610.79447	5767.5125
1614.10715	5491.4125
1617.41763	5277.4125
1620.7259	5160.1125
1624.03199	5160.8125
1627.33587	5222.7125
1630.63757	5371.9125
1633.93707	5654.5125
1637.23439	6153.1125
1640.52951	7051.6125
1643.82246	8504.2125
1647.11321	10191.6125
1650.40179	11143.7125
1653.68819	10554.0125
1656.97241	8863.0125
1660.25446	7226.3125
1663.53433	6140.5125
1666.81203	5547.7125
1670.08756	5195.4125
1673.36092	4999.4125
1676.63211	4846.1125
1679.90115	4786.6125
1683.16801	4733.7125
1686.43272	4692.1125
1689.69527	4662.0125
1692.95567	4651.4125
1696.2139	4656.8125
1699.46999	4673.5125
1702.72392	4662.0125
1705.97571	4626.7125
1709.22535	4625.7125
1712.47284	4606.3125
1715.71819	4613.0125
1718.96139	4591.7125
1722.20246	4570.1125
1725.44139	4561.0125
1728.67818	4534.4125
1731.91284	4508.6125
1735.14537	4462.9125
1738.37576	4472.0125
1741.60403	4467.0125
1744.83017	4451.4125
1748.05418	4462.1125
1751.27607	4452.7125
1754.49584	4473.1125
1757.71349	4477.9125
1760.92903	4468.2125
1764.14244	4445.9125
1767.35375	4424.8125
1770.56294	4411.1125
1773.77002	4410.4125
1776.97499	4380.0125
1780.17785	4359.6125
1783.37861	4343.7125
1786.57727	4338.0125
1789.77382	4339.9125
1792.96828	4342.8125
1796.16064	4338.9125
1799.3509	4327.7125
1802.53907	4328.0125
1805.72514	4329.1125
1808.90913	4304.1125
1812.09102	4293.4125
1815.27083	4284.1125
1818.44856	4283.2125
1821.6242	4299.3125
1824.79776	4290.2125
1827.96924	4295.2125
1831.13864	4274.1125
1834.30597	4283.1125
1837.47122	4266.9125
1840.6344	4274.2125
1843.7955	4269.3125
1846.95454	4265.6125
1850.11151	4263.0125
1853.26642	4251.7125
1856.41926	4264.7125
1859.57004	4268.4125
1862.71876	4264.4125
1865.86542	4301.3125
1869.01003	4292.7125
1872.15258	4305.1125
1875.29308	4315.7125
1878.43152	4312.9125
1881.56792	4298.8125
1884.70227	4319.7125
1887.83457	4317.3125
1890.96482	4307.5125
1894.09304	4308.1125
1897.21921	4300.0125
1900.34335	4312.6125
1903.46544	4328.5125
1906.58551	4332.3125
1909.70353	4328.7125
1912.81953	4333.0125
1915.93349	4324.0125
1919.04543	4317.9125
1922.15534	4325.1125
1925.26322	4324.3125
1928.36908	4312.3125
1931.47292	4324.6125
1934.57473	4316.9125
1937.67453	4302.9125
1940.77232	4291.4125
1943.86808	4271.7125
1946.96184	4263.6125
1950.05358	4258.9125
1953.14331	4253.2125
1956.23103	4257.9125
1959.31675	4252.7125
1962.40046	4253.1125
1965.48217	4255.7125
1968.56188	4272.0125
1971.63959	4256.2125
1974.7153	4217.2125
1977.78901	4224.8125
1980.86073	4214.6125
1983.93046	4203.4125
1986.99819	4203.7125
1990.06394	4191.4125
1993.1277	4190.6125
1996.18947	4185.8125
1999.24925	4170.1125
2002.30706	4160.8125
2005.36288	4153.3125
2008.41672	4152.1125
2011.46859	4150.8125
2014.51848	4143.4125
2017.56639	4140.9125
2020.61233	4139.2125
2023.6563	4121.3125
2026.6983	4122.6125
2029.73833	4111.3125
2032.7764	4098.9125
2035.8125	4109.7125
2038.84664	4097.9125
2041.87881	4093.9125
2044.90903	4098.9125
2047.93729	4102.1125
2050.96359	4107.8125
2053.98794	4081.3125
2057.01034	4101.5125
2060.03078	4104.5125
2063.04927	4104.5125
2066.06582	4112.2125
2069.08042	4115.0125
2072.09307	4118.8125
2075.10378	4107.7125
2078.11255	4120.5125
2081.11938	4125.0125
2084.12426	4133.0125
2087.12722	4153.2125
2090.12824	4150.5125
2093.12732	4185.3125
2096.12447	4181.9125
2099.11969	4176.7125
2102.11299	4180.0125
2105.10435	4187.9125
2108.09379	4182.1125
2111.08131	4196.8125
2114.0669	4205.1125
2117.05057	4235.7125
2120.03233	4248.9125
2123.01216	4270.4125
2125.99008	4280.8125
2128.96609	4290.1125
2131.94018	4283.9125
2134.91236	4291.4125
2137.88263	4307.2125
2140.851	4328.8125
2143.81746	4327.9125
2146.78201	4344.2125
2149.74466	4331.1125
2152.7054	4327.2125
2155.66425	4314.5125
2158.6212	4313.7125
2161.57625	4331.3125
2164.52941	4335.7125
2167.48067	4337.9125
2170.43004	4335.2125
2173.37752	4361.1125
2176.32311	4356.2125
2179.26681	4377.5125
2182.20863	4400.1125
2185.14856	4381.1125
2188.08661	4390.0125
2191.02278	4398.3125
2193.95707	4388.9125
2196.88948	4407.6125
2199.82001	4391.6125
2202.74867	4414.2125
2205.67545	4411.8125
2208.60037	4412.7125
2211.52341	4420.2125
2214.44458	4400.7125
2217.36388	4403.1125
2220.28132	4424.9125
2223.1969	4387.9125
2226.11061	4359.7125
2229.02246	4367.1125
2231.93245	4363.4125
2234.84058	4393.0125
2237.74686	4384.7125
2240.65128	4406.7125
2243.55385	4422.1125
2246.45456	4433.3125
2249.35343	4415.8125
2252.25044	4417.6125
2255.14561	4447.2125
2258.03893	4442.6125
2260.93041	4462.6125
2263.82004	4445.4125
2266.70783	4435.6125
2269.59378	4442.2125
2272.4779	4430.2125
2275.36017	4414.2125
2278.24061	4436.0125
2281.11922	4428.2125
2283.996	4423.5125
2286.87094	4414.7125
2289.74405	4409.8125
2292.61534	4399.5125
2295.4848	4403.0125
2298.35243	4407.6125
2301.21824	4401.3125
2304.08223	4425.0125
2306.94439	4448.2125
2309.80474	4437.2125
2312.66327	4433.6125
2315.51999	4425.8125
2318.37489	4421.9125
2321.22797	4420.9125
2324.07925	4413.3125
2326.92871	4423.7125
2329.77637	4411.0125
2332.62222	4407.4125
2335.46626	4413.4125
2338.3085	4412.0125
2341.14893	4417.3125
2343.98756	4428.3125
2346.8244	4423.5125
2349.65943	4425.6125
2352.49267	4431.2125
2355.32411	4453.6125
2358.15376	4467.5125
2360.98161	4482.5125
2363.80768	4493.6125
2366.63195	4494.6125
2369.45444	4494.4125
2372.27514	4499.9125
2375.09405	4490.9125
2377.91118	4499.3125
2380.72652	4493.2125
2383.54009	4501.5125
2386.35187	4519.7125
2389.16188	4487.5125
2391.97011	4457.3125
2394.77657	4454.7125
2397.58125	4464.8125
2400.38416	4467.1125
2403.18529	4450.9125
2405.98466	4440.4125
2408.78226	4424.3125
2411.57809	4424.2125
2414.37216	4434.5125
2417.16446	4450.0125
2419.955	4457.1125
2422.74378	4460.3125
2425.5308	4487.1125
2428.31606	4467.3125
2431.09956	4475.9125
2433.88131	4471.9125
2436.6613	4494.2125
2439.43954	4479.6125
2442.21603	4491.8125
2444.99077	4491.1125
2447.76377	4461.9125
2450.53501	4470.7125
2453.30451	4465.6125
2456.07226	4473.7125
2458.83827	4487.8125
2461.60254	4506.3125
2464.36507	4514.2125
2467.12586	4491.5125
2469.88492	4491.2125
2472.64224	4499.0125
2475.39782	4517.4125
2478.15167	4538.8125
2480.90379	4520.1125
2483.65417	4531.2125
2486.40283	4552.5125
2489.14976	4567.6125
2491.89497	4569.7125
2494.63845	4567.8125
2497.3802	4594.2125
2500.12024	4567.6125
2502.85855	4571.7125
2505.59514	4541.1125
2508.33002	4536.1125
2511.06318	4532.8125
2513.79462	4544.4125
2516.52435	4499.4125
2519.25237	4503.4125
2521.97867	4504.1125
2524.70327	4498.9125
2527.42616	4483.6125
2530.14734	4491.2125
2532.86681	4494.3125
2535.58458	4500.8125
2538.30065	4521.6125
2541.01501	4513.2125
2543.72768	4515.4125
2546.43864	4536.0125
2549.14791	4517.5125
2551.85548	4503.8125
2554.56136	4495.0125
2557.26554	4505.9125
2559.96803	4520.8125
2562.66883	4523.7125
2565.36794	4520.1125
2568.06536	4500.7125
2570.7611	4480.8125
2573.45514	4482.7125
2576.14751	4475.8125
2578.83819	4477.8125
2581.52719	4464.9125
2584.21451	4483.9125
2586.90015	4492.6125
2589.58411	4489.6125
2592.2664	4485.8125
2594.94701	4492.6125
2597.62594	4502.0125
2600.30321	4489.8125
2602.9788	4488.5125
2605.65273	4476.9125
2608.32498	4480.2125
2610.99557	4490.4125
2613.66449	4482.3125
2616.33175	4496.8125
2618.99734	4479.2125
2621.66128	4458.2125
2624.32355	4463.3125
2626.98416	4467.0125
2629.64311	4459.9125
2632.30041	4452.1125
2634.95605	4442.3125
2637.61004	4456.4125
2640.26238	4438.9125
2642.91306	4451.2125
2645.56209	4434.8125
2648.20948	4436.0125
2650.85521	4430.2125
2653.4993	4463.0125
2656.14175	4464.5125
2658.78255	4497.3125
2661.42171	4489.4125
2664.05923	4487.3125
2666.6951	4513.1125
2669.32934	4520.6125
2671.96194	4523.6125
2674.59291	4506.8125
2677.22224	4541.9125
2679.84993	4539.6125
2682.476	4546.0125
2685.10043	4541.1125
2687.72324	4541.8125
2690.34441	4533.2125
2692.96396	4536.2125
2695.58188	4560.8125
2698.19818	4537.5125
2700.81285	4551.4125
2703.4259	4558.6125
2706.03733	4602.6125
2708.64714	4569.4125
2711.25533	4559.0125
2713.86191	4572.2125
2716.46687	4584.7125
2719.07021	4587.6125
2721.67194	4605.1125
2724.27206	4612.6125
2726.87057	4614.3125
2729.46747	4612.1125
2732.06276	4622.6125
2734.65644	4593.1125
2737.24852	4598.6125
2739.83899	4607.9125
2742.42786	4594.8125
2745.01513	4591.0125
2747.60079	4589.5125
2750.18486	4591.4125
2752.76733	4585.6125
2755.3482	4564.1125
2757.92747	4574.5125
2760.50515	4580.0125
2763.08123	4564.8125
2765.65573	4581.3125
2768.22863	4575.6125
2770.79994	4569.8125
2773.36967	4585.5125
2775.9378	4577.0125
2778.50435	4573.1125
2781.06932	4555.2125
2783.6327	4565.6125
2786.1945	4569.2125
2788.75471	4564.5125
2791.31335	4574.1125
2793.87041	4588.0125
2796.42589	4587.7125
2798.97979	4582.9125
2801.53212	4568.8125
2804.08288	4569.9125
2806.63206	4587.1125
2809.17967	4575.5125
2811.72571	4569.9125
2814.27018	4597.9125
2816.81308	4580.7125
2819.35442	4580.4125
2821.89419	4569.8125
2824.43239	4581.9125
2826.96904	4589.4125
2829.50412	4589.4125
2832.03763	4584.0125
2834.56959	4577.5125
2837.1	4573.2125
2839.62884	4582.2125
2842.15613	4583.8125
2844.68186	4604.6125
2847.20604	4592.3125
2849.72867	4596.6125
2852.24974	4610.3125
2854.76927	4631.7125
2857.28724	4630.6125
2859.80367	4641.9125
2862.31855	4632.9125
2864.83189	4649.9125
2867.34368	4647.4125
2869.85393	4685.0125
2872.36264	4664.5125
2874.8698	4672.4125
2877.37543	4665.2125
2879.87952	4674.4125
2882.38207	4667.3125
2884.88308	4659.7125
2887.38256	4683.5125
2889.88051	4676.4125
2892.37692	4684.0125
2894.8718	4686.0125
2897.36515	4709.5125
2899.85698	4721.8125
2902.34727	4750.8125
2904.83604	4729.7125
2907.32328	4758.7125
2909.809	4747.7125
2912.29319	4733.0125
2914.77587	4773.9125
2917.25702	4754.1125
2919.73665	4748.6125
2922.21476	4751.3125
2924.69136	4760.0125
2927.16644	4738.4125
2929.64	4733.2125
2932.11205	4749.3125
2934.58258	4741.0125
2937.05161	4742.1125
2939.51912	4753.5125
2941.98513	4759.9125
2944.44962	4778.8125
2946.91261	4750.6125
2949.37409	4747.8125
2951.83407	4745.0125
2954.29254	4760.5125
2956.74951	4755.0125
2959.20498	4742.0125
2961.65895	4729.5125
2964.11142	4739.7125
2966.56239	4712.4125
2969.01186	4740.0125
2971.45984	4726.2125
2973.90632	4726.0125
2976.35131	4726.1125
2978.7948	4696.9125
2981.23681	4692.5125
2983.67732	4704.5125
2986.11635	4722.8125
2988.55388	4713.0125
2990.98993	4701.5125
2993.4245	4684.7125
2995.85758	4688.8125
2998.28917	4656.8125
3000.71928	4665.9125
3003.14791	4673.0125
3005.57506	4677.7125
3008.00073	4640.7125
3010.42493	4625.7125
3012.84764	4661.2125
3015.26888	4654.6125
3017.68865	4626.3125
3020.10694	4644.6125
3022.52376	4634.1125
3024.9391	4647.2125
3027.35298	4630.1125
3029.76539	4631.7125
3032.17632	4641.2125
3034.5858	4631.7125
3036.9938	4625.4125
3039.40034	4622.7125
3041.80542	4635.6125
3044.20903	4635.4125
3046.61118	4651.7125
3049.01187	4630.8125
3051.4111	4631.0125
3053.80888	4633.0125
3056.20519	4635.3125
3058.60005	4642.9125
3060.99345	4644.4125
3063.3854	4627.5125
3065.7759	4623.0125
3068.16494	4611.1125
3070.55254	4587.4125
3072.93868	4589.4125
3075.32338	4586.4125
3077.70662	4555.8125
3080.08842	4557.8125
3082.46878	4576.3125
3084.84769	4577.3125
3087.22515	4600.8125
3089.60118	4587.6125
3091.97576	4588.1125
3094.3489	4600.0125
3096.72061	4612.5125
3099.09087	4640.0125
3101.4597	4624.1125
3103.82709	4662.6125
3106.19305	4646.1125
3108.55757	4669.0125
3110.92066	4669.3125
3113.28232	4672.5125
3115.64255	4687.1125
3118.00134	4673.2125
3120.35871	4672.3125
3122.71466	4656.9125
3125.06917	4662.6125
