Data from AgNPs_UA_50uM_CRN_500uM_AS_RamanShift__20__15-28-51-565.txt Node

Date: Wed Aug 17 15:28:51 BST 2022
User: TCL
Spectrometer: QEP01345
Trigger mode: 4
Integration Time (sec): 7.000000E0
Scans to average: 10
Electric dark correction enabled: true
Nonlinearity correction enabled: false
Boxcar width: 0
XAxis mode: Raman Shifts
Number of Pixels in Spectrum: 1044
>>>>>Begin Spectral Data<<<<<
46.04893	-1.25
50.45542	-0.05
54.85868	-1.55
59.25871	0.05
63.6555	25.05
68.04907	28.05
72.43941	30.15
76.82654	31.55
81.21044	29.25
85.59113	34.25
89.96862	32.35
94.34289	41.25
98.71396	41.95
103.08183	38.25
107.4465	40.95
111.80798	41.65
116.16626	40.85
120.52136	40.25
124.87327	38.05
129.222	42.15
133.56755	38.85
137.90993	42.55
142.24913	44.35
146.58517	49.05
150.91804	49.65
155.24774	54.15
159.57429	61.25
163.89768	71.65
168.21792	91.65
172.53501	119.45
176.84895	158.65
181.15975	211.35
185.46741	291.25
189.77193	401.05
194.07331	532.15
198.37157	679.05
202.6667	839.65
206.9587	1000.55
211.24758	1170.55
215.53334	1339.65
219.81599	1537.15
224.09553	1743.75
228.37195	1993.95
232.64527	2237.35
236.91549	2483.65
241.18261	2695.45
245.44663	2863.85
249.70755	2995.65
253.96539	3080.55
258.22014	3172.75
262.4718	3234.05
266.72039	3288.35
270.96589	3279.55
275.20832	3232.65
279.44768	3161.95
283.68397	3064.45
287.91719	2998.85
292.14735	2999.15
296.37445	3056.25
300.59849	3174.95
304.81948	3345.95
309.03742	3424.25
313.25231	3425.25
317.46415	3289.65
321.67296	3052.65
325.87872	2877.15
330.08145	2809.75
334.28114	2809.25
338.47781	2874.55
342.67145	2944.05
346.86207	3058.65
351.04966	3226.05
355.23424	3449.65
359.4158	3615.65
363.59435	3711.55
367.76989	3750.85
371.94243	3762.75
376.11196	3740.55
380.27849	3740.05
384.44203	3687.05
388.60257	3631.45
392.76012	3606.05
396.91468	3618.75
401.06626	3672.85
405.21485	3690.15
409.36047	3606.75
413.50311	3435.85
417.64277	3259.55
421.77947	3172.55
425.9132	3143.05
430.04396	3138.45
434.17176	3149.15
438.2966	3202.05
442.41849	3255.65
446.53742	3323.05
450.6534	3384.25
454.76644	3405.25
458.87653	3419.15
462.98368	3407.35
467.08789	3378.95
471.18916	3339.85
475.2875	3297.55
479.38291	3247.35
483.4754	3229.25
487.56496	3214.55
491.6516	3209.85
495.73531	3218.55
499.81612	3231.05
503.89401	3258.55
507.96899	3311.45
512.04106	3360.75
516.11023	3422.45
520.1765	3487.85
524.23987	3473.65
528.30034	3453.45
532.35792	3416.65
536.41261	3370.05
540.46441	3332.95
544.51333	3305.55
548.55936	3312.25
552.60252	3371.85
556.64279	3444.85
560.6802	3473.05
564.71473	3546.15
568.7464	3674.95
572.7752	3695.65
576.80114	3552.35
580.82422	3413.15
584.84444	3367.25
588.86181	3373.95
592.87633	3403.25
596.888	3479.55
600.89682	3606.95
604.9028	4098.05
608.90594	5271.85
612.90624	6545.15
616.90371	6019.45
620.89834	4395.05
624.89015	3695.55
628.87913	3588.95
632.86528	3670.55
636.84862	3760.25
640.82913	3724.85
644.80683	3590.25
648.78172	3489.65
652.75379	3494.55
656.72306	3615.05
660.68952	3755.15
664.65319	3684.25
668.61405	3543.05
672.57211	3515.75
676.52738	3555.95
680.47986	3574.45
684.42955	3575.05
688.37646	3532.55
692.32058	3508.75
696.26192	3499.15
700.20048	3515.15
704.13626	3534.85
708.06928	3512.15
711.99952	3477.65
715.927	3484.75
719.85171	3501.45
723.77365	3517.35
727.69284	3532.15
731.60928	3532.75
735.52295	3524.55
739.43388	3513.35
743.34206	3532.95
747.24749	3533.65
751.15017	3548.75
755.05012	3602.45
758.94733	3760.25
762.8418	4138.55
766.73354	4787.05
770.62254	5430.05
774.50882	5689.75
778.39237	5431.65
782.27321	4757.85
786.15132	4172.65
790.02671	3814.65
793.89938	3655.15
797.76935	3595.75
801.6366	3572.05
805.50115	3563.85
809.36299	3579.55
813.22213	3556.75
817.07857	3553.85
820.93231	3548.75
824.78336	3550.25
828.63172	3566.45
832.47738	3563.15
836.32036	3544.85
840.16066	3537.35
843.99827	3527.85
847.8332	3541.35
851.66546	3545.85
855.49504	3559.05
859.32195	3574.85
863.1462	3576.15
866.96777	3582.05
870.78668	3589.05
874.60293	3607.75
878.41652	3632.55
882.22745	3637.45
886.03573	3667.05
889.84136	3653.95
893.64433	3653.05
897.44466	3657.25
901.24235	3644.15
905.0374	3629.95
908.8298	3618.75
912.61957	3590.85
916.40671	3597.35
920.19121	3607.45
923.97308	3649.85
927.75233	3685.55
931.52895	3737.35
935.30295	3721.05
939.07433	3649.15
942.84309	3606.45
946.60924	3561.25
950.37278	3525.55
954.13371	3541.25
957.89203	3525.45
961.64774	3551.75
965.40086	3533.15
969.15137	3521.45
972.89929	3515.35
976.64461	3502.35
980.38733	3510.85
984.12747	3528.05
987.86502	3531.05
991.59999	3561.95
995.33237	3576.05
999.06217	3622.15
1002.78939	3668.15
1006.51404	3711.75
1010.23611	3761.65
1013.95561	3768.55
1017.67255	3777.85
1021.38692	3755.85
1025.09872	3722.55
1028.80796	3707.45
1032.51465	3727.35
1036.21877	3752.45
1039.92035	3776.15
1043.61937	3788.75
1047.31584	3816.75
1051.00976	3833.75
1054.70114	3839.25
1058.38998	3840.55
1062.07627	3861.85
1065.76003	3840.45
1069.44126	3847.45
1073.11995	3871.85
1076.79611	3930.95
1080.46974	3988.65
1084.14085	4102.85
1087.80943	4202.65
1091.47549	4234.65
1095.13903	4188.55
1098.80005	4095.85
1102.45857	4046.25
1106.11456	4052.95
1109.76805	4091.35
1113.41903	4209.55
1117.06751	4342.75
1120.71348	4502.85
1124.35696	4689.55
1127.99793	4822.95
1131.63641	4789.85
1135.2724	4593.45
1138.90589	4415.75
1142.5369	4295.95
1146.16542	4205.25
1149.79145	4142.15
1153.415	4115.75
1157.03607	4101.45
1160.65467	4164.55
1164.27079	4267.25
1167.88443	4411.25
1171.49561	4639.15
1175.10432	5017.85
1178.71056	5547.25
1182.31434	6049.85
1185.91565	6163.65
1189.51451	5907.45
1193.11091	5544.15
1196.70485	5208.85
1200.29634	4994.95
1203.88538	4857.15
1207.47197	4658.15
1211.05612	4457.55
1214.63782	4328.55
1218.21708	4268.95
1221.79391	4258.25
1225.36829	4274.75
1228.94024	4269.65
1232.50976	4259.65
1236.07685	4267.95
1239.6415	4288.85
1243.20374	4308.95
1246.76355	4349.95
1250.32093	4428.25
1253.8759	4455.55
1257.42845	4477.15
1260.97859	4575.75
1264.52631	4683.05
1268.07163	4788.95
1271.61453	4874.45
1275.15503	4920.65
1278.69312	4912.65
1282.22882	4945.85
1285.76211	5033.55
1289.29301	5175.25
1292.82151	5305.95
1296.34761	5493.25
1299.87133	5767.55
1303.39266	6264.85
1306.9116	6969.25
1310.42815	7623.65
1313.94233	7727.45
1317.45412	7195.65
1320.96354	6534.85
1324.47058	5949.55
1327.97525	5496.15
1331.47754	5227.15
1334.97747	5103.55
1338.47502	5156.95
1341.97022	5315.75
1345.46305	5630.75
1348.95352	6117.25
1352.44163	6735.45
1355.92738	7528.65
1359.41078	8717.35
1362.89183	9756.15
1366.37053	9343.25
1369.84688	7834.35
1373.32088	6479.65
1376.79254	5772.25
1380.26186	5354.15
1383.72883	5070.45
1387.19347	4886.75
1390.65578	4733.45
1394.11575	4597.35
1397.57339	4506.75
1401.0287	4462.05
1404.48168	4436.75
1407.93234	4421.25
1411.38068	4441.35
1414.82669	4471.15
1418.27039	4514.95
1421.71177	4517.65
1425.15083	4494.95
1428.58758	4461.05
1432.02203	4499.35
1435.45416	4521.95
1438.88399	4528.85
1442.31151	4507.85
1445.73673	4492.45
1449.15965	4512.95
1452.58027	4503.55
1455.9986	4476.05
1459.41463	4472.35
1462.82837	4505.35
1466.23982	4579.15
1469.64898	4652.25
1473.05586	4699.85
1476.46045	4734.95
1479.86276	4761.55
1483.26279	4838.85
1486.66054	4946.85
1490.05602	5121.45
1493.44922	5398.45
1496.84016	5873.85
1500.22882	6611.35
1503.61521	7668.15
1506.99934	8826.35
1510.38121	9538.45
1513.76081	9387.25
1517.13816	8450.35
1520.51324	7246.45
1523.88607	6281.65
1527.25665	5692.15
1530.62498	5404.05
1533.99105	5234.85
1537.35488	5120.75
1540.71647	5067.25
1544.07581	5048.05
1547.4329	5073.35
1550.78776	5120.15
1554.14038	5184.25
1557.49077	5263.85
1560.83892	5360.15
1564.18484	5537.35
1567.52853	5714.85
1570.86999	5901.25
1574.20922	6013.85
1577.54624	5940.45
1580.88103	5673.05
1584.2136	5309.75
1587.54395	5082.35
1590.87208	5027.75
1594.19801	5129.25
1597.52172	5278.55
1600.84321	5331.25
1604.16251	5238.55
1607.47959	5111.95
1610.79447	4985.75
1614.10715	4853.45
1617.41763	4725.65
1620.7259	4663.35
1624.03199	4620.95
1627.33587	4634.05
1630.63757	4683.65
1633.93707	4802.75
1637.23439	4984.45
1640.52951	5307.65
1643.82246	5859.65
1647.11321	6517.55
1650.40179	6975.25
1653.68819	6845.75
1656.97241	6189.65
1660.25446	5536.65
1663.53433	5059.75
1666.81203	4811.95
1670.08756	4646.05
1673.36092	4540.95
1676.63211	4468.15
1679.90115	4424.75
1683.16801	4400.35
1686.43272	4379.75
1689.69527	4364.25
1692.95567	4343.35
1696.2139	4355.75
1699.46999	4365.95
1702.72392	4343.45
1705.97571	4330.35
1709.22535	4310.05
1712.47284	4301.55
1715.71819	4293.95
1718.96139	4264.95
1722.20246	4272.25
1725.44139	4277.75
1728.67818	4259.85
1731.91284	4237.15
1735.14537	4228.75
1738.37576	4222.25
1741.60403	4227.75
1744.83017	4235.75
1748.05418	4224.65
1751.27607	4242.65
1754.49584	4267.45
1757.71349	4263.75
1760.92903	4273.75
1764.14244	4267.65
1767.35375	4243.45
1770.56294	4217.45
1773.77002	4225.35
1776.97499	4201.65
1780.17785	4201.95
1783.37861	4196.35
1786.57727	4176.65
1789.77382	4166.05
1792.96828	4182.15
1796.16064	4166.25
1799.3509	4154.25
1802.53907	4166.65
1805.72514	4153.25
1808.90913	4142.05
1812.09102	4142.75
1815.27083	4135.25
1818.44856	4114.95
1821.6242	4115.85
1824.79776	4134.15
1827.96924	4147.05
1831.13864	4133.75
1834.30597	4148.15
1837.47122	4110.15
1840.6344	4105.85
1843.7955	4115.55
1846.95454	4114.05
1850.11151	4116.05
1853.26642	4116.75
1856.41926	4109.05
1859.57004	4129.75
1862.71876	4121.05
1865.86542	4119.85
1869.01003	4122.55
1872.15258	4142.75
1875.29308	4151.45
1878.43152	4147.45
1881.56792	4138.25
1884.70227	4155.05
1887.83457	4142.55
1890.96482	4144.95
1894.09304	4144.15
1897.21921	4140.65
1900.34335	4138.25
1903.46544	4159.05
1906.58551	4160.05
1909.70353	4145.95
1912.81953	4162.65
1915.93349	4165.05
1919.04543	4146.45
1922.15534	4173.85
1925.26322	4162.15
1928.36908	4151.35
1931.47292	4153.65
1934.57473	4157.55
1937.67453	4162.55
1940.77232	4138.55
1943.86808	4140.75
1946.96184	4111.15
1950.05358	4112.35
1953.14331	4119.35
1956.23103	4110.85
1959.31675	4122.95
1962.40046	4111.45
1965.48217	4093.15
1968.56188	4099.85
1971.63959	4090.75
1974.7153	4065.95
1977.78901	4069.45
1980.86073	4069.05
1983.93046	4063.15
1986.99819	4062.15
1990.06394	4051.95
1993.1277	4040.65
1996.18947	4049.55
1999.24925	4046.35
2002.30706	4037.35
2005.36288	4008.25
2008.41672	4018.35
2011.46859	4011.45
2014.51848	3990.75
2017.56639	4006.75
2020.61233	4003.65
2023.6563	3983.95
2026.6983	3972.65
2029.73833	3970.25
2032.7764	3962.95
2035.8125	3969.65
2038.84664	3973.35
2041.87881	3966.35
2044.90903	3970.85
2047.93729	3967.85
2050.96359	3966.95
2053.98794	3948.65
2057.01034	3976.75
2060.03078	3963.35
2063.04927	3982.35
2066.06582	3976.95
2069.08042	3987.35
2072.09307	3976.85
2075.10378	3997.95
2078.11255	3992.55
2081.11938	3996.75
2084.12426	3986.75
2087.12722	3991.25
2090.12824	4017.05
2093.12732	4019.35
2096.12447	4032.45
2099.11969	4020.25
2102.11299	4037.95
2105.10435	4038.75
2108.09379	4053.45
2111.08131	4054.75
2114.0669	4057.55
2117.05057	4074.05
2120.03233	4105.25
2123.01216	4100.45
2125.99008	4104.45
2128.96609	4122.55
2131.94018	4129.25
2134.91236	4142.35
2137.88263	4138.95
2140.851	4162.35
2143.81746	4170.25
2146.78201	4180.05
2149.74466	4160.35
2152.7054	4166.75
2155.66425	4153.85
2158.6212	4173.45
2161.57625	4176.05
2164.52941	4181.95
2167.48067	4187.75
2170.43004	4194.65
2173.37752	4206.95
2176.32311	4217.45
2179.26681	4219.55
2182.20863	4231.65
2185.14856	4222.65
2188.08661	4234.75
2191.02278	4247.75
2193.95707	4240.15
2196.88948	4240.05
2199.82001	4246.55
2202.74867	4235.95
2205.67545	4248.45
2208.60037	4256.25
2211.52341	4254.45
2214.44458	4263.55
2217.36388	4247.25
2220.28132	4237.15
2223.1969	4226.65
2226.11061	4225.65
2229.02246	4210.55
2231.93245	4215.25
2234.84058	4241.45
2237.74686	4235.95
2240.65128	4232.85
2243.55385	4255.05
2246.45456	4259.35
2249.35343	4263.65
2252.25044	4257.25
2255.14561	4247.55
2258.03893	4259.95
2260.93041	4260.65
2263.82004	4252.75
2266.70783	4259.15
2269.59378	4229.85
2272.4779	4227.25
2275.36017	4224.05
2278.24061	4225.05
2281.11922	4230.45
2283.996	4228.35
2286.87094	4224.75
2289.74405	4227.35
2292.61534	4217.25
2295.4848	4210.55
2298.35243	4240.75
2301.21824	4209.65
2304.08223	4231.95
2306.94439	4258.45
2309.80474	4255.25
2312.66327	4252.65
2315.51999	4243.15
2318.37489	4249.65
2321.22797	4247.45
2324.07925	4228.95
2326.92871	4228.65
2329.77637	4232.25
2332.62222	4221.95
2335.46626	4237.05
2338.3085	4233.35
2341.14893	4230.35
2343.98756	4243.55
2346.8244	4244.55
2349.65943	4239.65
2352.49267	4239.85
2355.32411	4243.75
2358.15376	4260.85
2360.98161	4269.35
2363.80768	4279.95
2366.63195	4275.15
2369.45444	4290.85
2372.27514	4279.65
2375.09405	4280.75
2377.91118	4288.35
2380.72652	4284.95
2383.54009	4269.85
2386.35187	4290.25
2389.16188	4268.55
2391.97011	4248.65
2394.77657	4245.75
2397.58125	4255.75
2400.38416	4254.25
2403.18529	4252.05
2405.98466	4245.95
2408.78226	4234.15
2411.57809	4210.15
2414.37216	4223.75
2417.16446	4243.65
2419.955	4242.75
2422.74378	4259.95
2425.5308	4259.05
2428.31606	4265.25
2431.09956	4251.85
2433.88131	4266.05
2436.6613	4253.15
2439.43954	4276.85
2442.21603	4262.35
2444.99077	4261.95
2447.76377	4263.55
2450.53501	4244.65
2453.30451	4246.75
2456.07226	4256.45
2458.83827	4259.45
2461.60254	4263.65
2464.36507	4260.65
2467.12586	4272.65
2469.88492	4248.35
2472.64224	4264.05
2475.39782	4280.55
2478.15167	4296.25
2480.90379	4267.95
2483.65417	4298.95
2486.40283	4307.25
2489.14976	4303.25
2491.89497	4314.55
2494.63845	4329.05
2497.3802	4316.45
2500.12024	4314.55
2502.85855	4316.25
2505.59514	4294.75
2508.33002	4301.85
2511.06318	4299.65
2513.79462	4296.55
2516.52435	4279.85
2519.25237	4268.45
2521.97867	4274.55
2524.70327	4275.95
2527.42616	4270.95
2530.14734	4277.25
2532.86681	4280.65
2535.58458	4283.35
2538.30065	4300.85
2541.01501	4310.55
2543.72768	4287.85
2546.43864	4297.25
2549.14791	4303.15
2551.85548	4263.45
2554.56136	4264.45
2557.26554	4268.55
2559.96803	4283.05
2562.66883	4290.05
2565.36794	4270.75
2568.06536	4255.35
2570.7611	4250.95
2573.45514	4244.55
2576.14751	4242.25
2578.83819	4245.15
2581.52719	4241.75
2584.21451	4244.05
2586.90015	4245.65
2589.58411	4253.15
2592.2664	4249.75
2594.94701	4260.55
2597.62594	4262.55
2600.30321	4252.65
2602.9788	4245.55
2605.65273	4244.95
2608.32498	4263.35
2610.99557	4248.15
2613.66449	4250.75
2616.33175	4251.85
2618.99734	4238.15
2621.66128	4230.05
2624.32355	4220.75
2626.98416	4222.75
2629.64311	4218.35
2632.30041	4231.65
2634.95605	4223.65
2637.61004	4204.55
2640.26238	4210.35
2642.91306	4212.25
2645.56209	4192.25
2648.20948	4201.35
2650.85521	4199.75
2653.4993	4226.65
2656.14175	4235.65
2658.78255	4239.05
2661.42171	4253.75
2664.05923	4253.25
2666.6951	4261.25
2669.32934	4271.65
2671.96194	4273.85
2674.59291	4266.55
2677.22224	4285.95
2679.84993	4280.35
2682.476	4293.05
2685.10043	4286.45
2687.72324	4270.25
2690.34441	4277.45
2692.96396	4281.25
2695.58188	4280.15
2698.19818	4297.55
2700.81285	4315.45
2703.4259	4309.15
2706.03733	4312.25
2708.64714	4289.85
2711.25533	4307.45
2713.86191	4295.25
2716.46687	4311.05
2719.07021	4322.75
2721.67194	4334.55
2724.27206	4336.75
2726.87057	4343.45
2729.46747	4335.95
2732.06276	4342.25
2734.65644	4350.65
2737.24852	4323.95
2739.83899	4317.75
2742.42786	4345.65
2745.01513	4330.55
2747.60079	4337.95
2750.18486	4316.55
2752.76733	4342.85
2755.3482	4320.15
2757.92747	4314.25
2760.50515	4321.95
2763.08123	4305.15
2765.65573	4309.45
2768.22863	4310.75
2770.79994	4315.65
2773.36967	4318.95
2775.9378	4315.45
2778.50435	4309.25
2781.06932	4295.35
2783.6327	4279.65
2786.1945	4303.45
2788.75471	4319.65
2791.31335	4283.35
2793.87041	4316.55
2796.42589	4307.05
2798.97979	4294.45
2801.53212	4304.25
2804.08288	4295.45
2806.63206	4307.35
2809.17967	4292.85
2811.72571	4289.75
2814.27018	4275.45
2816.81308	4274.05
2819.35442	4264.25
2821.89419	4260.05
2824.43239	4274.85
2826.96904	4277.45
2829.50412	4273.35
2832.03763	4257.55
2834.56959	4256.45
2837.1	4249.65
2839.62884	4261.65
2842.15613	4255.35
2844.68186	4270.95
2847.20604	4276.35
2849.72867	4261.05
2852.24974	4260.85
2854.76927	4266.55
2857.28724	4288.45
2859.80367	4280.75
2862.31855	4278.55
2864.83189	4287.65
2867.34368	4287.55
2869.85393	4283.45
2872.36264	4291.45
2874.8698	4307.65
2877.37543	4278.95
2879.87952	4296.05
2882.38207	4294.55
2884.88308	4304.95
2887.38256	4312.05
2889.88051	4308.15
2892.37692	4326.75
2894.8718	4329.45
2897.36515	4340.95
2899.85698	4365.15
2902.34727	4377.35
2904.83604	4391.35
2907.32328	4379.85
2909.809	4390.55
2912.29319	4428.45
2914.77587	4419.45
2917.25702	4437.25
2919.73665	4431.25
2922.21476	4435.35
2924.69136	4432.55
2927.16644	4424.15
2929.64	4414.75
2932.11205	4434.95
2934.58258	4413.75
2937.05161	4436.25
2939.51912	4452.85
2941.98513	4468.35
2944.44962	4474.15
2946.91261	4450.75
2949.37409	4437.35
2951.83407	4454.65
2954.29254	4480.05
2956.74951	4443.55
2959.20498	4429.95
2961.65895	4420.45
2964.11142	4432.85
2966.56239	4416.15
2969.01186	4438.45
2971.45984	4429.05
2973.90632	4434.25
2976.35131	4437.55
2978.7948	4423.15
2981.23681	4435.25
2983.67732	4434.25
2986.11635	4434.05
2988.55388	4419.75
2990.98993	4410.65
2993.4245	4403.55
2995.85758	4389.75
2998.28917	4376.15
3000.71928	4379.45
3003.14791	4383.45
3005.57506	4381.05
3008.00073	4348.15
3010.42493	4329.95
3012.84764	4374.45
3015.26888	4367.25
3017.68865	4341.05
3020.10694	4348.35
3022.52376	4343.55
3024.9391	4362.75
3027.35298	4357.45
3029.76539	4347.45
3032.17632	4342.45
3034.5858	4347.45
3036.9938	4352.65
3039.40034	4358.25
3041.80542	4360.25
3044.20903	4357.85
3046.61118	4367.65
3049.01187	4348.15
3051.4111	4362.05
3053.80888	4349.95
3056.20519	4348.75
3058.60005	4363.45
3060.99345	4365.05
3063.3854	4361.15
3065.7759	4361.85
3068.16494	4338.25
3070.55254	4326.35
3072.93868	4325.65
3075.32338	4311.95
3077.70662	4303.45
3080.08842	4296.55
3082.46878	4312.05
3084.84769	4320.15
3087.22515	4331.85
3089.60118	4327.45
3091.97576	4318.35
3094.3489	4333.45
3096.72061	4352.75
3099.09087	4358.55
3101.4597	4369.35
3103.82709	4409.95
3106.19305	4401.35
3108.55757	4407.45
3110.92066	4403.45
3113.28232	4390.75
3115.64255	4413.25
3118.00134	4418.35
3120.35871	4401.55
3122.71466	4400.25
3125.06917	4377.95
3127.42226	4401.15
3129.77393	4419.65
3132.12417	4409.05
3134.47299	4425.25
3136.82039	4431.65
3139.16636	4439.45
3141.51092	4432.85
3143.85406	4439.65
3146.19579	4454.15
3148.53609	4482.15
3150.87499	4472.35
3153.21246	4491.65
3155.54853	4510.85
3157.88318	4515.05
3160.21642	4513.55
3162.54826	4515.65
3164.87868	4533.55
3167.2077	4552.55
3169.5353	4572.35
3171.86151	4577.15
3174.18631	4565.55
3176.5097	4598.25
3178.83169	4563.15
3181.15228	4590.35
3183.47147	4561.05
3185.78926	4584.15
3188.10565	4572.85
3190.42065	4584.75
3192.73424	4616.25
3195.04645	4578.95
3197.35725	4580.25
3199.66667	4566.25
3201.97469	4584.45
3204.28132	4591.65
3206.58656	4646.15
3208.8904	4629.65
3211.19287	4648.25
3213.49394	4622.65
3215.79363	4633.35
3218.09193	4657.95
3220.38884	4669.85
3222.68438	4703.45
3224.97853	4699.75
3227.2713	4703.25
3229.56269	4695.45
3231.8527	4702.05
3234.14133	4682.95
3236.42858	4679.25
3238.71446	4696.25
3240.99896	4671.45
3243.28209	4682.05
3245.56384	4668.35
3247.84423	4660.15
3250.12324	4642.95
3252.40088	4628.85
3254.67715	4655.25
3256.95205	4655.75
3259.22558	4665.65
3261.49775	4678.15
3263.76855	4681.55
3266.03799	4665.95
3268.30606	4671.95
3270.57277	4671.35
3272.83812	4669.45
3275.10211	4670.15
3277.36474	4650.35
3279.62601	4643.55
3281.88593	4652.45
3284.14448	4653.95
3286.40168	4641.95
3288.65753	4626.35
3290.91202	4622.15
3293.16516	4607.55
3295.41695	4602.25
3297.66738	4600.25
3299.91647	4578.85
3302.16421	4585.95
3304.4106	4574.55
3306.65564	4529.95
3308.89933	4513.05
3311.14169	4478.45
3313.38269	4434.65
3315.62236	4433.75
3317.86068	4384.45
3320.09766	4367.25
3322.3333	4331.55
3324.5676	4290.65
3326.80056	4244.95
3329.03219	4207.65
3331.26248	1.65
3333.49143	2.05
3335.71905	0.15
