Data from AgNPs_UA_20uM_CRN_500uM_AS_RamanShift__19__14-45-41-519.txt Node

Date: Wed Aug 17 14:45:41 BST 2022
User: TCL
Spectrometer: QEP01345
Trigger mode: 4
Integration Time (sec): 7.000000E0
Scans to average: 10
Electric dark correction enabled: true
Nonlinearity correction enabled: false
Boxcar width: 0
XAxis mode: Raman Shifts
Number of Pixels in Spectrum: 1044
>>>>>Begin Spectral Data<<<<<
46.04893	-0.25
50.45542	-0.05
54.85868	-1.65
59.25871	0.55
63.6555	33.95
68.04907	34.15
72.43941	38.25
76.82654	42.05
81.21044	42.45
85.59113	41.65
89.96862	46.45
94.34289	50.85
98.71396	54.35
103.08183	53.05
107.4465	56.05
111.80798	52.75
116.16626	55.65
120.52136	52.25
124.87327	51.55
129.222	51.65
133.56755	56.55
137.90993	56.05
142.24913	57.25
146.58517	61.55
150.91804	62.75
155.24774	66.45
159.57429	75.75
163.89768	86.25
168.21792	104.75
172.53501	132.95
176.84895	176.95
181.15975	239.05
185.46741	325.75
189.77193	442.85
194.07331	578.25
198.37157	745.45
202.6667	917.45
206.9587	1100.95
211.24758	1278.85
215.53334	1476.15
219.81599	1677.65
224.09553	1902.75
228.37195	2161.05
232.64527	2433.65
236.91549	2695.55
241.18261	2926.95
245.44663	3111.35
249.70755	3233.95
253.96539	3354.45
258.22014	3433.15
262.4718	3488.25
266.72039	3532.25
270.96589	3520.95
275.20832	3467.85
279.44768	3384.05
283.68397	3293.85
287.91719	3236.65
292.14735	3201.65
296.37445	3243.65
300.59849	3349.35
304.81948	3476.15
309.03742	3550.45
313.25231	3558.45
317.46415	3424.25
321.67296	3223.55
325.87872	3081.25
330.08145	3008.55
334.28114	3014.55
338.47781	3062.05
342.67145	3148.65
346.86207	3227.85
351.04966	3389.75
355.23424	3571.35
359.4158	3728.25
363.59435	3821.25
367.76989	3854.05
371.94243	3860.35
376.11196	3838.85
380.27849	3817.95
384.44203	3796.65
388.60257	3774.15
392.76012	3747.75
396.91468	3742.15
401.06626	3790.25
405.21485	3817.35
409.36047	3745.65
413.50311	3588.95
417.64277	3424.05
421.77947	3341.55
425.9132	3309.85
430.04396	3312.95
434.17176	3327.45
438.2966	3380.55
442.41849	3446.65
446.53742	3506.35
450.6534	3586.35
454.76644	3620.75
458.87653	3627.25
462.98368	3612.65
467.08789	3568.65
471.18916	3522.85
475.2875	3472.05
479.38291	3414.35
483.4754	3369.75
487.56496	3358.55
491.6516	3344.75
495.73531	3366.35
499.81612	3372.55
503.89401	3403.85
507.96899	3448.65
512.04106	3500.55
516.11023	3534.55
520.1765	3572.75
524.23987	3567.35
528.30034	3525.25
532.35792	3509.15
536.41261	3470.45
540.46441	3420.55
544.51333	3390.75
548.55936	3369.45
552.60252	3432.15
556.64279	3486.25
560.6802	3491.05
564.71473	3545.45
568.7464	3631.35
572.7752	3675.05
576.80114	3568.55
580.82422	3461.15
584.84444	3422.05
588.86181	3444.25
592.87633	3495.05
596.888	3574.85
600.89682	3715.65
604.9028	4158.25
608.90594	5222.35
612.90624	6417.35
616.90371	5903.95
620.89834	4335.55
624.89015	3656.15
628.87913	3529.95
632.86528	3600.85
636.84862	3680.45
640.82913	3663.75
644.80683	3545.35
648.78172	3447.15
652.75379	3466.05
656.72306	3574.75
660.68952	3713.25
664.65319	3637.55
668.61405	3502.05
672.57211	3469.35
676.52738	3506.15
680.47986	3538.65
684.42955	3510.35
688.37646	3463.45
692.32058	3445.25
696.26192	3432.05
700.20048	3454.35
704.13626	3450.25
708.06928	3428.35
711.99952	3406.05
715.927	3385.95
719.85171	3412.05
723.77365	3428.55
727.69284	3423.35
731.60928	3409.85
735.52295	3412.75
739.43388	3401.35
743.34206	3422.75
747.24749	3434.45
751.15017	3431.85
755.05012	3472.35
758.94733	3604.15
762.8418	3962.25
766.73354	4566.65
770.62254	5198.35
774.50882	5462.25
778.39237	5217.65
782.27321	4586.25
786.15132	3983.75
790.02671	3633.25
793.89938	3477.75
797.76935	3399.45
801.6366	3367.95
805.50115	3359.55
809.36299	3326.55
813.22213	3313.25
817.07857	3302.15
820.93231	3291.25
824.78336	3285.55
828.63172	3292.05
832.47738	3294.25
836.32036	3278.35
840.16066	3270.05
843.99827	3264.15
847.8332	3255.85
851.66546	3256.95
855.49504	3267.45
859.32195	3273.35
863.1462	3282.45
866.96777	3280.55
870.78668	3293.25
874.60293	3303.05
878.41652	3296.55
882.22745	3325.05
886.03573	3335.55
889.84136	3330.75
893.64433	3329.35
897.44466	3307.05
901.24235	3299.05
905.0374	3274.25
908.8298	3250.05
912.61957	3228.35
916.40671	3215.45
920.19121	3233.85
923.97308	3268.55
927.75233	3298.55
931.52895	3332.65
935.30295	3322.55
939.07433	3240.85
942.84309	3178.55
946.60924	3123.55
950.37278	3106.05
954.13371	3099.35
957.89203	3087.65
961.64774	3066.65
965.40086	3073.85
969.15137	3059.95
972.89929	3055.45
976.64461	3029.95
980.38733	3033.75
984.12747	3038.45
987.86502	3036.55
991.59999	3049.65
995.33237	3071.55
999.06217	3103.55
1002.78939	3154.05
1006.51404	3202.35
1010.23611	3238.45
1013.95561	3268.15
1017.67255	3261.15
1021.38692	3251.05
1025.09872	3207.45
1028.80796	3176.75
1032.51465	3182.75
1036.21877	3210.15
1039.92035	3206.85
1043.61937	3235.75
1047.31584	3240.95
1051.00976	3228.15
1054.70114	3232.65
1058.38998	3220.35
1062.07627	3199.55
1065.76003	3203.75
1069.44126	3208.65
1073.11995	3218.55
1076.79611	3274.95
1080.46974	3338.35
1084.14085	3414.75
1087.80943	3493.15
1091.47549	3520.95
1095.13903	3473.45
1098.80005	3380.15
1102.45857	3326.75
1106.11456	3322.85
1109.76805	3360.35
1113.41903	3436.45
1117.06751	3538.75
1120.71348	3689.05
1124.35696	3851.25
1127.99793	3977.35
1131.63641	3938.15
1135.2724	3747.25
1138.90589	3588.15
1142.5369	3484.85
1146.16542	3398.65
1149.79145	3336.15
1153.415	3322.75
1157.03607	3334.05
1160.65467	3378.15
1164.27079	3470.75
1167.88443	3630.75
1171.49561	3863.85
1175.10432	4243.85
1178.71056	4801.95
1182.31434	5311.15
1185.91565	5447.55
1189.51451	5243.55
1193.11091	4880.55
1196.70485	4550.25
1200.29634	4303.75
1203.88538	4096.15
1207.47197	3874.25
1211.05612	3646.95
1214.63782	3512.65
1218.21708	3451.95
1221.79391	3425.65
1225.36829	3424.95
1228.94024	3427.05
1232.50976	3414.45
1236.07685	3403.25
1239.6415	3404.55
1243.20374	3420.65
1246.76355	3446.45
1250.32093	3460.55
1253.8759	3504.95
1257.42845	3578.35
1260.97859	3668.05
1264.52631	3772.65
1268.07163	3881.05
1271.61453	3984.55
1275.15503	4061.85
1278.69312	4082.35
1282.22882	4105.35
1285.76211	4200.75
1289.29301	4327.35
1292.82151	4460.15
1296.34761	4651.65
1299.87133	4927.95
1303.39266	5414.65
1306.9116	6081.55
1310.42815	6735.45
1313.94233	6851.15
1317.45412	6416.15
1320.96354	5776.45
1324.47058	5216.15
1327.97525	4761.75
1331.47754	4478.55
1334.97747	4356.95
1338.47502	4377.65
1341.97022	4529.55
1345.46305	4826.05
1348.95352	5284.05
1352.44163	5851.45
1355.92738	6633.25
1359.41078	7709.85
1362.89183	8665.55
1366.37053	8284.75
1369.84688	6876.55
1373.32088	5554.95
1376.79254	4799.75
1380.26186	4386.15
1383.72883	4132.25
1387.19347	3930.55
1390.65578	3732.45
1394.11575	3596.75
1397.57339	3515.25
1401.0287	3458.45
1404.48168	3460.85
1407.93234	3443.25
1411.38068	3451.85
1414.82669	3473.65
1418.27039	3522.45
1421.71177	3513.05
1425.15083	3471.65
1428.58758	3451.55
1432.02203	3463.25
1435.45416	3501.15
1438.88399	3501.15
1442.31151	3489.25
1445.73673	3491.65
1449.15965	3499.35
1452.58027	3498.85
1455.9986	3465.35
1459.41463	3481.85
1462.82837	3520.45
1466.23982	3588.75
1469.64898	3657.25
1473.05586	3720.75
1476.46045	3760.45
1479.86276	3786.45
1483.26279	3844.75
1486.66054	3961.95
1490.05602	4116.55
1493.44922	4377.15
1496.84016	4782.25
1500.22882	5480.75
1503.61521	6428.45
1506.99934	7449.25
1510.38121	8069.15
1513.76081	7927.05
1517.13816	7059.45
1520.51324	5969.05
1523.88607	5055.45
1527.25665	4508.25
1530.62498	4226.05
1533.99105	4046.75
1537.35488	3938.55
1540.71647	3852.85
1544.07581	3814.35
1547.4329	3812.15
1550.78776	3814.75
1554.14038	3865.35
1557.49077	3917.45
1560.83892	3987.65
1564.18484	4138.15
1567.52853	4324.85
1570.86999	4526.95
1574.20922	4653.65
1577.54624	4564.65
1580.88103	4272.75
1584.2136	3927.85
1587.54395	3699.25
1590.87208	3648.95
1594.19801	3794.65
1597.52172	3978.55
1600.84321	4036.45
1604.16251	3915.75
1607.47959	3757.25
1610.79447	3584.75
1614.10715	3402.45
1617.41763	3241.75
1620.7259	3158.25
1624.03199	3113.25
1627.33587	3095.65
1630.63757	3166.55
1633.93707	3289.45
1637.23439	3495.75
1640.52951	3854.95
1643.82246	4413.35
1647.11321	5041.35
1650.40179	5435.75
1653.68819	5246.55
1656.97241	4582.55
1660.25446	3885.15
1663.53433	3393.65
1666.81203	3146.35
1670.08756	2958.05
1673.36092	2859.15
1676.63211	2795.35
1679.90115	2736.65
1683.16801	2710.05
1686.43272	2672.45
1689.69527	2641.05
1692.95567	2613.75
1696.2139	2625.75
1699.46999	2610.65
1702.72392	2603.25
1705.97571	2574.65
1709.22535	2570.85
1712.47284	2556.25
1715.71819	2553.75
1718.96139	2536.05
1722.20246	2512.25
1725.44139	2498.45
1728.67818	2492.75
1731.91284	2465.35
1735.14537	2460.25
1738.37576	2444.45
1741.60403	2433.35
1744.83017	2435.45
1748.05418	2437.75
1751.27607	2436.35
1754.49584	2444.65
1757.71349	2448.05
1760.92903	2435.35
1764.14244	2417.65
1767.35375	2397.75
1770.56294	2398.25
1773.77002	2371.85
1776.97499	2361.75
1780.17785	2336.55
1783.37861	2323.65
1786.57727	2317.55
1789.77382	2298.55
1792.96828	2302.75
1796.16064	2284.95
1799.3509	2272.95
1802.53907	2265.65
1805.72514	2261.45
1808.90913	2245.85
1812.09102	2232.15
1815.27083	2221.35
1818.44856	2225.65
1821.6242	2212.85
1824.79776	2213.65
1827.96924	2209.85
1831.13864	2209.05
1834.30597	2205.45
1837.47122	2193.85
1840.6344	2183.85
1843.7955	2189.85
1846.95454	2181.65
1850.11151	2178.25
1853.26642	2172.25
1856.41926	2174.25
1859.57004	2165.45
1862.71876	2152.75
1865.86542	2160.65
1869.01003	2162.55
1872.15258	2166.65
1875.29308	2157.55
1878.43152	2156.45
1881.56792	2147.25
1884.70227	2148.55
1887.83457	2145.15
1890.96482	2145.95
1894.09304	2142.35
1897.21921	2128.95
1900.34335	2128.55
1903.46544	2131.65
1906.58551	2122.05
1909.70353	2127.15
1912.81953	2133.75
1915.93349	2122.75
1919.04543	2107.65
1922.15534	2109.35
1925.26322	2111.75
1928.36908	2094.95
1931.47292	2096.65
1934.57473	2085.15
1937.67453	2085.25
1940.77232	2067.35
1943.86808	2061.55
1946.96184	2063.25
1950.05358	2056.85
1953.14331	2053.05
1956.23103	2040.35
1959.31675	2025.35
1962.40046	2038.25
1965.48217	2034.95
1968.56188	2022.45
1971.63959	2016.15
1974.7153	2011.35
1977.78901	1988.35
1980.86073	1994.25
1983.93046	1989.55
1986.99819	1985.75
1990.06394	1980.95
1993.1277	1970.85
1996.18947	1953.65
1999.24925	1954.65
2002.30706	1952.45
2005.36288	1944.25
2008.41672	1928.65
2011.46859	1926.15
2014.51848	1935.45
2017.56639	1921.95
2020.61233	1922.75
2023.6563	1911.55
2026.6983	1904.05
2029.73833	1901.85
2032.7764	1889.65
2035.8125	1886.05
2038.84664	1897.35
2041.87881	1876.35
2044.90903	1882.45
2047.93729	1869.85
2050.96359	1872.15
2053.98794	1852.75
2057.01034	1865.35
2060.03078	1861.95
2063.04927	1853.55
2066.06582	1852.05
2069.08042	1847.75
2072.09307	1852.55
2075.10378	1847.85
2078.11255	1849.15
2081.11938	1849.35
2084.12426	1850.55
2087.12722	1849.35
2090.12824	1853.45
2093.12732	1846.55
2096.12447	1846.25
2099.11969	1844.05
2102.11299	1841.25
2105.10435	1849.75
2108.09379	1850.55
2111.08131	1840.35
2114.0669	1848.05
2117.05057	1845.45
2120.03233	1852.85
2123.01216	1857.35
2125.99008	1863.45
2128.96609	1856.95
2131.94018	1852.45
2134.91236	1861.05
2137.88263	1845.05
2140.851	1854.75
2143.81746	1846.35
2146.78201	1853.95
2149.74466	1850.25
2152.7054	1846.45
2155.66425	1843.25
2158.6212	1853.85
2161.57625	1841.75
2164.52941	1844.05
2167.48067	1848.05
2170.43004	1844.55
2173.37752	1825.25
2176.32311	1828.65
2179.26681	1841.35
2182.20863	1843.85
2185.14856	1838.05
2188.08661	1837.35
2191.02278	1830.75
2193.95707	1832.25
2196.88948	1844.85
2199.82001	1832.75
2202.74867	1827.55
2205.67545	1827.75
2208.60037	1822.55
2211.52341	1821.65
2214.44458	1825.15
2217.36388	1809.65
2220.28132	1810.35
2223.1969	1797.15
2226.11061	1804.75
2229.02246	1789.55
2231.93245	1797.25
2234.84058	1789.05
2237.74686	1787.75
2240.65128	1780.15
2243.55385	1782.55
2246.45456	1773.05
2249.35343	1778.35
2252.25044	1778.05
2255.14561	1781.65
2258.03893	1777.25
2260.93041	1778.85
2263.82004	1781.05
2266.70783	1765.25
2269.59378	1772.85
2272.4779	1754.05
2275.36017	1752.45
2278.24061	1742.35
2281.11922	1751.55
2283.996	1741.95
2286.87094	1731.65
2289.74405	1733.65
2292.61534	1728.35
2295.4848	1725.25
2298.35243	1725.95
2301.21824	1714.45
2304.08223	1720.95
2306.94439	1724.65
2309.80474	1721.85
2312.66327	1716.45
2315.51999	1708.25
2318.37489	1707.25
2321.22797	1707.65
2324.07925	1696.25
2326.92871	1705.35
2329.77637	1702.85
2332.62222	1700.35
2335.46626	1708.05
2338.3085	1699.25
2341.14893	1695.95
2343.98756	1697.65
2346.8244	1690.35
2349.65943	1689.05
2352.49267	1692.25
2355.32411	1695.95
2358.15376	1692.45
2360.98161	1700.95
2363.80768	1701.25
2366.63195	1699.05
2369.45444	1706.75
2372.27514	1709.85
2375.09405	1700.05
2377.91118	1692.85
2380.72652	1682.35
2383.54009	1678.45
2386.35187	1682.85
2389.16188	1671.45
2391.97011	1659.75
2394.77657	1654.75
2397.58125	1654.65
2400.38416	1655.55
2403.18529	1648.45
2405.98466	1641.65
2408.78226	1644.85
2411.57809	1643.15
2414.37216	1633.95
2417.16446	1636.15
2419.955	1632.25
2422.74378	1625.25
2425.5308	1635.95
2428.31606	1623.85
2431.09956	1628.25
2433.88131	1634.25
2436.6613	1624.45
2439.43954	1620.25
2442.21603	1620.95
2444.99077	1626.15
2447.76377	1616.75
2450.53501	1621.75
2453.30451	1616.55
2456.07226	1622.45
2458.83827	1622.65
2461.60254	1625.85
2464.36507	1613.75
2467.12586	1614.65
2469.88492	1615.45
2472.64224	1609.75
2475.39782	1604.35
2478.15167	1616.55
2480.90379	1610.65
2483.65417	1622.65
2486.40283	1622.45
2489.14976	1618.95
2491.89497	1627.55
2494.63845	1625.45
2497.3802	1624.85
2500.12024	1627.35
2502.85855	1621.45
2505.59514	1609.55
2508.33002	1598.35
2511.06318	1600.75
2513.79462	1591.45
2516.52435	1596.95
2519.25237	1573.15
2521.97867	1577.85
2524.70327	1578.95
2527.42616	1574.85
2530.14734	1562.45
2532.86681	1569.25
2535.58458	1567.65
2538.30065	1568.65
2541.01501	1568.25
2543.72768	1563.05
2546.43864	1566.05
2549.14791	1552.85
2551.85548	1562.85
2554.56136	1564.95
2557.26554	1555.45
2559.96803	1550.65
2562.66883	1554.65
2565.36794	1547.95
2568.06536	1550.35
2570.7611	1538.15
2573.45514	1540.35
2576.14751	1532.15
2578.83819	1525.95
2581.52719	1532.45
2584.21451	1528.05
2586.90015	1526.15
2589.58411	1528.95
2592.2664	1522.25
2594.94701	1519.65
2597.62594	1518.95
2600.30321	1514.65
2602.9788	1516.45
2605.65273	1506.95
2608.32498	1517.85
2610.99557	1498.65
2613.66449	1508.85
2616.33175	1509.95
2618.99734	1503.35
2621.66128	1501.95
2624.32355	1495.55
2626.98416	1497.05
2629.64311	1502.05
2632.30041	1497.05
2634.95605	1491.85
2637.61004	1492.35
2640.26238	1485.45
2642.91306	1477.25
2645.56209	1473.55
2648.20948	1483.05
2650.85521	1474.35
2653.4993	1475.45
2656.14175	1474.45
2658.78255	1482.25
2661.42171	1489.55
2664.05923	1485.35
2666.6951	1484.85
2669.32934	1492.45
2671.96194	1494.95
2674.59291	1482.55
2677.22224	1485.05
2679.84993	1483.55
2682.476	1479.35
2685.10043	1485.65
2687.72324	1474.05
2690.34441	1481.55
2692.96396	1476.85
2695.58188	1472.85
2698.19818	1472.05
2700.81285	1478.75
2703.4259	1479.05
2706.03733	1486.75
2708.64714	1483.85
2711.25533	1485.45
2713.86191	1476.15
2716.46687	1486.65
2719.07021	1482.55
2721.67194	1480.85
2724.27206	1511.25
2726.87057	1484.95
2729.46747	1492.85
2732.06276	1488.55
2734.65644	1478.95
2737.24852	1472.25
2739.83899	1470.75
2742.42786	1476.25
2745.01513	1476.05
2747.60079	1462.85
2750.18486	1457.25
2752.76733	1465.55
2755.3482	1462.05
2757.92747	1453.15
2760.50515	1455.65
2763.08123	1455.65
2765.65573	1474.05
2768.22863	1451.15
2770.79994	1444.75
2773.36967	1451.25
2775.9378	1438.75
2778.50435	1443.15
2781.06932	1441.95
2783.6327	1453.75
2786.1945	1447.65
2788.75471	1447.15
2791.31335	1444.55
2793.87041	1443.15
2796.42589	1433.45
2798.97979	1443.95
2801.53212	1440.35
2804.08288	1440.15
2806.63206	1439.05
2809.17967	1435.45
2811.72571	1441.05
2814.27018	1446.15
2816.81308	1435.55
2819.35442	1448.75
2821.89419	1438.75
2824.43239	1443.35
2826.96904	1438.15
2829.50412	1443.55
2832.03763	1440.15
2834.56959	1435.65
2837.1	1434.75
2839.62884	1439.35
2842.15613	1439.25
2844.68186	1451.75
2847.20604	1447.65
2849.72867	1451.65
2852.24974	1456.55
2854.76927	1455.25
2857.28724	1464.35
2859.80367	1461.25
2862.31855	1467.85
2864.83189	1472.05
2867.34368	1478.25
2869.85393	1478.55
2872.36264	1478.65
2874.8698	1491.45
2877.37543	1498.65
2879.87952	1492.85
2882.38207	1498.15
2884.88308	1501.05
2887.38256	1510.75
2889.88051	1509.45
2892.37692	1519.65
2894.8718	1525.25
2897.36515	1531.35
2899.85698	1534.85
2902.34727	1546.85
2904.83604	1544.35
2907.32328	1555.45
2909.809	1556.65
2912.29319	1561.15
2914.77587	1565.55
2917.25702	1568.15
2919.73665	1566.05
2922.21476	1583.85
2924.69136	1583.05
2927.16644	1591.65
2929.64	1574.65
2932.11205	1577.65
2934.58258	1580.05
2937.05161	1582.15
2939.51912	1586.85
2941.98513	1583.15
2944.44962	1578.15
2946.91261	1565.85
2949.37409	1557.75
2951.83407	1563.25
2954.29254	1562.35
2956.74951	1550.25
2959.20498	1545.05
2961.65895	1531.75
2964.11142	1525.45
2966.56239	1522.25
2969.01186	1515.35
2971.45984	1502.15
2973.90632	1513.15
2976.35131	1494.85
2978.7948	1488.35
2981.23681	1483.25
2983.67732	1491.65
2986.11635	1474.15
2988.55388	1473.85
2990.98993	1459.35
2993.4245	1459.35
2995.85758	1453.65
2998.28917	1455.25
3000.71928	1457.35
3003.14791	1448.75
3005.57506	1455.35
3008.00073	1441.85
3010.42493	1412.95
3012.84764	1439.05
3015.26888	1448.25
3017.68865	1441.05
3020.10694	1442.85
3022.52376	1438.85
3024.9391	1434.35
3027.35298	1432.75
3029.76539	1432.25
3032.17632	1431.15
3034.5858	1425.35
3036.9938	1428.55
3039.40034	1439.65
3041.80542	1422.25
3044.20903	1435.65
3046.61118	1432.55
3049.01187	1426.35
3051.4111	1429.95
3053.80888	1426.65
3056.20519	1434.75
3058.60005	1437.45
3060.99345	1440.15
3063.3854	1446.65
3065.7759	1432.15
3068.16494	1432.15
3070.55254	1432.15
3072.93868	1431.85
3075.32338	1420.65
3077.70662	1427.25
3080.08842	1437.65
3082.46878	1435.75
3084.84769	1437.95
3087.22515	1451.95
3089.60118	1446.45
3091.97576	1445.75
3094.3489	1451.55
3096.72061	1461.55
3099.09087	1463.15
3101.4597	1474.45
3103.82709	1476.05
3106.19305	1488.75
3108.55757	1489.15
3110.92066	1492.15
3113.28232	1498.25
3115.64255	1499.35
3118.00134	1511.85
3120.35871	1505.25
3122.71466	1511.45
3125.06917	1516.15
3127.42226	1518.85
3129.77393	1527.45
3132.12417	1526.05
3134.47299	1537.45
3136.82039	1534.15
3139.16636	1551.25
3141.51092	1552.35
3143.85406	1562.35
3146.19579	1569.15
3148.53609	1568.95
3150.87499	1589.15
3153.21246	1586.15
3155.54853	1596.75
3157.88318	1607.35
3160.21642	1616.25
3162.54826	1625.65
3164.87868	1631.55
3167.2077	1638.85
3169.5353	1641.75
3171.86151	1649.45
3174.18631	1660.05
3176.5097	1654.25
3178.83169	1659.65
3181.15228	1672.75
3183.47147	1680.45
3185.78926	1674.95
3188.10565	1677.15
3190.42065	1688.65
3192.73424	1692.25
3195.04645	1697.45
3197.35725	1696.25
3199.66667	1706.65
3201.97469	1712.75
3204.28132	1719.85
3206.58656	1730.15
3208.8904	1740.65
3211.19287	1734.95
3213.49394	1733.45
3215.79363	1746.25
3218.09193	1743.75
3220.38884	1772.05
3222.68438	1756.45
3224.97853	1770.05
3227.2713	1773.95
3229.56269	1771.55
3231.8527	1776.15
3234.14133	1777.55
3236.42858	1778.25
3238.71446	1763.95
3240.99896	1761.05
3243.28209	1776.05
3245.56384	1762.15
3247.84423	1768.95
3250.12324	1762.95
3252.40088	1767.35
3254.67715	1772.55
3256.95205	1766.55
3259.22558	1774.55
3261.49775	1774.45
3263.76855	1775.25
3266.03799	1783.75
3268.30606	1777.65
3270.57277	1785.05
3272.83812	1780.95
3275.10211	1769.35
3277.36474	1769.45
3279.62601	1780.05
3281.88593	1767.65
3284.14448	1774.95
3286.40168	1776.75
3288.65753	1777.75
3290.91202	1780.35
3293.16516	1774.35
3295.41695	1779.15
3297.66738	1758.15
3299.91647	1770.25
3302.16421	1753.65
3304.4106	1745.55
3306.65564	1740.85
3308.89933	1731.35
3311.14169	1725.95
3313.38269	1702.65
3315.62236	1697.05
3317.86068	1689.85
3320.09766	1684.15
3322.3333	1670.85
3324.5676	1661.75
3326.80056	1627.95
3329.03219	1625.75
3331.26248	1.25
3333.49143	1.35
3335.71905	0.05
