Data from AgNPs_UA_50uM_CRN_500uM_AS_RamanShift__26__15-35-51-573.txt Node

Date: Wed Aug 17 15:35:51 BST 2022
User: TCL
Spectrometer: QEP01345
Trigger mode: 4
Integration Time (sec): 7.000000E0
Scans to average: 10
Electric dark correction enabled: true
Nonlinearity correction enabled: false
Boxcar width: 0
XAxis mode: Raman Shifts
Number of Pixels in Spectrum: 1044
>>>>>Begin Spectral Data<<<<<
46.04893	-1.3375
50.45542	0.1625
54.85868	-1.3375
59.25871	-0.0375
63.6555	29.9625
68.04907	31.0625
72.43941	36.7625
76.82654	37.3625
81.21044	38.8625
85.59113	37.2625
89.96862	42.1625
94.34289	46.1625
98.71396	44.0625
103.08183	46.0625
107.4465	46.5625
111.80798	48.4625
116.16626	49.8625
120.52136	49.1625
124.87327	49.3625
129.222	51.7625
133.56755	50.1625
137.90993	53.1625
142.24913	63.4625
146.58517	61.6625
150.91804	69.8625
155.24774	83.0625
159.57429	93.3625
163.89768	115.9625
168.21792	154.5625
172.53501	200.9625
176.84895	275.2625
181.15975	382.9625
185.46741	526.5625
189.77193	734.2625
194.07331	976.2625
198.37157	1266.5625
202.6667	1562.2625
206.9587	1866.8625
211.24758	2217.9625
215.53334	2590.7625
219.81599	3010.0625
224.09553	3495.8625
228.37195	4037.4625
232.64527	4580.7625
236.91549	5084.7625
241.18261	5452.3625
245.44663	5691.0625
249.70755	5842.5625
253.96539	5987.4625
258.22014	6124.5625
262.4718	6261.8625
266.72039	6316.9625
270.96589	6224.3625
275.20832	6029.3625
279.44768	5784.9625
283.68397	5569.7625
287.91719	5416.8625
292.14735	5536.2625
296.37445	5875.3625
300.59849	6442.1625
304.81948	7085.3625
309.03742	7532.8625
313.25231	7555.0625
317.46415	6998.9625
321.67296	6099.3625
325.87872	5388.7625
330.08145	5076.1625
334.28114	5092.6625
338.47781	5287.7625
342.67145	5528.8625
346.86207	5943.8625
351.04966	6614.8625
355.23424	7346.6625
359.4158	7914.5625
363.59435	8123.9625
367.76989	8122.1625
371.94243	7934.3625
376.11196	7750.1625
380.27849	7583.5625
384.44203	7355.2625
388.60257	7124.2625
392.76012	6938.7625
396.91468	6971.3625
401.06626	7128.0625
405.21485	7208.6625
409.36047	6831.4625
413.50311	6136.1625
417.64277	5490.3625
421.77947	5093.5625
425.9132	4914.9625
430.04396	4868.4625
434.17176	4880.1625
438.2966	4983.2625
442.41849	5164.3625
446.53742	5320.8625
450.6534	5447.2625
454.76644	5467.6625
458.87653	5412.4625
462.98368	5308.4625
467.08789	5200.7625
471.18916	5073.6625
475.2875	4922.6625
479.38291	4790.3625
483.4754	4682.2625
487.56496	4613.9625
491.6516	4579.8625
495.73531	4593.7625
499.81612	4635.7625
503.89401	4753.2625
507.96899	4918.8625
512.04106	5127.7625
516.11023	5366.0625
520.1765	5508.1625
524.23987	5508.1625
528.30034	5387.9625
532.35792	5260.4625
536.41261	5121.7625
540.46441	4944.8625
544.51333	4842.9625
548.55936	4899.1625
552.60252	5088.0625
556.64279	5307.1625
560.6802	5444.8625
564.71473	5735.9625
568.7464	6238.1625
572.7752	6220.2625
576.80114	5576.5625
580.82422	4998.2625
584.84444	4721.0625
588.86181	4663.9625
592.87633	4720.4625
596.888	4870.7625
600.89682	5407.2625
604.9028	7087.6625
608.90594	11236.2625
612.90624	15775.0625
616.90371	13979.8625
620.89834	8159.2625
624.89015	5748.1625
628.87913	5377.9625
632.86528	5636.5625
636.84862	5904.1625
640.82913	5688.9625
644.80683	5159.9625
648.78172	4793.0625
652.75379	4851.5625
656.72306	5298.6625
660.68952	5730.0625
664.65319	5435.2625
668.61405	4876.8625
672.57211	4651.2625
676.52738	4667.4625
680.47986	4681.1625
684.42955	4607.7625
688.37646	4533.2625
692.32058	4529.6625
696.26192	4567.6625
700.20048	4658.5625
704.13626	4706.7625
708.06928	4664.0625
711.99952	4623.6625
715.927	4632.9625
719.85171	4704.8625
723.77365	4781.6625
727.69284	4752.1625
731.60928	4701.9625
735.52295	4663.6625
739.43388	4688.2625
743.34206	4727.8625
747.24749	4728.8625
751.15017	4748.6625
755.05012	4902.8625
758.94733	5495.8625
762.8418	6960.8625
766.73354	9203.6625
770.62254	11084.5625
774.50882	11815.2625
778.39237	10962.6625
782.27321	8752.6625
786.15132	6674.2625
790.02671	5532.9625
793.89938	5036.1625
797.76935	4839.1625
801.6366	4760.5625
805.50115	4727.8625
809.36299	4742.3625
813.22213	4702.0625
817.07857	4699.8625
820.93231	4700.5625
824.78336	4720.5625
828.63172	4782.1625
832.47738	4775.8625
836.32036	4740.0625
840.16066	4639.7625
843.99827	4582.8625
847.8332	4573.4625
851.66546	4576.3625
855.49504	4593.6625
859.32195	4601.4625
863.1462	4579.3625
866.96777	4586.4625
870.78668	4599.0625
874.60293	4643.0625
878.41652	4691.9625
882.22745	4764.9625
886.03573	4805.5625
889.84136	4811.0625
893.64433	4783.1625
897.44466	4772.5625
901.24235	4796.6625
905.0374	4734.7625
908.8298	4673.0625
912.61957	4613.7625
916.40671	4583.9625
920.19121	4598.1625
923.97308	4679.0625
927.75233	4847.9625
931.52895	5027.6625
935.30295	4964.6625
939.07433	4726.6625
942.84309	4529.7625
946.60924	4397.3625
950.37278	4364.3625
954.13371	4349.0625
957.89203	4338.9625
961.64774	4347.7625
965.40086	4331.0625
969.15137	4311.8625
972.89929	4304.4625
976.64461	4272.4625
980.38733	4307.1625
984.12747	4317.2625
987.86502	4339.6625
991.59999	4371.2625
995.33237	4405.9625
999.06217	4481.9625
1002.78939	4601.3625
1006.51404	4742.7625
1010.23611	4850.1625
1013.95561	4862.0625
1017.67255	4821.8625
1021.38692	4765.6625
1025.09872	4666.5625
1028.80796	4611.7625
1032.51465	4625.4625
1036.21877	4658.8625
1039.92035	4714.7625
1043.61937	4776.9625
1047.31584	4835.5625
1051.00976	4853.6625
1054.70114	4837.4625
1058.38998	4816.0625
1062.07627	4820.3625
1065.76003	4815.7625
1069.44126	4833.8625
1073.11995	4904.9625
1076.79611	5060.8625
1080.46974	5341.9625
1084.14085	5692.7625
1087.80943	5980.6625
1091.47549	6036.8625
1095.13903	5838.2625
1098.80005	5538.9625
1102.45857	5353.2625
1106.11456	5351.0625
1109.76805	5545.1625
1113.41903	5884.7625
1117.06751	6416.6625
1120.71348	7058.8625
1124.35696	7788.3625
1127.99793	8192.2625
1131.63641	7796.0625
1135.2724	6990.0625
1138.90589	6360.3625
1142.5369	5967.0625
1146.16542	5689.6625
1149.79145	5493.1625
1153.415	5437.9625
1157.03607	5473.7625
1160.65467	5603.4625
1164.27079	5870.3625
1167.88443	6307.2625
1171.49561	7002.2625
1175.10432	8240.9625
1178.71056	9942.5625
1182.31434	11297.2625
1185.91565	11440.2625
1189.51451	10645.2625
1193.11091	9423.2625
1196.70485	8349.6625
1200.29634	7759.0625
1203.88538	7307.4625
1207.47197	6704.6625
1211.05612	6095.0625
1214.63782	5730.0625
1218.21708	5541.5625
1221.79391	5463.4625
1225.36829	5456.6625
1228.94024	5435.0625
1232.50976	5430.1625
1236.07685	5449.5625
1239.6415	5508.8625
1243.20374	5563.2625
1246.76355	5643.7625
1250.32093	5769.9625
1253.8759	5856.1625
1257.42845	6082.3625
1260.97859	6344.0625
1264.52631	6700.2625
1268.07163	7000.0625
1271.61453	7225.3625
1275.15503	7267.9625
1278.69312	7241.3625
1282.22882	7308.5625
1285.76211	7612.8625
1289.29301	8059.2625
1292.82151	8480.8625
1296.34761	8952.2625
1299.87133	9825.1625
1303.39266	11425.4625
1306.9116	13912.9625
1310.42815	16205.4625
1313.94233	16436.4625
1317.45412	14488.2625
1320.96354	12056.8625
1324.47058	10006.1625
1327.97525	8497.5625
1331.47754	7662.1625
1334.97747	7351.1625
1338.47502	7483.8625
1341.97022	8103.4625
1345.46305	9303.8625
1348.95352	10930.4625
1352.44163	12985.4625
1355.92738	15795.3625
1359.41078	19990.6625
1362.89183	23301.9625
1366.37053	21297.2625
1369.84688	15936.7625
1373.32088	11824.4625
1376.79254	9634.6625
1380.26186	8461.2625
1383.72883	7662.8625
1387.19347	7081.4625
1390.65578	6572.6625
1394.11575	6195.8625
1397.57339	5957.7625
1401.0287	5837.4625
1404.48168	5737.4625
1407.93234	5711.6625
1411.38068	5738.0625
1414.82669	5900.1625
1418.27039	6016.7625
1421.71177	6066.6625
1425.15083	6002.9625
1428.58758	5998.5625
1432.02203	6168.4625
1435.45416	6235.9625
1438.88399	6180.1625
1442.31151	6074.5625
1445.73673	6095.2625
1449.15965	6119.3625
1452.58027	6103.7625
1455.9986	5997.9625
1459.41463	5968.1625
1462.82837	6055.8625
1466.23982	6247.7625
1469.64898	6456.5625
1473.05586	6538.7625
1476.46045	6548.6625
1479.86276	6621.6625
1483.26279	6856.5625
1486.66054	7221.8625
1490.05602	7846.4625
1493.44922	8740.4625
1496.84016	10316.3625
1500.22882	12923.0625
1503.61521	16654.4625
1506.99934	20712.7625
1510.38121	23388.3625
1513.76081	23029.2625
1517.13816	19677.3625
1520.51324	15268.6625
1523.88607	11765.3625
1527.25665	9689.4625
1530.62498	8589.7625
1533.99105	7915.2625
1537.35488	7505.6625
1540.71647	7290.2625
1544.07581	7256.6625
1547.4329	7381.8625
1550.78776	7591.9625
1554.14038	7816.5625
1557.49077	8089.9625
1560.83892	8455.5625
1564.18484	8980.3625
1567.52853	9645.4625
1570.86999	10170.6625
1574.20922	10405.2625
1577.54624	10120.2625
1580.88103	9113.4625
1584.2136	7941.9625
1587.54395	7171.6625
1590.87208	6991.0625
1594.19801	7289.1625
1597.52172	7703.1625
1600.84321	7821.9625
1604.16251	7520.2625
1607.47959	7187.0625
1610.79447	6863.5625
1614.10715	6513.6625
1617.41763	6179.0625
1620.7259	5968.1625
1624.03199	5939.0625
1627.33587	5997.5625
1630.63757	6176.7625
1633.93707	6530.7625
1637.23439	7143.4625
1640.52951	8275.3625
1643.82246	10138.7625
1647.11321	12497.8625
1650.40179	14063.2625
1653.68819	13424.8625
1656.97241	11095.4625
1660.25446	8814.7625
1663.53433	7316.4625
1666.81203	6475.2625
1670.08756	6019.5625
1673.36092	5703.9625
1676.63211	5534.0625
1679.90115	5415.3625
1683.16801	5344.8625
1686.43272	5285.2625
1689.69527	5248.7625
1692.95567	5222.3625
1696.2139	5231.5625
1699.46999	5201.0625
1702.72392	5209.2625
1705.97571	5176.7625
1709.22535	5158.0625
1712.47284	5146.0625
1715.71819	5132.4625
1718.96139	5106.8625
1722.20246	5088.6625
1725.44139	5067.2625
1728.67818	5029.5625
1731.91284	4975.4625
1735.14537	4930.5625
1738.37576	4937.9625
1741.60403	4932.8625
1744.83017	4922.9625
1748.05418	4929.2625
1751.27607	4929.4625
1754.49584	4927.9625
1757.71349	4932.9625
1760.92903	4907.6625
1764.14244	4874.7625
1767.35375	4870.9625
1770.56294	4858.5625
1773.77002	4833.7625
1776.97499	4815.2625
1780.17785	4799.9625
1783.37861	4784.2625
1786.57727	4785.5625
1789.77382	4762.0625
1792.96828	4763.2625
1796.16064	4750.4625
1799.3509	4726.2625
1802.53907	4744.7625
1805.72514	4730.8625
1808.90913	4714.9625
1812.09102	4677.2625
1815.27083	4678.3625
1818.44856	4668.9625
1821.6242	4691.8625
1824.79776	4673.2625
1827.96924	4671.1625
1831.13864	4663.2625
1834.30597	4658.4625
1837.47122	4651.0625
1840.6344	4631.1625
1843.7955	4626.5625
1846.95454	4635.5625
1850.11151	4630.5625
1853.26642	4628.7625
1856.41926	4636.9625
1859.57004	4624.7625
1862.71876	4619.7625
1865.86542	4642.0625
1869.01003	4651.9625
1872.15258	4675.4625
1875.29308	4681.6625
1878.43152	4687.2625
1881.56792	4669.2625
1884.70227	4666.1625
1887.83457	4684.9625
1890.96482	4664.9625
1894.09304	4658.4625
1897.21921	4664.4625
1900.34335	4654.8625
1903.46544	4659.4625
1906.58551	4675.3625
1909.70353	4688.7625
1912.81953	4688.2625
1915.93349	4670.0625
1919.04543	4676.9625
1922.15534	4666.2625
1925.26322	4680.2625
1928.36908	4663.9625
1931.47292	4646.0625
1934.57473	4660.9625
1937.67453	4648.4625
1940.77232	4629.6625
1943.86808	4630.7625
1946.96184	4601.6625
1950.05358	4588.9625
1953.14331	4589.0625
1956.23103	4582.5625
1959.31675	4603.2625
1962.40046	4582.0625
1965.48217	4583.1625
1968.56188	4591.2625
1971.63959	4589.8625
1974.7153	4568.2625
1977.78901	4565.4625
1980.86073	4534.7625
1983.93046	4509.5625
1986.99819	4522.0625
1990.06394	4522.2625
1993.1277	4513.3625
1996.18947	4499.4625
1999.24925	4499.4625
2002.30706	4473.6625
2005.36288	4457.8625
2008.41672	4459.6625
2011.46859	4448.9625
2014.51848	4450.7625
2017.56639	4415.8625
2020.61233	4446.9625
2023.6563	4424.9625
2026.6983	4408.6625
2029.73833	4418.3625
2032.7764	4394.9625
2035.8125	4391.2625
2038.84664	4384.2625
2041.87881	4395.5625
2044.90903	4395.9625
2047.93729	4418.6625
2050.96359	4386.8625
2053.98794	4394.4625
2057.01034	4394.8625
2060.03078	4374.9625
2063.04927	4391.5625
2066.06582	4388.5625
2069.08042	4398.5625
2072.09307	4404.4625
2075.10378	4400.5625
2078.11255	4401.8625
2081.11938	4405.5625
2084.12426	4408.2625
2087.12722	4421.2625
2090.12824	4430.8625
2093.12732	4429.7625
2096.12447	4455.3625
2099.11969	4468.1625
2102.11299	4455.1625
2105.10435	4466.6625
2108.09379	4459.0625
2111.08131	4477.3625
2114.0669	4503.8625
2117.05057	4513.4625
2120.03233	4531.5625
2123.01216	4556.1625
2125.99008	4562.8625
2128.96609	4569.1625
2131.94018	4578.3625
2134.91236	4574.1625
2137.88263	4579.8625
2140.851	4596.7625
2143.81746	4619.0625
2146.78201	4603.5625
2149.74466	4607.9625
2152.7054	4592.6625
2155.66425	4575.8625
2158.6212	4589.1625
2161.57625	4598.7625
2164.52941	4611.8625
2167.48067	4595.5625
2170.43004	4605.8625
2173.37752	4614.4625
2176.32311	4632.1625
2179.26681	4642.2625
2182.20863	4646.9625
2185.14856	4669.5625
2188.08661	4668.1625
2191.02278	4657.3625
2193.95707	4662.6625
2196.88948	4658.7625
2199.82001	4655.8625
2202.74867	4650.0625
2205.67545	4688.6625
2208.60037	4678.9625
2211.52341	4693.9625
2214.44458	4672.2625
2217.36388	4670.5625
2220.28132	4671.6625
2223.1969	4640.8625
2226.11061	4626.4625
2229.02246	4620.0625
2231.93245	4635.9625
2234.84058	4652.3625
2237.74686	4631.2625
2240.65128	4644.5625
2243.55385	4672.6625
2246.45456	4675.8625
2249.35343	4680.9625
2252.25044	4665.1625
2255.14561	4685.3625
2258.03893	4705.4625
2260.93041	4711.1625
2263.82004	4692.4625
2266.70783	4701.5625
2269.59378	4706.5625
2272.4779	4675.6625
2275.36017	4683.1625
2278.24061	4673.2625
2281.11922	4676.6625
2283.996	4679.1625
2286.87094	4660.7625
2289.74405	4649.5625
2292.61534	4642.0625
2295.4848	4646.9625
2298.35243	4647.5625
2301.21824	4650.7625
2304.08223	4655.2625
2306.94439	4663.8625
2309.80474	4676.4625
2312.66327	4673.1625
2315.51999	4660.4625
2318.37489	4658.6625
2321.22797	4660.5625
2324.07925	4648.3625
2326.92871	4656.8625
2329.77637	4653.7625
2332.62222	4658.2625
2335.46626	4661.1625
2338.3085	4664.7625
2341.14893	4657.6625
2343.98756	4660.7625
2346.8244	4677.1625
2349.65943	4660.7625
2352.49267	4701.2625
2355.32411	4686.6625
2358.15376	4723.7625
2360.98161	4728.3625
2363.80768	4737.5625
2366.63195	4757.8625
2369.45444	4760.6625
2372.27514	4767.5625
2375.09405	4767.5625
2377.91118	4762.1625
2380.72652	4752.3625
2383.54009	4752.6625
2386.35187	4742.4625
2389.16188	4702.9625
2391.97011	4705.1625
2394.77657	4679.3625
2397.58125	4705.1625
2400.38416	4674.1625
2403.18529	4680.1625
2405.98466	4674.1625
2408.78226	4652.3625
2411.57809	4638.6625
2414.37216	4646.9625
2417.16446	4670.5625
2419.955	4698.4625
2422.74378	4690.7625
2425.5308	4698.8625
2428.31606	4678.0625
2431.09956	4693.3625
2433.88131	4706.8625
2436.6613	4707.8625
2439.43954	4719.3625
2442.21603	4706.2625
2444.99077	4720.4625
2447.76377	4710.4625
2450.53501	4714.4625
2453.30451	4710.1625
2456.07226	4726.0625
2458.83827	4727.5625
2461.60254	4727.0625
2464.36507	4727.1625
2467.12586	4721.1625
2469.88492	4720.1625
2472.64224	4748.0625
2475.39782	4754.7625
2478.15167	4769.3625
2480.90379	4772.9625
2483.65417	4769.3625
2486.40283	4795.8625
2489.14976	4821.0625
2491.89497	4837.5625
2494.63845	4828.9625
2497.3802	4820.3625
2500.12024	4798.7625
2502.85855	4813.3625
2505.59514	4780.7625
2508.33002	4780.4625
2511.06318	4784.8625
2513.79462	4755.2625
2516.52435	4730.5625
2519.25237	4711.4625
2521.97867	4713.3625
2524.70327	4732.5625
2527.42616	4711.6625
2530.14734	4704.6625
2532.86681	4702.6625
2535.58458	4717.1625
2538.30065	4730.4625
2541.01501	4731.5625
2543.72768	4749.4625
2546.43864	4762.0625
2549.14791	4735.3625
2551.85548	4708.6625
2554.56136	4700.6625
2557.26554	4732.3625
2559.96803	4736.9625
2562.66883	4730.3625
2565.36794	4728.9625
2568.06536	4698.2625
2570.7611	4692.5625
2573.45514	4682.2625
2576.14751	4695.8625
2578.83819	4671.3625
2581.52719	4666.7625
2584.21451	4696.8625
2586.90015	4690.1625
2589.58411	4680.6625
2592.2664	4692.8625
2594.94701	4690.5625
2597.62594	4696.2625
2600.30321	4677.4625
2602.9788	4677.4625
2605.65273	4675.7625
2608.32498	4696.5625
2610.99557	4683.5625
2613.66449	4692.8625
2616.33175	4697.7625
2618.99734	4683.8625
2621.66128	4660.8625
2624.32355	4649.0625
2626.98416	4664.9625
2629.64311	4649.1625
2632.30041	4654.5625
2634.95605	4650.1625
2637.61004	4632.7625
2640.26238	4633.0625
2642.91306	4620.2625
2645.56209	4633.1625
2648.20948	4618.9625
2650.85521	4641.0625
2653.4993	4654.9625
2656.14175	4644.3625
2658.78255	4659.5625
2661.42171	4687.2625
2664.05923	4677.1625
2666.6951	4699.5625
2669.32934	4715.9625
2671.96194	4721.0625
2674.59291	4714.2625
2677.22224	4720.1625
2679.84993	4724.3625
2682.476	4727.0625
2685.10043	4738.7625
2687.72324	4709.9625
2690.34441	4710.3625
2692.96396	4716.4625
2695.58188	4729.8625
2698.19818	4742.6625
2700.81285	4744.0625
2703.4259	4757.1625
2706.03733	4756.6625
2708.64714	4744.6625
2711.25533	4730.1625
2713.86191	4743.8625
2716.46687	4766.6625
2719.07021	4782.7625
2721.67194	4778.8625
2724.27206	4783.5625
2726.87057	4813.3625
2729.46747	4789.7625
2732.06276	4797.2625
2734.65644	4792.3625
2737.24852	4777.4625
2739.83899	4768.0625
2742.42786	4796.9625
2745.01513	4758.7625
2747.60079	4749.5625
2750.18486	4745.1625
2752.76733	4772.7625
2755.3482	4746.9625
2757.92747	4740.1625
2760.50515	4742.0625
2763.08123	4750.0625
2765.65573	4731.0625
2768.22863	4727.9625
2770.79994	4738.8625
2773.36967	4750.0625
2775.9378	4732.2625
2778.50435	4711.1625
2781.06932	4721.9625
2783.6327	4719.6625
2786.1945	4731.1625
2788.75471	4742.4625
2791.31335	4730.7625
2793.87041	4732.5625
2796.42589	4739.0625
2798.97979	4732.5625
2801.53212	4740.9625
2804.08288	4726.2625
2806.63206	4739.1625
2809.17967	4753.1625
2811.72571	4743.5625
2814.27018	4746.1625
2816.81308	4748.9625
2819.35442	4729.0625
2821.89419	4741.8625
2824.43239	4748.2625
2826.96904	4750.6625
2829.50412	4761.1625
2832.03763	4743.8625
2834.56959	4728.7625
2837.1	4713.5625
2839.62884	4719.5625
2842.15613	4722.9625
2844.68186	4739.7625
2847.20604	4750.3625
2849.72867	4749.2625
2852.24974	4737.9625
2854.76927	4758.9625
2857.28724	4777.8625
2859.80367	4777.5625
2862.31855	4787.5625
2864.83189	4802.0625
2867.34368	4798.6625
2869.85393	4806.8625
2872.36264	4808.5625
2874.8698	4826.6625
2877.37543	4809.9625
2879.87952	4811.3625
2882.38207	4821.4625
2884.88308	4820.9625
2887.38256	4829.8625
2889.88051	4821.6625
2892.37692	4837.0625
2894.8718	4838.7625
2897.36515	4861.6625
2899.85698	4863.7625
2902.34727	4871.2625
2904.83604	4886.2625
2907.32328	4899.0625
2909.809	4907.5625
2912.29319	4913.1625
2914.77587	4913.5625
2917.25702	4912.0625
2919.73665	4910.2625
2922.21476	4907.2625
2924.69136	4896.7625
2927.16644	4879.9625
2929.64	4897.9625
2932.11205	4892.6625
2934.58258	4890.2625
2937.05161	4891.1625
2939.51912	4918.8625
2941.98513	4939.1625
2944.44962	4920.7625
2946.91261	4909.0625
2949.37409	4901.5625
2951.83407	4913.1625
2954.29254	4905.4625
2956.74951	4914.6625
2959.20498	4900.0625
2961.65895	4901.4625
2964.11142	4896.7625
2966.56239	4895.7625
2969.01186	4888.8625
2971.45984	4905.9625
2973.90632	4892.5625
2976.35131	4874.5625
2978.7948	4885.3625
2981.23681	4863.5625
2983.67732	4883.2625
2986.11635	4877.3625
2988.55388	4854.6625
2990.98993	4862.2625
2993.4245	4856.0625
2995.85758	4850.4625
2998.28917	4839.6625
3000.71928	4827.5625
3003.14791	4848.8625
3005.57506	4853.1625
3008.00073	4821.2625
3010.42493	4799.7625
3012.84764	4841.5625
3015.26888	4832.1625
3017.68865	4819.8625
3020.10694	4822.3625
3022.52376	4822.8625
3024.9391	4828.8625
3027.35298	4811.4625
3029.76539	4797.0625
3032.17632	4802.1625
3034.5858	4787.6625
3036.9938	4786.4625
3039.40034	4780.8625
3041.80542	4802.9625
3044.20903	4793.4625
3046.61118	4797.9625
3049.01187	4778.2625
3051.4111	4788.2625
3053.80888	4787.4625
3056.20519	4789.4625
3058.60005	4792.4625
3060.99345	4815.2625
3063.3854	4797.7625
3065.7759	4780.5625
3068.16494	4746.9625
3070.55254	4728.4625
3072.93868	4737.2625
3075.32338	4724.3625
3077.70662	4710.9625
3080.08842	4715.0625
3082.46878	4729.5625
3084.84769	4735.4625
3087.22515	4752.3625
3089.60118	4733.1625
3091.97576	4727.4625
3094.3489	4733.6625
3096.72061	4749.9625
3099.09087	4773.1625
3101.4597	4796.2625
3103.82709	4813.2625
3106.19305	4803.2625
3108.55757	4817.5625
3110.92066	4812.2625
3113.28232	4824.1625
3115.64255	4820.0625
3118.00134	4830.7625
3120.35871	4810.1625
3122.71466	4811.5625
3125.06917	4794.5625
