Data from AgNPs_UA_50uM_CRN_500uM_AS_RamanShift__29__15-39-21-579.txt Node

Date: Wed Aug 17 15:39:21 BST 2022
User: TCL
Spectrometer: QEP01345
Trigger mode: 4
Integration Time (sec): 7.000000E0
Scans to average: 10
Electric dark correction enabled: true
Nonlinearity correction enabled: false
Boxcar width: 0
XAxis mode: Raman Shifts
Number of Pixels in Spectrum: 1044
>>>>>Begin Spectral Data<<<<<
46.04893	-0.7125
50.45542	-1.8125
54.85868	-1.5125
59.25871	-0.3125
63.6555	32.8875
68.04907	32.1875
72.43941	34.8875
76.82654	34.3875
81.21044	40.3875
85.59113	39.7875
89.96862	41.5875
94.34289	45.4875
98.71396	44.2875
103.08183	46.5875
107.4465	47.8875
111.80798	45.0875
116.16626	50.1875
120.52136	46.4875
124.87327	47.2875
129.222	49.2875
133.56755	50.3875
137.90993	53.2875
142.24913	59.9875
146.58517	64.3875
150.91804	66.6875
155.24774	77.4875
159.57429	90.2875
163.89768	110.2875
168.21792	141.3875
172.53501	191.8875
176.84895	254.2875
181.15975	357.9875
185.46741	493.3875
189.77193	690.5875
194.07331	914.4875
198.37157	1187.7875
202.6667	1472.9875
206.9587	1763.6875
211.24758	2079.0875
215.53334	2443.0875
219.81599	2805.8875
224.09553	3279.5875
228.37195	3776.1875
232.64527	4287.4875
236.91549	4749.8875
241.18261	5114.5875
245.44663	5332.6875
249.70755	5505.2875
253.96539	5666.2875
258.22014	5760.5875
262.4718	5835.7875
266.72039	5827.9875
270.96589	5697.1875
275.20832	5483.4875
279.44768	5250.7875
283.68397	5057.5875
287.91719	4977.5875
292.14735	5054.9875
296.37445	5362.9875
300.59849	5851.6875
304.81948	6476.9875
309.03742	6954.3875
313.25231	7075.9875
317.46415	6592.1875
321.67296	5764.9875
325.87872	5089.9875
330.08145	4807.0875
334.28114	4829.7875
338.47781	5013.7875
342.67145	5284.7875
346.86207	5698.5875
351.04966	6338.7875
355.23424	7069.5875
359.4158	7532.3875
363.59435	7646.0875
367.76989	7514.6875
371.94243	7284.4875
376.11196	7017.4875
380.27849	6814.0875
384.44203	6580.6875
388.60257	6375.6875
392.76012	6232.2875
396.91468	6275.3875
401.06626	6452.7875
405.21485	6554.7875
409.36047	6218.3875
413.50311	5620.9875
417.64277	5070.2875
421.77947	4743.2875
425.9132	4598.5875
430.04396	4564.6875
434.17176	4587.9875
438.2966	4701.2875
442.41849	4850.8875
446.53742	5027.5875
450.6534	5144.1875
454.76644	5132.1875
458.87653	5064.3875
462.98368	4972.3875
467.08789	4839.5875
471.18916	4727.7875
475.2875	4584.6875
479.38291	4465.7875
483.4754	4370.4875
487.56496	4320.5875
491.6516	4311.5875
495.73531	4315.2875
499.81612	4345.0875
503.89401	4432.7875
507.96899	4566.5875
512.04106	4741.0875
516.11023	4935.1875
520.1765	5073.6875
524.23987	5084.1875
528.30034	5005.3875
532.35792	4933.1875
536.41261	4809.9875
540.46441	4631.6875
544.51333	4541.2875
548.55936	4562.1875
552.60252	4713.2875
556.64279	4902.1875
560.6802	5045.3875
564.71473	5409.8875
568.7464	5941.5875
572.7752	5923.7875
576.80114	5255.5875
580.82422	4686.0875
584.84444	4445.5875
588.86181	4379.8875
592.87633	4407.8875
596.888	4567.1875
600.89682	5024.3875
604.9028	6498.1875
608.90594	10123.3875
612.90624	14055.6875
616.90371	12443.6875
620.89834	7444.3875
624.89015	5376.1875
628.87913	5110.0875
632.86528	5384.0875
636.84862	5579.2875
640.82913	5307.2875
644.80683	4821.3875
648.78172	4524.0875
652.75379	4578.8875
656.72306	4967.0875
660.68952	5309.7875
664.65319	5044.9875
668.61405	4543.0875
672.57211	4370.9875
676.52738	4403.1875
680.47986	4401.8875
684.42955	4331.4875
688.37646	4273.4875
692.32058	4273.5875
696.26192	4336.0875
700.20048	4411.4875
704.13626	4460.6875
708.06928	4432.5875
711.99952	4366.3875
715.927	4396.9875
719.85171	4466.0875
723.77365	4531.3875
727.69284	4514.5875
731.60928	4439.1875
735.52295	4432.0875
739.43388	4408.1875
743.34206	4448.8875
747.24749	4468.1875
751.15017	4486.1875
755.05012	4652.5875
758.94733	5237.7875
762.8418	6617.0875
766.73354	8470.1875
770.62254	9818.7875
774.50882	10328.4875
778.39237	9760.5875
782.27321	7999.9875
786.15132	6178.5875
790.02671	5177.1875
793.89938	4729.8875
797.76935	4570.9875
801.6366	4519.3875
805.50115	4480.8875
809.36299	4507.1875
813.22213	4509.1875
817.07857	4491.6875
820.93231	4471.8875
824.78336	4512.3875
828.63172	4554.5875
832.47738	4574.8875
836.32036	4524.1875
840.16066	4435.3875
843.99827	4371.9875
847.8332	4364.0875
851.66546	4377.3875
855.49504	4365.7875
859.32195	4368.3875
863.1462	4360.6875
866.96777	4354.6875
870.78668	4386.1875
874.60293	4406.8875
878.41652	4483.0875
882.22745	4582.5875
886.03573	4646.0875
889.84136	4633.1875
893.64433	4602.9875
897.44466	4614.8875
901.24235	4593.4875
905.0374	4546.1875
908.8298	4467.7875
912.61957	4405.3875
916.40671	4391.7875
920.19121	4402.6875
923.97308	4468.2875
927.75233	4646.5875
931.52895	4828.1875
935.30295	4716.3875
939.07433	4482.0875
942.84309	4311.6875
946.60924	4225.2875
950.37278	4186.8875
954.13371	4177.0875
957.89203	4189.0875
961.64774	4205.6875
965.40086	4180.0875
969.15137	4171.1875
972.89929	4179.1875
976.64461	4145.3875
980.38733	4170.4875
984.12747	4181.8875
987.86502	4202.4875
991.59999	4233.4875
995.33237	4273.4875
999.06217	4361.0875
1002.78939	4436.8875
1006.51404	4559.9875
1010.23611	4642.1875
1013.95561	4661.6875
1017.67255	4621.3875
1021.38692	4559.6875
1025.09872	4500.1875
1028.80796	4436.7875
1032.51465	4457.8875
1036.21877	4504.6875
1039.92035	4543.3875
1043.61937	4595.2875
1047.31584	4664.8875
1051.00976	4659.6875
1054.70114	4651.8875
1058.38998	4634.3875
1062.07627	4662.6875
1065.76003	4668.9875
1069.44126	4674.6875
1073.11995	4758.2875
1076.79611	4911.3875
1080.46974	5181.7875
1084.14085	5500.8875
1087.80943	5714.3875
1091.47549	5723.0875
1095.13903	5532.9875
1098.80005	5257.3875
1102.45857	5103.4875
1106.11456	5114.7875
1109.76805	5251.6875
1113.41903	5542.3875
1117.06751	6016.9875
1120.71348	6672.9875
1124.35696	7414.8875
1127.99793	7740.7875
1131.63641	7258.5875
1135.2724	6499.8875
1138.90589	5970.3875
1142.5369	5638.0875
1146.16542	5392.3875
1149.79145	5264.1875
1153.415	5189.1875
1157.03607	5210.7875
1160.65467	5330.2875
1164.27079	5567.7875
1167.88443	5918.6875
1171.49561	6565.5875
1175.10432	7580.6875
1178.71056	8952.1875
1182.31434	9959.7875
1185.91565	10013.0875
1189.51451	9416.1875
1193.11091	8539.5875
1196.70485	7796.4875
1200.29634	7323.6875
1203.88538	6903.0875
1207.47197	6358.8875
1211.05612	5840.2875
1214.63782	5513.2875
1218.21708	5333.4875
1221.79391	5267.1875
1225.36829	5252.9875
1228.94024	5246.1875
1232.50976	5255.1875
1236.07685	5267.1875
1239.6415	5338.2875
1243.20374	5395.3875
1246.76355	5479.2875
1250.32093	5570.8875
1253.8759	5688.8875
1257.42845	5879.0875
1260.97859	6147.3875
1264.52631	6441.6875
1268.07163	6671.0875
1271.61453	6792.0875
1275.15503	6774.5875
1278.69312	6747.1875
1282.22882	6820.2875
1285.76211	7124.7875
1289.29301	7504.4875
1292.82151	7756.2875
1296.34761	8133.6875
1299.87133	8797.4875
1303.39266	10117.3875
1306.9116	12208.2875
1310.42815	14103.1875
1313.94233	14308.5875
1317.45412	12676.1875
1320.96354	10643.0875
1324.47058	8907.2875
1327.97525	7681.7875
1331.47754	7045.5875
1334.97747	6861.2875
1338.47502	7043.2875
1341.97022	7694.3875
1345.46305	8760.1875
1348.95352	10108.1875
1352.44163	11703.4875
1355.92738	14110.2875
1359.41078	17624.3875
1362.89183	19776.5875
1366.37053	17611.6875
1369.84688	13381.4875
1373.32088	10402.3875
1376.79254	8775.5875
1380.26186	7814.1875
1383.72883	7119.4875
1387.19347	6566.8875
1390.65578	6110.6875
1394.11575	5791.0875
1397.57339	5608.9875
1401.0287	5530.5875
1404.48168	5464.0875
1407.93234	5443.7875
1411.38068	5503.6875
1414.82669	5620.7875
1418.27039	5703.8875
1421.71177	5707.1875
1425.15083	5691.9875
1428.58758	5772.0875
1432.02203	5908.1875
1435.45416	5921.5875
1438.88399	5837.7875
1442.31151	5771.0875
1445.73673	5781.6875
1449.15965	5810.8875
1452.58027	5764.3875
1455.9986	5689.6875
1459.41463	5679.8875
1462.82837	5789.7875
1466.23982	5939.0875
1469.64898	6071.0875
1473.05586	6087.9875
1476.46045	6082.8875
1479.86276	6152.3875
1483.26279	6382.0875
1486.66054	6724.3875
1490.05602	7218.8875
1493.44922	8055.0875
1496.84016	9381.2875
1500.22882	11506.5875
1503.61521	14462.4875
1506.99934	17707.1875
1510.38121	19928.4875
1513.76081	19738.5875
1517.13816	17111.9875
1520.51324	13535.2875
1523.88607	10665.8875
1527.25665	8877.3875
1530.62498	7920.6875
1533.99105	7359.8875
1537.35488	7016.9875
1540.71647	6864.8875
1544.07581	6873.1875
1547.4329	6982.1875
1550.78776	7134.8875
1554.14038	7310.5875
1557.49077	7486.7875
1560.83892	7795.4875
1564.18484	8279.5875
1567.52853	8832.9875
1570.86999	9214.6875
1574.20922	9326.2875
1577.54624	9066.2875
1580.88103	8249.0875
1584.2136	7299.4875
1587.54395	6702.7875
1590.87208	6593.3875
1594.19801	6841.8875
1597.52172	7211.7875
1600.84321	7325.8875
1604.16251	7113.0875
1607.47959	6800.3875
1610.79447	6503.5875
1614.10715	6202.5875
1617.41763	5932.2875
1620.7259	5819.4875
1624.03199	5783.4875
1627.33587	5845.0875
1630.63757	6010.1875
1633.93707	6329.8875
1637.23439	6903.1875
1640.52951	7919.6875
1643.82246	9578.2875
1647.11321	11532.8875
1650.40179	12644.8875
1653.68819	11942.6875
1656.97241	10015.2875
1660.25446	8109.6875
1663.53433	6888.1875
1666.81203	6194.5875
1670.08756	5821.3875
1673.36092	5569.7875
1676.63211	5412.8875
1679.90115	5324.2875
1683.16801	5263.1875
1686.43272	5224.9875
1689.69527	5183.9875
1692.95567	5175.2875
1696.2139	5191.2875
1699.46999	5166.8875
1702.72392	5190.2875
1705.97571	5137.4875
1709.22535	5127.3875
1712.47284	5116.1875
1715.71819	5114.1875
1718.96139	5109.4875
1722.20246	5075.1875
1725.44139	5047.4875
1728.67818	5016.2875
1731.91284	4981.7875
1735.14537	4944.9875
1738.37576	4947.4875
1741.60403	4927.6875
1744.83017	4951.8875
1748.05418	4940.6875
1751.27607	4945.1875
1754.49584	4947.3875
1757.71349	4937.2875
1760.92903	4929.4875
1764.14244	4912.6875
1767.35375	4911.1875
1770.56294	4879.4875
1773.77002	4864.4875
1776.97499	4850.3875
1780.17785	4838.6875
1783.37861	4834.8875
1786.57727	4805.0875
1789.77382	4806.4875
1792.96828	4794.2875
1796.16064	4806.4875
1799.3509	4794.6875
1802.53907	4789.3875
1805.72514	4767.0875
1808.90913	4747.5875
1812.09102	4743.1875
1815.27083	4737.9875
1818.44856	4725.3875
1821.6242	4755.0875
1824.79776	4742.0875
1827.96924	4745.3875
1831.13864	4734.3875
1834.30597	4726.4875
1837.47122	4711.6875
1840.6344	4697.1875
1843.7955	4709.9875
1846.95454	4705.0875
1850.11151	4698.1875
1853.26642	4708.6875
1856.41926	4710.8875
1859.57004	4715.5875
1862.71876	4703.2875
1865.86542	4727.7875
1869.01003	4733.1875
1872.15258	4745.1875
1875.29308	4752.0875
1878.43152	4761.7875
1881.56792	4740.9875
1884.70227	4757.6875
1887.83457	4756.4875
1890.96482	4740.8875
1894.09304	4734.5875
1897.21921	4751.0875
1900.34335	4732.9875
1903.46544	4756.1875
1906.58551	4762.1875
1909.70353	4772.0875
1912.81953	4771.6875
1915.93349	4757.6875
1919.04543	4750.2875
1922.15534	4752.6875
1925.26322	4758.8875
1928.36908	4761.4875
1931.47292	4730.1875
1934.57473	4724.0875
1937.67453	4733.8875
1940.77232	4718.3875
1943.86808	4705.3875
1946.96184	4684.0875
1950.05358	4687.9875
1953.14331	4689.4875
1956.23103	4674.6875
1959.31675	4670.5875
1962.40046	4692.0875
1965.48217	4673.8875
1968.56188	4693.1875
1971.63959	4664.7875
1974.7153	4657.7875
1977.78901	4643.2875
1980.86073	4637.8875
1983.93046	4619.8875
1986.99819	4617.8875
1990.06394	4602.4875
1993.1277	4597.8875
1996.18947	4594.1875
1999.24925	4595.1875
2002.30706	4559.3875
2005.36288	4551.1875
2008.41672	4566.7875
2011.46859	4538.3875
2014.51848	4535.9875
2017.56639	4541.0875
2020.61233	4542.9875
2023.6563	4529.0875
2026.6983	4526.9875
2029.73833	4506.4875
2032.7764	4494.8875
2035.8125	4503.0875
2038.84664	4521.0875
2041.87881	4501.4875
2044.90903	4494.4875
2047.93729	4490.8875
2050.96359	4482.5875
2053.98794	4483.1875
2057.01034	4493.3875
2060.03078	4480.7875
2063.04927	4482.6875
2066.06582	4516.5875
2069.08042	4502.8875
2072.09307	4507.7875
2075.10378	4515.3875
2078.11255	4509.9875
2081.11938	4520.2875
2084.12426	4510.9875
2087.12722	4529.3875
2090.12824	4552.5875
2093.12732	4575.8875
2096.12447	4585.8875
2099.11969	4571.8875
2102.11299	4572.2875
2105.10435	4580.0875
2108.09379	4580.3875
2111.08131	4592.8875
2114.0669	4604.0875
2117.05057	4626.6875
2120.03233	4644.2875
2123.01216	4649.7875
2125.99008	4665.1875
2128.96609	4694.1875
2131.94018	4680.1875
2134.91236	4693.7875
2137.88263	4730.2875
2140.851	4710.2875
2143.81746	4737.1875
2146.78201	4733.0875
2149.74466	4741.3875
2152.7054	4737.8875
2155.66425	4714.3875
2158.6212	4703.9875
2161.57625	4718.6875
2164.52941	4741.1875
2167.48067	4739.8875
2170.43004	4736.2875
2173.37752	4750.4875
2176.32311	4753.8875
2179.26681	4781.1875
2182.20863	4794.0875
2185.14856	4783.8875
2188.08661	4791.8875
2191.02278	4805.0875
2193.95707	4799.4875
2196.88948	4799.5875
2199.82001	4807.5875
2202.74867	4782.2875
2205.67545	4818.3875
2208.60037	4830.2875
2211.52341	4826.6875
2214.44458	4824.1875
2217.36388	4807.6875
2220.28132	4805.1875
2223.1969	4778.3875
2226.11061	4768.3875
2229.02246	4762.7875
2231.93245	4775.8875
2234.84058	4789.4875
2237.74686	4783.6875
2240.65128	4788.0875
2243.55385	4817.0875
2246.45456	4825.7875
2249.35343	4818.4875
2252.25044	4807.6875
2255.14561	4835.3875
2258.03893	4836.7875
2260.93041	4839.9875
2263.82004	4846.9875
2266.70783	4840.7875
2269.59378	4833.2875
2272.4779	4816.9875
2275.36017	4821.1875
2278.24061	4821.8875
2281.11922	4823.7875
2283.996	4819.3875
2286.87094	4818.3875
2289.74405	4796.9875
2292.61534	4787.3875
2295.4848	4803.3875
2298.35243	4790.8875
2301.21824	4785.1875
2304.08223	4819.2875
2306.94439	4836.3875
2309.80474	4827.5875
2312.66327	4822.1875
2315.51999	4826.5875
2318.37489	4804.0875
2321.22797	4817.0875
2324.07925	4808.5875
2326.92871	4799.2875
2329.77637	4804.1875
2332.62222	4790.9875
2335.46626	4807.6875
2338.3085	4811.9875
2341.14893	4803.2875
2343.98756	4813.5875
2346.8244	4815.8875
2349.65943	4824.3875
2352.49267	4816.2875
2355.32411	4833.0875
2358.15376	4853.8875
2360.98161	4859.6875
2363.80768	4880.1875
2366.63195	4886.3875
2369.45444	4898.5875
2372.27514	4882.1875
2375.09405	4884.5875
2377.91118	4885.2875
2380.72652	4881.9875
2383.54009	4891.6875
2386.35187	4879.2875
2389.16188	4856.8875
2391.97011	4841.1875
2394.77657	4839.1875
2397.58125	4852.0875
2400.38416	4840.7875
2403.18529	4833.1875
2405.98466	4820.3875
2408.78226	4809.2875
2411.57809	4796.9875
2414.37216	4802.4875
2417.16446	4822.0875
2419.955	4839.4875
2422.74378	4846.9875
2425.5308	4852.7875
2428.31606	4841.4875
2431.09956	4860.5875
2433.88131	4855.4875
2436.6613	4874.5875
2439.43954	4880.5875
2442.21603	4878.6875
2444.99077	4867.0875
2447.76377	4841.2875
2450.53501	4860.0875
2453.30451	4866.0875
2456.07226	4882.8875
2458.83827	4883.4875
2461.60254	4882.1875
2464.36507	4875.3875
2467.12586	4879.3875
2469.88492	4858.9875
2472.64224	4860.6875
2475.39782	4908.1875
2478.15167	4906.3875
2480.90379	4901.5875
2483.65417	4907.9875
2486.40283	4934.5875
2489.14976	4949.6875
2491.89497	4950.1875
2494.63845	4954.5875
2497.3802	4968.7875
2500.12024	4957.4875
2502.85855	4947.2875
2505.59514	4922.3875
2508.33002	4918.3875
2511.06318	4932.3875
2513.79462	4906.2875
2516.52435	4896.8875
2519.25237	4884.4875
2521.97867	4880.8875
2524.70327	4870.8875
2527.42616	4870.7875
2530.14734	4876.4875
2532.86681	4876.3875
2535.58458	4871.8875
2538.30065	4890.5875
2541.01501	4905.9875
2543.72768	4898.4875
2546.43864	4888.2875
2549.14791	4892.7875
2551.85548	4874.7875
2554.56136	4873.7875
2557.26554	4874.4875
2559.96803	4902.2875
2562.66883	4901.2875
2565.36794	4884.2875
2568.06536	4856.4875
2570.7611	4860.1875
2573.45514	4844.9875
2576.14751	4837.1875
2578.83819	4825.7875
2581.52719	4830.6875
2584.21451	4853.1875
2586.90015	4857.5875
2589.58411	4853.5875
2592.2664	4850.4875
2594.94701	4853.7875
2597.62594	4861.9875
2600.30321	4847.2875
2602.9788	4863.9875
2605.65273	4848.4875
2608.32498	4863.0875
2610.99557	4856.9875
2613.66449	4863.6875
2616.33175	4859.6875
2618.99734	4846.3875
2621.66128	4842.3875
2624.32355	4819.6875
2626.98416	4830.9875
2629.64311	4829.0875
2632.30041	4846.9875
2634.95605	4804.5875
2637.61004	4805.0875
2640.26238	4802.3875
2642.91306	4798.4875
2645.56209	4799.2875
2648.20948	4805.9875
2650.85521	4798.9875
2653.4993	4814.3875
2656.14175	4825.7875
2658.78255	4845.0875
2661.42171	4869.2875
2664.05923	4865.9875
2666.6951	4880.6875
2669.32934	4890.0875
2671.96194	4891.5875
2674.59291	4883.1875
2677.22224	4879.1875
2679.84993	4901.6875
2682.476	4902.3875
2685.10043	4893.5875
2687.72324	4888.3875
2690.34441	4886.3875
2692.96396	4894.8875
2695.58188	4910.5875
2698.19818	4919.3875
2700.81285	4930.7875
2703.4259	4936.6875
2706.03733	4947.3875
2708.64714	4930.6875
2711.25533	4918.8875
2713.86191	4937.0875
2716.46687	4943.1875
2719.07021	4952.1875
2721.67194	4972.2875
2724.27206	4983.4875
2726.87057	5003.3875
2729.46747	4977.1875
2732.06276	4974.1875
2734.65644	4964.8875
2737.24852	4959.4875
2739.83899	4952.5875
2742.42786	4963.5875
2745.01513	4945.3875
2747.60079	4937.8875
2750.18486	4944.3875
2752.76733	4943.6875
2755.3482	4931.3875
2757.92747	4939.6875
2760.50515	4930.1875
2763.08123	4927.0875
2765.65573	4918.3875
2768.22863	4926.7875
2770.79994	4903.4875
2773.36967	4939.7875
2775.9378	4930.1875
2778.50435	4927.3875
2781.06932	4931.8875
2783.6327	4913.2875
2786.1945	4936.9875
2788.75471	4940.1875
2791.31335	4926.9875
2793.87041	4932.4875
2796.42589	4935.5875
2798.97979	4944.3875
2801.53212	4931.8875
2804.08288	4942.2875
2806.63206	4932.8875
2809.17967	4944.6875
2811.72571	4927.3875
2814.27018	4930.7875
2816.81308	4935.5875
2819.35442	4928.5875
2821.89419	4936.1875
2824.43239	4929.9875
2826.96904	4929.6875
2829.50412	4952.4875
2832.03763	4941.3875
2834.56959	4930.1875
2837.1	4922.3875
2839.62884	4929.3875
2842.15613	4928.1875
2844.68186	4933.7875
2847.20604	4954.8875
2849.72867	4951.1875
2852.24974	4954.2875
2854.76927	4964.7875
2857.28724	4979.5875
2859.80367	4981.1875
2862.31855	4990.6875
2864.83189	5008.0875
2867.34368	5003.6875
2869.85393	4997.7875
2872.36264	5001.9875
2874.8698	5001.4875
2877.37543	4998.2875
2879.87952	5012.3875
2882.38207	5006.6875
2884.88308	4989.5875
2887.38256	5025.6875
2889.88051	5030.6875
2892.37692	5029.0875
2894.8718	5046.4875
2897.36515	5064.3875
2899.85698	5048.7875
2902.34727	5085.0875
2904.83604	5080.2875
2907.32328	5095.7875
2909.809	5078.3875
2912.29319	5099.1875
2914.77587	5112.1875
2917.25702	5114.0875
2919.73665	5115.7875
2922.21476	5093.7875
2924.69136	5096.4875
2927.16644	5084.9875
2929.64	5089.6875
2932.11205	5096.0875
2934.58258	5079.4875
2937.05161	5093.8875
2939.51912	5098.0875
2941.98513	5134.0875
2944.44962	5113.7875
2946.91261	5109.5875
2949.37409	5108.4875
2951.83407	5104.9875
2954.29254	5112.5875
2956.74951	5118.8875
2959.20498	5089.2875
2961.65895	5069.3875
2964.11142	5092.2875
2966.56239	5075.0875
2969.01186	5079.5875
2971.45984	5083.6875
2973.90632	5094.3875
2976.35131	5067.9875
2978.7948	5075.1875
2981.23681	5064.4875
2983.67732	5076.6875
2986.11635	5053.3875
2988.55388	5057.4875
2990.98993	5064.3875
2993.4245	5049.8875
2995.85758	5045.5875
2998.28917	5032.0875
3000.71928	5023.6875
3003.14791	5031.3875
3005.57506	5024.7875
3008.00073	5003.3875
3010.42493	4978.2875
3012.84764	5014.4875
3015.26888	4985.7875
3017.68865	4982.9875
3020.10694	4985.7875
3022.52376	5001.5875
3024.9391	5009.5875
3027.35298	4991.5875
3029.76539	4996.4875
3032.17632	4992.8875
3034.5858	4977.0875
3036.9938	4979.4875
3039.40034	4973.5875
3041.80542	4969.8875
3044.20903	4988.5875
3046.61118	4985.4875
3049.01187	4982.7875
3051.4111	4972.0875
3053.80888	4968.2875
3056.20519	4973.9875
3058.60005	4994.5875
3060.99345	5001.5875
3063.3854	4993.6875
3065.7759	4957.2875
3068.16494	4947.9875
3070.55254	4943.3875
3072.93868	4931.6875
3075.32338	4915.0875
3077.70662	4905.5875
3080.08842	4901.0875
3082.46878	4914.6875
3084.84769	4925.1875
3087.22515	4934.6875
3089.60118	4937.7875
3091.97576	4928.4875
3094.3489	4937.1875
3096.72061	4943.3875
3099.09087	4961.6875
3101.4597	4969.2875
3103.82709	4998.5875
3106.19305	5018.4875
3108.55757	5011.9875
3110.92066	5006.8875
3113.28232	5017.4875
3115.64255	5013.1875
3118.00134	5016.4875
3120.35871	5030.1875
3122.71466	5004.0875
3125.06917	5014.1875
