Data from AgNPs_UA_5uM_CRN_500uM_AS_RamanShift__17__13-17-23-839.txt Node

Date: Wed Aug 17 13:17:23 BST 2022
User: TCL
Spectrometer: QEP01345
Trigger mode: 4
Integration Time (sec): 7.000000E0
Scans to average: 10
Electric dark correction enabled: true
Nonlinearity correction enabled: false
Boxcar width: 0
XAxis mode: Raman Shifts
Number of Pixels in Spectrum: 1044
>>>>>Begin Spectral Data<<<<<
46.04893	0.1375
50.45542	0.5375
54.85868	-1.3625
59.25871	0.5375
63.6555	43.3375
68.04907	43.6375
72.43941	52.6375
76.82654	53.8375
81.21044	61.5375
85.59113	60.8375
89.96862	66.2375
94.34289	68.8375
98.71396	70.0375
103.08183	70.9375
107.4465	75.2375
111.80798	72.5375
116.16626	72.7375
120.52136	77.0375
124.87327	71.2375
129.222	73.4375
133.56755	74.9375
137.90993	72.1375
142.24913	75.1375
146.58517	75.4375
150.91804	72.1375
155.24774	78.6375
159.57429	82.6375
163.89768	97.3375
168.21792	108.1375
172.53501	127.7375
176.84895	160.9375
181.15975	202.3375
185.46741	267.6375
189.77193	364.0375
194.07331	491.6375
198.37157	651.9375
202.6667	820.5375
206.9587	1011.1375
211.24758	1208.0375
215.53334	1407.6375
219.81599	1598.8375
224.09553	1777.9375
228.37195	1950.8375
232.64527	2103.9375
236.91549	2245.3375
241.18261	2350.7375
245.44663	2413.2375
249.70755	2455.3375
253.96539	2462.1375
258.22014	2433.8375
262.4718	2400.7375
266.72039	2335.5375
270.96589	2249.1375
275.20832	2166.9375
279.44768	2070.1375
283.68397	1976.8375
287.91719	1901.1375
292.14735	1847.2375
296.37445	1826.5375
300.59849	1835.6375
304.81948	1843.2375
309.03742	1870.3375
313.25231	1848.6375
317.46415	1810.2375
321.67296	1708.2375
325.87872	1654.1375
330.08145	1620.0375
334.28114	1630.9375
338.47781	1661.8375
342.67145	1693.3375
346.86207	1743.0375
351.04966	1803.1375
355.23424	1862.7375
359.4158	1896.5375
363.59435	1933.2375
367.76989	1919.9375
371.94243	1901.2375
376.11196	1883.5375
380.27849	1873.7375
384.44203	1863.0375
388.60257	1846.1375
392.76012	1853.8375
396.91468	1858.2375
401.06626	1875.2375
405.21485	1894.0375
409.36047	1872.1375
413.50311	1838.1375
417.64277	1791.9375
421.77947	1772.7375
425.9132	1778.3375
430.04396	1783.1375
434.17176	1802.3375
438.2966	1835.8375
442.41849	1864.4375
446.53742	1909.2375
450.6534	1939.1375
454.76644	1967.9375
458.87653	1989.6375
462.98368	1977.7375
467.08789	1968.5375
471.18916	1954.7375
475.2875	1906.2375
479.38291	1900.0375
483.4754	1882.2375
487.56496	1879.7375
491.6516	1874.9375
495.73531	1863.1375
499.81612	1870.9375
503.89401	1878.2375
507.96899	1884.5375
512.04106	1887.8375
516.11023	1895.3375
520.1765	1897.7375
524.23987	1886.3375
528.30034	1869.4375
532.35792	1852.2375
536.41261	1853.4375
540.46441	1832.8375
544.51333	1826.7375
548.55936	1821.9375
552.60252	1850.8375
556.64279	1863.6375
560.6802	1890.6375
564.71473	1924.6375
568.7464	2000.9375
572.7752	2032.8375
576.80114	1992.7375
580.82422	1939.0375
584.84444	1895.6375
588.86181	1880.5375
592.87633	1884.2375
596.888	1885.5375
600.89682	1959.1375
604.9028	2094.6375
608.90594	2413.4375
612.90624	2785.3375
616.90371	2680.2375
620.89834	2223.9375
624.89015	2035.0375
628.87913	2011.4375
632.86528	2045.4375
636.84862	2092.5375
640.82913	2134.1375
644.80683	2142.3375
648.78172	2150.5375
652.75379	2162.7375
656.72306	2197.3375
660.68952	2229.6375
664.65319	2256.6375
668.61405	2313.1375
672.57211	2504.3375
676.52738	2793.1375
680.47986	3028.2375
684.42955	3079.5375
688.37646	2882.4375
692.32058	2647.2375
696.26192	2476.4375
700.20048	2377.7375
704.13626	2341.4375
708.06928	2280.9375
711.99952	2201.8375
715.927	2146.7375
719.85171	2138.4375
723.77365	2142.1375
727.69284	2154.8375
731.60928	2152.9375
735.52295	2124.5375
739.43388	2095.4375
743.34206	2085.9375
747.24749	2106.8375
751.15017	2156.2375
755.05012	2204.2375
758.94733	2268.0375
762.8418	2361.7375
766.73354	2486.8375
770.62254	2572.8375
774.50882	2583.4375
778.39237	2485.8375
782.27321	2304.4375
786.15132	2126.0375
790.02671	2021.7375
793.89938	1988.9375
797.76935	1983.1375
801.6366	1973.7375
805.50115	1980.4375
809.36299	1969.1375
813.22213	1946.1375
817.07857	1921.3375
820.93231	1920.9375
824.78336	1914.6375
828.63172	1916.1375
832.47738	1920.3375
836.32036	1911.9375
840.16066	1911.5375
843.99827	1907.4375
847.8332	1913.8375
851.66546	1912.5375
855.49504	1943.8375
859.32195	1965.3375
863.1462	2004.7375
866.96777	2022.9375
870.78668	2007.5375
874.60293	2008.8375
878.41652	1990.4375
882.22745	1990.3375
886.03573	1975.4375
889.84136	1962.6375
893.64433	1937.0375
897.44466	1935.1375
901.24235	1941.1375
905.0374	1935.4375
908.8298	1925.8375
912.61957	1915.1375
916.40671	1922.3375
920.19121	1937.7375
923.97308	1977.6375
927.75233	2031.1375
931.52895	2070.5375
935.30295	2073.6375
939.07433	2051.5375
942.84309	1992.1375
946.60924	1945.8375
950.37278	1905.2375
954.13371	1883.3375
957.89203	1888.3375
961.64774	1891.7375
965.40086	1893.0375
969.15137	1890.8375
972.89929	1871.1375
976.64461	1861.9375
980.38733	1844.3375
984.12747	1838.6375
987.86502	1829.6375
991.59999	1830.0375
995.33237	1832.5375
999.06217	1832.2375
1002.78939	1840.6375
1006.51404	1858.7375
1010.23611	1877.3375
1013.95561	1865.1375
1017.67255	1867.8375
1021.38692	1878.1375
1025.09872	1875.2375
1028.80796	1879.5375
1032.51465	1881.5375
1036.21877	1926.7375
1039.92035	1940.1375
1043.61937	1968.8375
1047.31584	2003.8375
1051.00976	2022.0375
1054.70114	2025.3375
1058.38998	2007.6375
1062.07627	1957.8375
1065.76003	1928.1375
1069.44126	1907.5375
1073.11995	1882.1375
1076.79611	1887.8375
1080.46974	1896.5375
1084.14085	1911.3375
1087.80943	1918.8375
1091.47549	1935.6375
1095.13903	1911.2375
1098.80005	1898.3375
1102.45857	1873.0375
1106.11456	1876.0375
1109.76805	1890.2375
1113.41903	1902.5375
1117.06751	1934.9375
1120.71348	1986.3375
1124.35696	2046.2375
1127.99793	2097.1375
1131.63641	2075.7375
1135.2724	2028.8375
1138.90589	1964.8375
1142.5369	1935.1375
1146.16542	1924.8375
1149.79145	1884.1375
1153.415	1877.3375
1157.03607	1866.5375
1160.65467	1875.0375
1164.27079	1889.4375
1167.88443	1926.3375
1171.49561	1965.8375
1175.10432	2071.6375
1178.71056	2223.2375
1182.31434	2336.2375
1185.91565	2353.7375
1189.51451	2295.6375
1193.11091	2200.5375
1196.70485	2108.6375
1200.29634	2062.8375
1203.88538	2017.9375
1207.47197	1972.1375
1211.05612	1920.7375
1214.63782	1893.7375
1218.21708	1885.8375
1221.79391	1893.2375
1225.36829	1882.6375
1228.94024	1905.6375
1232.50976	1922.2375
1236.07685	1919.4375
1239.6415	1942.9375
1243.20374	1970.9375
1246.76355	1988.7375
1250.32093	2009.1375
1253.8759	2024.9375
1257.42845	2043.7375
1260.97859	2056.3375
1264.52631	2080.3375
1268.07163	2084.5375
1271.61453	2086.3375
1275.15503	2067.9375
1278.69312	2057.7375
1282.22882	2041.7375
1285.76211	2065.0375
1289.29301	2107.5375
1292.82151	2140.3375
1296.34761	2177.9375
1299.87133	2267.1375
1303.39266	2390.7375
1306.9116	2591.5375
1310.42815	2756.0375
1313.94233	2799.0375
1317.45412	2646.8375
1320.96354	2484.9375
1324.47058	2343.8375
1327.97525	2241.2375
1331.47754	2183.8375
1334.97747	2182.1375
1338.47502	2214.7375
1341.97022	2283.0375
1345.46305	2415.2375
1348.95352	2572.9375
1352.44163	2777.2375
1355.92738	3008.8375
1359.41078	3373.6375
1362.89183	3638.4375
1366.37053	3516.6375
1369.84688	3103.8375
1373.32088	2737.6375
1376.79254	2509.5375
1380.26186	2364.9375
1383.72883	2247.3375
1387.19347	2150.7375
1390.65578	2071.8375
1394.11575	2026.0375
1397.57339	2003.5375
1401.0287	2018.5375
1404.48168	2045.4375
1407.93234	2086.3375
1411.38068	2147.3375
1414.82669	2226.0375
1418.27039	2308.6375
1421.71177	2349.6375
1425.15083	2325.6375
1428.58758	2289.9375
1432.02203	2248.5375
1435.45416	2202.8375
1438.88399	2149.6375
1442.31151	2094.8375
1445.73673	2065.3375
1449.15965	2060.7375
1452.58027	2053.0375
1455.9986	2038.8375
1459.41463	2034.4375
1462.82837	2040.3375
1466.23982	2051.9375
1469.64898	2071.6375
1473.05586	2063.2375
1476.46045	2027.6375
1479.86276	2010.3375
1483.26279	1992.8375
1486.66054	1997.9375
1490.05602	2023.9375
1493.44922	2089.4375
1496.84016	2209.3375
1500.22882	2390.6375
1503.61521	2670.3375
1506.99934	2966.9375
1510.38121	3157.9375
1513.76081	3120.5375
1517.13816	2851.7375
1520.51324	2539.9375
1523.88607	2276.2375
1527.25665	2123.3375
1530.62498	2054.3375
1533.99105	2004.6375
1537.35488	1980.1375
1540.71647	1965.6375
1544.07581	1958.5375
1547.4329	1972.8375
1550.78776	1986.7375
1554.14038	1999.3375
1557.49077	2013.8375
1560.83892	2031.6375
1564.18484	2085.1375
1567.52853	2147.3375
1570.86999	2208.4375
1574.20922	2245.7375
1577.54624	2212.8375
1580.88103	2129.0375
1584.2136	2036.9375
1587.54395	1983.8375
1590.87208	1971.7375
1594.19801	1986.7375
1597.52172	2027.7375
1600.84321	2033.6375
1604.16251	1998.4375
1607.47959	1948.1375
1610.79447	1918.4375
1614.10715	1861.8375
1617.41763	1820.2375
1620.7259	1791.5375
1624.03199	1778.3375
1627.33587	1775.2375
1630.63757	1785.8375
1633.93707	1807.3375
1637.23439	1857.6375
1640.52951	1948.2375
1643.82246	2084.1375
1647.11321	2253.1375
1650.40179	2391.0375
1653.68819	2347.4375
1656.97241	2181.0375
1660.25446	2032.5375
1663.53433	1927.8375
1666.81203	1883.3375
1670.08756	1877.9375
1673.36092	1892.7375
1676.63211	1893.9375
1679.90115	1897.0375
1683.16801	1879.8375
1686.43272	1857.1375
1689.69527	1838.2375
1692.95567	1794.8375
1696.2139	1772.3375
1699.46999	1756.9375
1702.72392	1735.8375
1705.97571	1706.1375
1709.22535	1679.2375
1712.47284	1675.0375
1715.71819	1675.4375
1718.96139	1667.5375
1722.20246	1656.5375
1725.44139	1657.3375
1728.67818	1680.1375
1731.91284	1698.8375
1735.14537	1725.3375
1738.37576	1754.4375
1741.60403	1796.4375
1744.83017	1858.1375
1748.05418	1951.7375
1751.27607	2065.9375
1754.49584	2135.7375
1757.71349	2171.3375
1760.92903	2137.0375
1764.14244	2036.4375
1767.35375	1930.7375
1770.56294	1810.5375
1773.77002	1734.6375
1776.97499	1664.8375
1780.17785	1611.4375
1783.37861	1569.9375
1786.57727	1537.6375
1789.77382	1487.3375
1792.96828	1453.7375
1796.16064	1422.3375
1799.3509	1403.8375
1802.53907	1382.6375
1805.72514	1372.2375
1808.90913	1355.9375
1812.09102	1342.1375
1815.27083	1332.8375
1818.44856	1330.4375
1821.6242	1324.8375
1824.79776	1320.4375
1827.96924	1311.6375
1831.13864	1299.0375
1834.30597	1299.5375
1837.47122	1293.3375
1840.6344	1294.0375
1843.7955	1279.0375
1846.95454	1280.5375
1850.11151	1273.5375
1853.26642	1273.0375
1856.41926	1267.9375
1859.57004	1268.1375
1862.71876	1256.4375
1865.86542	1258.3375
1869.01003	1265.8375
1872.15258	1252.1375
1875.29308	1251.0375
1878.43152	1257.9375
1881.56792	1261.1375
1884.70227	1255.5375
1887.83457	1249.0375
1890.96482	1241.8375
1894.09304	1245.1375
1897.21921	1245.1375
1900.34335	1246.3375
1903.46544	1241.6375
1906.58551	1236.1375
1909.70353	1239.9375
1912.81953	1238.7375
1915.93349	1238.9375
1919.04543	1239.9375
1922.15534	1239.6375
1925.26322	1239.0375
1928.36908	1223.6375
1931.47292	1235.7375
1934.57473	1214.7375
1937.67453	1219.7375
1940.77232	1218.2375
1943.86808	1208.0375
1946.96184	1203.8375
1950.05358	1196.0375
1953.14331	1193.8375
1956.23103	1199.3375
1959.31675	1190.5375
1962.40046	1188.5375
1965.48217	1182.5375
1968.56188	1173.4375
1971.63959	1176.4375
1974.7153	1169.9375
1977.78901	1174.6375
1980.86073	1163.7375
1983.93046	1162.6375
1986.99819	1160.7375
1990.06394	1152.7375
1993.1277	1148.1375
1996.18947	1145.6375
1999.24925	1144.3375
2002.30706	1150.1375
2005.36288	1145.3375
2008.41672	1137.4375
2011.46859	1125.7375
2014.51848	1136.4375
2017.56639	1130.3375
2020.61233	1124.7375
2023.6563	1113.9375
2026.6983	1111.0375
2029.73833	1114.1375
2032.7764	1112.2375
2035.8125	1106.4375
2038.84664	1100.7375
2041.87881	1099.7375
2044.90903	1096.5375
2047.93729	1093.8375
2050.96359	1092.1375
2053.98794	1084.7375
2057.01034	1096.4375
2060.03078	1087.5375
2063.04927	1098.8375
2066.06582	1086.2375
2069.08042	1082.5375
2072.09307	1076.2375
2075.10378	1074.9375
2078.11255	1083.4375
2081.11938	1085.3375
2084.12426	1092.0375
2087.12722	1092.7375
2090.12824	1093.6375
2093.12732	1091.9375
2096.12447	1096.5375
2099.11969	1097.4375
2102.11299	1098.3375
2105.10435	1104.3375
2108.09379	1105.0375
2111.08131	1107.6375
2114.0669	1107.6375
2117.05057	1106.9375
2120.03233	1100.7375
2123.01216	1096.5375
2125.99008	1104.0375
2128.96609	1094.3375
2131.94018	1096.1375
2134.91236	1090.3375
2137.88263	1092.4375
2140.851	1088.4375
2143.81746	1087.2375
2146.78201	1090.7375
2149.74466	1096.4375
2152.7054	1084.0375
2155.66425	1087.3375
2158.6212	1088.7375
2161.57625	1082.7375
2164.52941	1084.8375
2167.48067	1093.5375
2170.43004	1079.4375
2173.37752	1081.9375
2176.32311	1078.4375
2179.26681	1074.0375
2182.20863	1086.3375
2185.14856	1079.3375
2188.08661	1072.4375
2191.02278	1068.4375
2193.95707	1074.3375
2196.88948	1074.0375
2199.82001	1076.0375
2202.74867	1065.9375
2205.67545	1065.8375
2208.60037	1064.4375
2211.52341	1065.3375
2214.44458	1063.8375
2217.36388	1054.2375
2220.28132	1051.1375
2223.1969	1045.1375
2226.11061	1046.8375
2229.02246	1048.7375
2231.93245	1042.5375
2234.84058	1038.2375
2237.74686	1034.0375
2240.65128	1029.6375
2243.55385	1027.4375
2246.45456	1036.4375
2249.35343	1038.7375
2252.25044	1032.3375
2255.14561	1028.2375
2258.03893	1028.1375
2260.93041	1026.2375
2263.82004	1025.9375
2266.70783	1015.2375
2269.59378	1017.4375
2272.4779	1010.6375
2275.36017	1007.1375
2278.24061	1009.3375
2281.11922	1001.0375
2283.996	1000.8375
2286.87094	999.0375
2289.74405	996.8375
2292.61534	1000.3375
2295.4848	989.8375
2298.35243	999.8375
2301.21824	992.8375
2304.08223	984.4375
2306.94439	992.3375
2309.80474	989.7375
2312.66327	989.7375
2315.51999	982.7375
2318.37489	984.7375
2321.22797	983.3375
2324.07925	975.7375
2326.92871	975.1375
2329.77637	976.9375
2332.62222	982.7375
2335.46626	978.5375
2338.3085	981.0375
2341.14893	984.0375
2343.98756	972.1375
2346.8244	970.5375
2349.65943	965.8375
2352.49267	972.8375
2355.32411	970.2375
2358.15376	968.5375
2360.98161	978.1375
2363.80768	972.3375
2366.63195	968.5375
2369.45444	972.6375
2372.27514	965.8375
2375.09405	967.6375
2377.91118	965.1375
2380.72652	968.9375
2383.54009	962.5375
2386.35187	962.3375
2389.16188	960.7375
2391.97011	949.6375
2394.77657	946.2375
2397.58125	952.3375
2400.38416	949.9375
2403.18529	951.9375
2405.98466	941.5375
2408.78226	943.6375
2411.57809	941.2375
2414.37216	944.6375
2417.16446	934.6375
2419.955	936.7375
2422.74378	937.3375
2425.5308	932.7375
2428.31606	935.5375
2431.09956	936.6375
2433.88131	931.9375
2436.6613	929.7375
2439.43954	931.0375
2442.21603	930.7375
2444.99077	926.1375
2447.76377	923.8375
2450.53501	929.7375
2453.30451	920.5375
2456.07226	916.6375
2458.83827	916.1375
2461.60254	928.1375
2464.36507	923.0375
2467.12586	914.5375
2469.88492	919.3375
2472.64224	905.1375
2475.39782	925.7375
2478.15167	923.8375
2480.90379	919.8375
2483.65417	914.8375
2486.40283	910.8375
2489.14976	928.7375
2491.89497	916.1375
2494.63845	915.1375
2497.3802	919.8375
2500.12024	909.0375
2502.85855	912.9375
2505.59514	904.2375
2508.33002	907.9375
2511.06318	906.1375
2513.79462	899.9375
2516.52435	891.7375
2519.25237	891.1375
2521.97867	888.6375
2524.70327	888.7375
2527.42616	896.7375
2530.14734	892.9375
2532.86681	891.2375
2535.58458	883.1375
2538.30065	885.9375
2541.01501	877.8375
2543.72768	884.7375
2546.43864	884.4375
2549.14791	876.2375
2551.85548	884.2375
2554.56136	878.5375
2557.26554	871.5375
2559.96803	873.9375
2562.66883	880.8375
2565.36794	864.8375
2568.06536	870.7375
2570.7611	864.2375
2573.45514	862.4375
2576.14751	865.9375
2578.83819	864.7375
2581.52719	864.5375
2584.21451	863.9375
2586.90015	859.2375
2589.58411	857.5375
2592.2664	856.5375
2594.94701	849.6375
2597.62594	851.2375
2600.30321	852.5375
2602.9788	855.8375
2605.65273	848.5375
2608.32498	844.6375
2610.99557	842.4375
2613.66449	847.0375
2616.33175	845.0375
2618.99734	849.1375
2621.66128	842.8375
2624.32355	842.5375
2626.98416	838.0375
2629.64311	837.3375
2632.30041	843.1375
2634.95605	836.7375
2637.61004	834.8375
2640.26238	834.4375
2642.91306	837.9375
2645.56209	837.0375
2648.20948	837.9375
2650.85521	840.0375
2653.4993	835.6375
2656.14175	830.1375
2658.78255	826.5375
2661.42171	837.1375
2664.05923	834.6375
2666.6951	832.9375
2669.32934	839.0375
2671.96194	830.2375
2674.59291	841.2375
2677.22224	841.3375
2679.84993	838.6375
2682.476	843.1375
2685.10043	846.0375
2687.72324	842.2375
2690.34441	831.9375
2692.96396	833.4375
2695.58188	838.7375
2698.19818	838.9375
2700.81285	841.7375
2703.4259	832.5375
2706.03733	834.7375
2708.64714	838.2375
2711.25533	838.5375
2713.86191	837.6375
2716.46687	840.0375
2719.07021	837.4375
2721.67194	844.0375
2724.27206	843.9375
2726.87057	844.0375
2729.46747	838.3375
2732.06276	847.1375
2734.65644	849.5375
2737.24852	841.3375
2739.83899	837.5375
2742.42786	834.1375
2745.01513	838.7375
2747.60079	828.1375
2750.18486	838.4375
2752.76733	832.3375
2755.3482	838.7375
2757.92747	826.9375
2760.50515	832.1375
2763.08123	829.4375
2765.65573	833.2375
2768.22863	828.1375
2770.79994	834.5375
2773.36967	829.4375
2775.9378	832.9375
2778.50435	831.0375
2781.06932	834.4375
2783.6327	840.5375
2786.1945	830.3375
2788.75471	845.5375
2791.31335	836.3375
2793.87041	847.8375
2796.42589	850.1375
2798.97979	849.2375
2801.53212	854.9375
2804.08288	855.0375
2806.63206	862.0375
2809.17967	857.8375
2811.72571	859.8375
2814.27018	862.9375
2816.81308	872.0375
2819.35442	881.7375
2821.89419	875.7375
2824.43239	874.3375
2826.96904	880.0375
2829.50412	879.0375
2832.03763	881.3375
2834.56959	880.8375
2837.1	884.5375
2839.62884	886.7375
2842.15613	894.1375
2844.68186	894.5375
2847.20604	895.9375
2849.72867	898.9375
2852.24974	896.1375
2854.76927	903.3375
2857.28724	907.1375
2859.80367	904.6375
2862.31855	903.4375
2864.83189	908.5375
2867.34368	911.9375
2869.85393	924.0375
2872.36264	928.6375
2874.8698	943.2375
2877.37543	947.0375
2879.87952	959.4375
2882.38207	970.0375
2884.88308	984.6375
2887.38256	997.4375
2889.88051	1004.3375
2892.37692	1015.1375
2894.8718	1032.9375
2897.36515	1045.7375
2899.85698	1064.2375
2902.34727	1073.8375
2904.83604	1084.0375
2907.32328	1110.6375
2909.809	1130.5375
2912.29319	1139.8375
2914.77587	1147.8375
2917.25702	1164.5375
2919.73665	1184.4375
2922.21476	1196.3375
2924.69136	1211.6375
2927.16644	1228.2375
2929.64	1230.8375
2932.11205	1244.8375
2934.58258	1256.9375
2937.05161	1269.8375
2939.51912	1281.2375
2941.98513	1293.6375
2944.44962	1301.6375
2946.91261	1307.4375
2949.37409	1315.4375
2951.83407	1321.2375
2954.29254	1301.2375
2956.74951	1298.9375
2959.20498	1276.8375
2961.65895	1250.6375
2964.11142	1230.8375
2966.56239	1193.9375
2969.01186	1166.5375
2971.45984	1132.3375
2973.90632	1124.9375
2976.35131	1111.3375
2978.7948	1082.1375
2981.23681	1069.7375
2983.67732	1063.4375
2986.11635	1057.2375
2988.55388	1049.7375
2990.98993	1046.3375
2993.4245	1042.3375
2995.85758	1033.6375
2998.28917	1036.1375
3000.71928	1039.4375
3003.14791	1034.3375
3005.57506	1047.3375
3008.00073	1044.9375
3010.42493	1084.6375
3012.84764	1046.8375
3015.26888	1042.9375
3017.68865	1040.7375
3020.10694	1042.2375
3022.52376	1036.7375
3024.9391	1027.8375
3027.35298	1031.4375
3029.76539	1017.2375
3032.17632	1008.5375
3034.5858	995.1375
3036.9938	993.5375
3039.40034	990.6375
3041.80542	983.9375
3044.20903	973.4375
3046.61118	980.8375
3049.01187	970.0375
3051.4111	970.8375
3053.80888	959.5375
3056.20519	967.4375
3058.60005	970.7375
3060.99345	958.7375
3063.3854	969.9375
3065.7759	967.8375
3068.16494	962.8375
3070.55254	965.3375
3072.93868	961.1375
3075.32338	965.9375
3077.70662	968.7375
3080.08842	977.8375
3082.46878	974.0375
3084.84769	998.6375
3087.22515	993.0375
3089.60118	992.8375
3091.97576	1001.8375
3094.3489	1008.0375
3096.72061	1017.7375
3099.09087	1017.3375
3101.4597	1042.5375
3103.82709	1048.4375
3106.19305	1048.3375
3108.55757	1060.3375
3110.92066	1066.2375
3113.28232	1079.2375
3115.64255	1078.0375
3118.00134	1083.1375
3120.35871	1086.9375
3122.71466	1102.9375
3125.06917	1099.7375
3127.42226	1105.0375
3129.77393	1116.3375
3132.12417	1126.5375
3134.47299	1137.2375
3136.82039	1148.6375
3139.16636	1148.0375
3141.51092	1158.6375
3143.85406	1161.9375
3146.19579	1179.9375
3148.53609	1188.0375
3150.87499	1199.4375
3153.21246	1209.2375
3155.54853	1230.7375
3157.88318	1233.7375
