Data from AgNPs_UA_20uM_CRN_500uM_AS_RamanShift__33__15-02-01-537.txt Node

Date: Wed Aug 17 15:02:01 BST 2022
User: TCL
Spectrometer: QEP01345
Trigger mode: 4
Integration Time (sec): 7.000000E0
Scans to average: 10
Electric dark correction enabled: true
Nonlinearity correction enabled: false
Boxcar width: 0
XAxis mode: Raman Shifts
Number of Pixels in Spectrum: 1044
>>>>>Begin Spectral Data<<<<<
46.04893	0.2875
50.45542	-0.5125
54.85868	-1.1125
59.25871	0.2875
63.6555	48.9875
68.04907	49.5875
72.43941	60.0875
76.82654	59.5875
81.21044	61.8875
85.59113	62.2875
89.96862	67.3875
94.34289	72.5875
98.71396	76.9875
103.08183	76.4875
107.4465	79.9875
111.80798	77.0875
116.16626	78.4875
120.52136	80.9875
124.87327	84.6875
129.222	85.4875
133.56755	91.5875
137.90993	93.8875
142.24913	104.7875
146.58517	115.0875
150.91804	130.2875
155.24774	150.3875
159.57429	176.0875
163.89768	224.8875
168.21792	292.8875
172.53501	397.6875
176.84895	549.3875
181.15975	771.8875
185.46741	1074.0875
189.77193	1486.4875
194.07331	2012.0875
198.37157	2605.1875
202.6667	3248.9875
206.9587	3940.0875
211.24758	4666.4875
215.53334	5511.0875
219.81599	6447.0875
224.09553	7568.0875
228.37195	8787.2875
232.64527	10019.6875
236.91549	11111.6875
241.18261	11913.2875
245.44663	12416.1875
249.70755	12786.1875
253.96539	13093.3875
258.22014	13300.3875
262.4718	13301.4875
266.72039	13091.9875
270.96589	12568.9875
275.20832	11883.0875
279.44768	11193.6875
283.68397	10680.3875
287.91719	10512.9875
292.14735	10741.8875
296.37445	11556.7875
300.59849	12899.5875
304.81948	14643.9875
309.03742	16153.5875
313.25231	16630.7875
317.46415	15491.9875
321.67296	13196.8875
325.87872	11338.0875
330.08145	10473.4875
334.28114	10541.3875
338.47781	11068.1875
342.67145	11792.4875
346.86207	12902.6875
351.04966	14701.9875
355.23424	16672.9875
359.4158	17865.9875
363.59435	18018.6875
367.76989	17434.1875
371.94243	16629.8875
376.11196	15819.2875
380.27849	15181.4875
384.44203	14516.5875
388.60257	13939.7875
392.76012	13612.5875
396.91468	13688.7875
401.06626	14182.5875
405.21485	14310.4875
409.36047	13425.7875
413.50311	11768.9875
417.64277	10214.7875
421.77947	9268.2875
425.9132	8804.6875
430.04396	8646.3875
434.17176	8701.5875
438.2966	9002.8875
442.41849	9472.5875
446.53742	9921.7875
450.6534	10218.9875
454.76644	10188.4875
458.87653	9903.6875
462.98368	9551.4875
467.08789	9186.8875
471.18916	8794.1875
475.2875	8293.3875
479.38291	7884.7875
483.4754	7575.4875
487.56496	7415.2875
491.6516	7318.1875
495.73531	7297.6875
499.81612	7397.5875
503.89401	7650.0875
507.96899	8033.8875
512.04106	8502.8875
516.11023	8978.1875
520.1765	9336.3875
524.23987	9341.8875
528.30034	9145.0875
532.35792	8883.8875
536.41261	8548.1875
540.46441	8098.6875
544.51333	7803.5875
548.55936	7812.6875
552.60252	8105.3875
556.64279	8539.1875
560.6802	8980.3875
564.71473	10021.2875
568.7464	11586.8875
572.7752	11671.9875
576.80114	9767.7875
580.82422	8071.8875
584.84444	7330.5875
588.86181	7103.5875
592.87633	7189.5875
596.888	7610.4875
600.89682	8887.9875
604.9028	12998.6875
608.90594	22986.4875
612.90624	34160.6875
616.90371	29736.7875
620.89834	15522.0875
624.89015	9580.1875
628.87913	8835.1875
632.86528	9575.1875
636.84862	10045.3875
640.82913	9150.9875
644.80683	7709.4875
648.78172	6928.5875
652.75379	7156.6875
656.72306	8286.4875
660.68952	9312.5875
664.65319	8491.7875
668.61405	7105.9875
672.57211	6582.4875
676.52738	6627.1875
680.47986	6522.8875
684.42955	6223.3875
688.37646	6101.7875
692.32058	6173.5875
696.26192	6356.6875
700.20048	6641.8875
704.13626	6681.1875
708.06928	6553.5875
711.99952	6415.6875
715.927	6508.9875
719.85171	6739.8875
723.77365	6916.8875
727.69284	6762.4875
731.60928	6577.9875
735.52295	6511.7875
739.43388	6532.1875
743.34206	6577.0875
747.24749	6561.3875
751.15017	6586.9875
755.05012	7087.8875
758.94733	8832.5875
762.8418	12813.0875
766.73354	17862.9875
770.62254	21308.7875
774.50882	22961.7875
778.39237	22046.7875
782.27321	17119.6875
786.15132	11618.5875
790.02671	8533.8875
793.89938	7224.4875
797.76935	6693.5875
801.6366	6443.2875
805.50115	6324.4875
809.36299	6240.2875
813.22213	6174.5875
817.07857	6136.7875
820.93231	6192.2875
824.78336	6359.4875
828.63172	6528.5875
832.47738	6587.3875
836.32036	6393.3875
840.16066	6137.4875
843.99827	5950.5875
847.8332	5895.0875
851.66546	5914.4875
855.49504	5932.0875
859.32195	5906.4875
863.1462	5823.3875
866.96777	5791.3875
870.78668	5798.6875
874.60293	5868.7875
878.41652	6011.9875
882.22745	6201.9875
886.03573	6318.8875
889.84136	6295.6875
893.64433	6263.1875
897.44466	6324.8875
901.24235	6337.9875
905.0374	6160.5875
908.8298	5938.5875
912.61957	5780.9875
916.40671	5691.0875
920.19121	5713.5875
923.97308	5954.2875
927.75233	6463.5875
931.52895	6923.1875
935.30295	6596.9875
939.07433	5823.8875
942.84309	5314.7875
946.60924	5085.8875
950.37278	5020.7875
954.13371	4982.9875
957.89203	4976.4875
961.64774	4955.0875
965.40086	4940.0875
969.15137	4921.4875
972.89929	4903.2875
976.64461	4875.1875
980.38733	4873.7875
984.12747	4880.5875
987.86502	4905.7875
991.59999	4957.1875
995.33237	5040.8875
999.06217	5197.2875
1002.78939	5424.3875
1006.51404	5692.3875
1010.23611	5892.2875
1013.95561	5890.3875
1017.67255	5771.5875
1021.38692	5546.8875
1025.09872	5352.9875
1028.80796	5210.7875
1032.51465	5240.6875
1036.21877	5338.7875
1039.92035	5483.7875
1043.61937	5611.0875
1047.31584	5702.5875
1051.00976	5679.0875
1054.70114	5582.6875
1058.38998	5475.4875
1062.07627	5458.6875
1065.76003	5475.7875
1069.44126	5536.7875
1073.11995	5749.9875
1076.79611	6239.6875
1080.46974	7074.8875
1084.14085	8000.2875
1087.80943	8574.3875
1091.47549	8514.3875
1095.13903	7828.4875
1098.80005	7020.0875
1102.45857	6570.4875
1106.11456	6549.1875
1109.76805	6935.6875
1113.41903	7748.9875
1117.06751	9120.3875
1120.71348	11095.9875
1124.35696	13455.5875
1127.99793	14264.3875
1131.63641	12553.6875
1135.2724	10185.7875
1138.90589	8526.4875
1142.5369	7594.5875
1146.16542	6976.7875
1149.79145	6651.0875
1153.415	6573.3875
1157.03607	6695.1875
1160.65467	7030.5875
1164.27079	7701.4875
1167.88443	8749.7875
1171.49561	10514.3875
1175.10432	13485.6875
1178.71056	17290.2875
1182.31434	19990.5875
1185.91565	20157.1875
1189.51451	18374.0875
1193.11091	16039.3875
1196.70485	14046.2875
1200.29634	12739.0875
1203.88538	11403.9875
1207.47197	9623.5875
1211.05612	8039.6875
1214.63782	7093.7875
1218.21708	6631.0875
1221.79391	6427.6875
1225.36829	6381.7875
1228.94024	6334.2875
1232.50976	6359.6875
1236.07685	6454.0875
1239.6415	6608.3875
1243.20374	6810.5875
1246.76355	6964.1875
1250.32093	7182.6875
1253.8759	7561.4875
1257.42845	8189.4875
1260.97859	9028.4875
1264.52631	9915.4875
1268.07163	10583.3875
1271.61453	10897.2875
1275.15503	10755.9875
1278.69312	10633.7875
1282.22882	10912.8875
1285.76211	11794.1875
1289.29301	12732.5875
1292.82151	13555.9875
1296.34761	14579.9875
1299.87133	16581.2875
1303.39266	20382.2875
1306.9116	26144.6875
1310.42815	31374.8875
1313.94233	31625.4875
1317.45412	26877.2875
1320.96354	20928.7875
1324.47058	15941.6875
1327.97525	12653.2875
1331.47754	11113.8875
1334.97747	10850.5875
1338.47502	11753.6875
1341.97022	13848.4875
1345.46305	17023.5875
1348.95352	20739.7875
1352.44163	25364.2875
1355.92738	32589.4875
1359.41078	42346.1875
1362.89183	47060.7875
1366.37053	39916.0875
1369.84688	28661.9875
1373.32088	20998.5875
1376.79254	16803.0875
1380.26186	14058.1875
1383.72883	11824.2875
1387.19347	9942.7875
1390.65578	8505.9875
1394.11575	7619.9875
1397.57339	7181.5875
1401.0287	6992.7875
1404.48168	6887.7875
1407.93234	6926.3875
1411.38068	7159.0875
1414.82669	7492.7875
1418.27039	7646.3875
1421.71177	7568.3875
1425.15083	7582.6875
1428.58758	7936.6875
1432.02203	8367.0875
1435.45416	8389.3875
1438.88399	8143.1875
1442.31151	7963.2875
1445.73673	8000.5875
1449.15965	8018.3875
1452.58027	7837.5875
1455.9986	7583.0875
1459.41463	7607.4875
1462.82837	7980.1875
1466.23982	8451.7875
1469.64898	8710.3875
1473.05586	8761.7875
1476.46045	8785.0875
1479.86276	9089.0875
1483.26279	9708.4875
1486.66054	10724.5875
1490.05602	12287.9875
1493.44922	14696.4875
1496.84016	18498.7875
1500.22882	24423.1875
1503.61521	32504.0875
1506.99934	41389.2875
1510.38121	47487.0875
1513.76081	47023.4875
1517.13816	39710.0875
1520.51324	29747.5875
1523.88607	21472.5875
1527.25665	16340.9875
1530.62498	13568.4875
1533.99105	11964.0875
1537.35488	10992.7875
1540.71647	10548.4875
1544.07581	10557.6875
1547.4329	10840.7875
1550.78776	11214.6875
1554.14038	11496.9875
1557.49077	11820.9875
1560.83892	12541.9875
1564.18484	14019.5875
1567.52853	15781.8875
1570.86999	16971.4875
1574.20922	17323.8875
1577.54624	16395.3875
1580.88103	13779.6875
1584.2136	10906.7875
1587.54395	9188.0875
1590.87208	8887.4875
1594.19801	9688.7875
1597.52172	10830.4875
1600.84321	11097.4875
1604.16251	10350.0875
1607.47959	9273.1875
1610.79447	8215.5875
1614.10715	7283.6875
1617.41763	6622.1875
1620.7259	6303.8875
1624.03199	6301.1875
1627.33587	6529.0875
1630.63757	7021.6875
1633.93707	7955.2875
1637.23439	9665.1875
1640.52951	12719.0875
1643.82246	17513.3875
1647.11321	22967.5875
1650.40179	25904.6875
1653.68819	23771.2875
1656.97241	18219.6875
1660.25446	12828.9875
1663.53433	9248.9875
1666.81203	7195.7875
1670.08756	6090.8875
1673.36092	5464.3875
1676.63211	5072.5875
1679.90115	4834.4875
1683.16801	4652.3875
1686.43272	4556.8875
1689.69527	4470.1875
1692.95567	4378.6875
1696.2139	4371.2875
1699.46999	4353.8875
1702.72392	4323.5875
1705.97571	4291.1875
1709.22535	4265.8875
1712.47284	4286.7875
1715.71819	4270.2875
1718.96139	4216.0875
1722.20246	4165.1875
1725.44139	4077.2875
1728.67818	3996.0875
1731.91284	3895.0875
1735.14537	3838.1875
1738.37576	3792.3875
1741.60403	3743.6875
1744.83017	3724.6875
1748.05418	3692.3875
1751.27607	3669.1875
1754.49584	3627.8875
1757.71349	3600.4875
1760.92903	3566.7875
1764.14244	3501.1875
1767.35375	3457.9875
1770.56294	3405.3875
1773.77002	3338.9875
1776.97499	3273.5875
1780.17785	3231.0875
1783.37861	3185.6875
1786.57727	3149.2875
1789.77382	3127.3875
1792.96828	3121.6875
1796.16064	3104.4875
1799.3509	3104.4875
1802.53907	3089.2875
1805.72514	3054.6875
1808.90913	3045.7875
1812.09102	3003.3875
1815.27083	3000.5875
1818.44856	2977.0875
1821.6242	2962.3875
1824.79776	2942.1875
1827.96924	2919.0875
1831.13864	2897.3875
1834.30597	2872.9875
1837.47122	2847.4875
1840.6344	2834.4875
1843.7955	2821.2875
1846.95454	2790.1875
1850.11151	2782.0875
1853.26642	2786.1875
1856.41926	2772.5875
1859.57004	2790.2875
1862.71876	2784.0875
1865.86542	2781.9875
1869.01003	2807.9875
1872.15258	2817.8875
1875.29308	2810.1875
1878.43152	2804.4875
1881.56792	2811.5875
1884.70227	2790.9875
1887.83457	2774.4875
1890.96482	2773.9875
1894.09304	2752.6875
1897.21921	2750.7875
1900.34335	2752.2875
1903.46544	2746.0875
1906.58551	2751.0875
1909.70353	2749.8875
1912.81953	2738.3875
1915.93349	2744.4875
1919.04543	2723.0875
1922.15534	2708.2875
1925.26322	2693.3875
1928.36908	2662.6875
1931.47292	2642.4875
1934.57473	2605.9875
1937.67453	2579.1875
1940.77232	2552.1875
1943.86808	2529.6875
1946.96184	2522.7875
1950.05358	2522.1875
1953.14331	2506.0875
1956.23103	2509.6875
1959.31675	2509.6875
1962.40046	2528.0875
1965.48217	2522.5875
1968.56188	2536.2875
1971.63959	2545.0875
1974.7153	2544.1875
1977.78901	2511.7875
1980.86073	2476.9875
1983.93046	2458.4875
1986.99819	2427.0875
1990.06394	2402.6875
1993.1277	2374.9875
1996.18947	2363.5875
1999.24925	2332.1875
2002.30706	2321.7875
2005.36288	2299.4875
2008.41672	2296.4875
2011.46859	2280.6875
2014.51848	2284.4875
2017.56639	2276.6875
2020.61233	2258.0875
2023.6563	2251.9875
2026.6983	2232.6875
2029.73833	2231.0875
2032.7764	2211.6875
2035.8125	2206.0875
2038.84664	2195.6875
2041.87881	2209.2875
2044.90903	2199.9875
2047.93729	2178.4875
2050.96359	2173.6875
2053.98794	2165.5875
2057.01034	2151.1875
2060.03078	2142.0875
2063.04927	2122.5875
2066.06582	2121.1875
2069.08042	2113.1875
2072.09307	2116.1875
2075.10378	2105.8875
2078.11255	2114.3875
2081.11938	2117.8875
2084.12426	2109.3875
2087.12722	2114.1875
2090.12824	2116.8875
2093.12732	2113.4875
2096.12447	2109.1875
2099.11969	2105.1875
2102.11299	2111.5875
2105.10435	2103.8875
2108.09379	2103.5875
2111.08131	2114.3875
2114.0669	2116.0875
2117.05057	2145.6875
2120.03233	2162.6875
2123.01216	2171.1875
2125.99008	2177.3875
2128.96609	2178.4875
2131.94018	2175.3875
2134.91236	2158.0875
2137.88263	2146.1875
2140.851	2138.4875
2143.81746	2116.3875
2146.78201	2112.1875
2149.74466	2090.2875
2152.7054	2067.6875
2155.66425	2057.7875
2158.6212	2039.1875
2161.57625	2040.6875
2164.52941	2038.1875
2167.48067	2036.5875
2170.43004	2042.1875
2173.37752	2029.5875
2176.32311	2045.9875
2179.26681	2038.4875
2182.20863	2051.1875
2185.14856	2052.5875
2188.08661	2027.6875
2191.02278	2041.1875
2193.95707	2020.0875
2196.88948	2010.1875
2199.82001	2001.5875
2202.74867	2001.8875
2205.67545	1998.4875
2208.60037	1992.9875
2211.52341	2002.7875
2214.44458	1981.6875
2217.36388	1970.8875
2220.28132	1961.4875
2223.1969	1950.4875
2226.11061	1947.2875
2229.02246	1937.5875
2231.93245	1923.5875
2234.84058	1911.7875
2237.74686	1920.6875
2240.65128	1936.5875
2243.55385	1931.2875
2246.45456	1934.4875
2249.35343	1945.9875
2252.25044	1960.7875
2255.14561	1987.9875
2258.03893	2019.2875
2260.93041	2035.4875
2263.82004	2039.9875
2266.70783	2034.0875
2269.59378	2014.4875
2272.4779	1995.3875
2275.36017	1997.1875
2278.24061	1997.7875
2281.11922	1994.9875
2283.996	1976.4875
2286.87094	1960.5875
2289.74405	1933.3875
2292.61534	1929.5875
2295.4848	1912.2875
2298.35243	1894.9875
2301.21824	1884.4875
2304.08223	1888.7875
2306.94439	1877.5875
2309.80474	1883.9875
2312.66327	1878.2875
2315.51999	1873.7875
2318.37489	1869.6875
2321.22797	1850.2875
2324.07925	1858.8875
2326.92871	1853.9875
2329.77637	1861.6875
2332.62222	1862.8875
2335.46626	1847.9875
2338.3085	1849.8875
2341.14893	1856.6875
2343.98756	1855.8875
2346.8244	1860.7875
2349.65943	1884.9875
2352.49267	1884.5875
2355.32411	1906.2875
2358.15376	1928.9875
2360.98161	1943.3875
2363.80768	1957.8875
2366.63195	1977.0875
2369.45444	1992.9875
2372.27514	2011.3875
2375.09405	2012.7875
2377.91118	2005.8875
2380.72652	1978.7875
2383.54009	1958.6875
2386.35187	1949.5875
2389.16188	1922.8875
2391.97011	1895.4875
2394.77657	1873.7875
2397.58125	1857.4875
2400.38416	1846.5875
2403.18529	1841.5875
2405.98466	1818.6875
2408.78226	1804.4875
2411.57809	1805.6875
2414.37216	1796.0875
2417.16446	1790.1875
2419.955	1790.6875
2422.74378	1805.9875
2425.5308	1802.7875
2428.31606	1812.5875
2431.09956	1825.5875
2433.88131	1823.7875
2436.6613	1839.7875
2439.43954	1844.6875
2442.21603	1853.2875
2444.99077	1864.5875
2447.76377	1870.0875
2450.53501	1862.6875
2453.30451	1882.2875
2456.07226	1883.0875
2458.83827	1873.8875
2461.60254	1880.7875
2464.36507	1881.0875
2467.12586	1868.4875
2469.88492	1874.0875
2472.64224	1887.5875
2475.39782	1906.1875
2478.15167	1921.3875
2480.90379	1944.1875
2483.65417	1966.3875
2486.40283	1993.0875
2489.14976	2006.4875
2491.89497	2020.8875
2494.63845	2030.0875
2497.3802	2026.9875
2500.12024	2006.9875
2502.85855	1983.2875
2505.59514	1952.0875
2508.33002	1904.7875
2511.06318	1882.8875
2513.79462	1832.8875
2516.52435	1802.1875
2519.25237	1768.1875
2521.97867	1755.4875
2524.70327	1743.9875
2527.42616	1723.6875
2530.14734	1717.0875
2532.86681	1720.6875
2535.58458	1716.7875
2538.30065	1741.6875
2541.01501	1750.1875
2543.72768	1755.0875
2546.43864	1763.7875
2549.14791	1767.0875
2551.85548	1768.5875
2554.56136	1772.7875
2557.26554	1770.2875
2559.96803	1767.9875
2562.66883	1763.8875
2565.36794	1771.1875
2568.06536	1771.2875
2570.7611	1761.5875
2573.45514	1746.3875
2576.14751	1744.6875
2578.83819	1729.3875
2581.52719	1728.0875
2584.21451	1731.7875
2586.90015	1702.1875
2589.58411	1709.8875
2592.2664	1697.2875
2594.94701	1702.5875
2597.62594	1695.6875
2600.30321	1703.4875
2602.9788	1698.0875
2605.65273	1702.5875
2608.32498	1721.6875
2610.99557	1713.9875
2613.66449	1723.0875
2616.33175	1733.2875
2618.99734	1726.9875
2621.66128	1712.7875
2624.32355	1707.8875
2626.98416	1702.2875
2629.64311	1681.0875
2632.30041	1673.1875
2634.95605	1663.8875
2637.61004	1648.7875
2640.26238	1659.1875
2642.91306	1649.7875
2645.56209	1635.0875
2648.20948	1640.5875
2650.85521	1652.3875
2653.4993	1655.3875
2656.14175	1664.2875
2658.78255	1670.1875
2661.42171	1680.0875
2664.05923	1689.6875
2666.6951	1696.3875
2669.32934	1719.3875
2671.96194	1717.1875
2674.59291	1713.6875
2677.22224	1714.3875
2679.84993	1709.8875
2682.476	1713.8875
2685.10043	1713.7875
2687.72324	1700.8875
2690.34441	1702.1875
2692.96396	1688.9875
2695.58188	1703.5875
2698.19818	1695.0875
2700.81285	1692.9875
2703.4259	1700.9875
2706.03733	1717.2875
2708.64714	1714.1875
2711.25533	1716.7875
2713.86191	1713.1875
2716.46687	1718.9875
2719.07021	1737.5875
2721.67194	1750.9875
2724.27206	1740.9875
2726.87057	1741.2875
2729.46747	1726.6875
2732.06276	1719.7875
2734.65644	1712.8875
2737.24852	1689.4875
2739.83899	1683.4875
2742.42786	1681.6875
2745.01513	1664.5875
2747.60079	1648.5875
2750.18486	1633.9875
2752.76733	1631.8875
2755.3482	1626.3875
2757.92747	1616.3875
2760.50515	1620.0875
2763.08123	1611.4875
2765.65573	1599.9875
2768.22863	1612.4875
2770.79994	1610.8875
2773.36967	1613.9875
2775.9378	1611.9875
2778.50435	1616.9875
2781.06932	1624.9875
2783.6327	1647.6875
2786.1945	1648.1875
2788.75471	1658.3875
2791.31335	1661.8875
2793.87041	1678.7875
2796.42589	1687.0875
2798.97979	1698.1875
2801.53212	1718.7875
2804.08288	1731.7875
2806.63206	1750.7875
2809.17967	1772.5875
2811.72571	1799.8875
2814.27018	1813.5875
2816.81308	1830.7875
2819.35442	1862.8875
2821.89419	1862.9875
2824.43239	1895.6875
2826.96904	1894.0875
2829.50412	1891.7875
2832.03763	1892.6875
2834.56959	1882.5875
2837.1	1901.5875
2839.62884	1908.6875
2842.15613	1904.3875
2844.68186	1934.3875
2847.20604	1953.7875
2849.72867	1968.8875
2852.24974	1985.1875
2854.76927	2024.2875
2857.28724	2031.0875
2859.80367	2054.4875
2862.31855	2089.4875
2864.83189	2119.2875
2867.34368	2135.6875
2869.85393	2167.5875
2872.36264	2182.1875
2874.8698	2186.9875
2877.37543	2175.8875
2879.87952	2152.4875
2882.38207	2145.8875
2884.88308	2144.1875
2887.38256	2141.1875
2889.88051	2120.6875
2892.37692	2131.8875
2894.8718	2128.3875
2897.36515	2133.7875
2899.85698	2130.2875
2902.34727	2129.6875
2904.83604	2113.8875
2907.32328	2108.0875
2909.809	2103.1875
2912.29319	2082.2875
2914.77587	2078.4875
2917.25702	2063.8875
2919.73665	2043.6875
2922.21476	2049.7875
2924.69136	2044.9875
2927.16644	2030.6875
2929.64	2014.3875
2932.11205	2003.3875
2934.58258	1989.9875
2937.05161	1969.7875
2939.51912	1966.1875
2941.98513	1970.3875
2944.44962	1946.2875
2946.91261	1926.8875
2949.37409	1916.8875
2951.83407	1907.5875
2954.29254	1893.5875
2956.74951	1880.1875
2959.20498	1872.4875
2961.65895	1861.7875
2964.11142	1846.2875
2966.56239	1832.2875
2969.01186	1826.3875
2971.45984	1800.7875
2973.90632	1791.8875
2976.35131	1780.5875
2978.7948	1757.3875
2981.23681	1753.2875
2983.67732	1730.9875
2986.11635	1727.4875
2988.55388	1718.1875
2990.98993	1723.5875
2993.4245	1722.3875
2995.85758	1729.9875
2998.28917	1734.8875
3000.71928	1733.0875
3003.14791	1741.7875
3005.57506	1738.7875
3008.00073	1736.6875
3010.42493	1702.9875
3012.84764	1732.3875
3015.26888	1728.6875
3017.68865	1736.4875
3020.10694	1734.7875
3022.52376	1714.2875
3024.9391	1714.1875
3027.35298	1703.7875
3029.76539	1690.8875
3032.17632	1681.4875
3034.5858	1654.0875
3036.9938	1644.6875
3039.40034	1630.3875
3041.80542	1624.4875
3044.20903	1612.3875
3046.61118	1613.0875
3049.01187	1608.4875
3051.4111	1610.3875
3053.80888	1602.1875
3056.20519	1597.4875
3058.60005	1592.2875
3060.99345	1587.0875
3063.3854	1577.8875
3065.7759	1576.2875
3068.16494	1576.2875
3070.55254	1561.3875
3072.93868	1564.1875
3075.32338	1554.6875
3077.70662	1547.7875
3080.08842	1545.1875
3082.46878	1548.3875
3084.84769	1554.2875
3087.22515	1556.9875
3089.60118	1546.4875
3091.97576	1557.3875
3094.3489	1550.2875
3096.72061	1558.8875
3099.09087	1552.1875
3101.4597	1567.6875
3103.82709	1574.0875
3106.19305	1573.7875
3108.55757	1577.4875
3110.92066	1574.9875
