Data from AgNPs_UA_20uM_CRN_500uM_AS_RamanShift__11__14-36-21-509.txt Node

Date: Wed Aug 17 14:36:21 BST 2022
User: TCL
Spectrometer: QEP01345
Trigger mode: 4
Integration Time (sec): 7.000000E0
Scans to average: 10
Electric dark correction enabled: true
Nonlinearity correction enabled: false
Boxcar width: 0
XAxis mode: Raman Shifts
Number of Pixels in Spectrum: 1044
>>>>>Begin Spectral Data<<<<<
46.04893	-0.85
50.45542	-0.45
54.85868	-0.85
59.25871	0.45
63.6555	41.25
68.04907	45.05
72.43941	45.75
76.82654	51.85
81.21044	52.95
85.59113	54.35
89.96862	55.55
94.34289	67.05
98.71396	66.35
103.08183	65.65
107.4465	67.95
111.80798	64.05
116.16626	64.25
120.52136	66.05
124.87327	65.75
129.222	65.35
133.56755	64.55
137.90993	64.35
142.24913	72.05
146.58517	72.95
150.91804	75.45
155.24774	77.75
159.57429	86.15
163.89768	98.95
168.21792	119.85
172.53501	151.85
176.84895	196.05
181.15975	259.25
185.46741	349.45
189.77193	483.85
194.07331	633.75
198.37157	806.05
202.6667	986.45
206.9587	1164.05
211.24758	1340.35
215.53334	1526.75
219.81599	1717.45
224.09553	1920.65
228.37195	2158.35
232.64527	2413.25
236.91549	2675.45
241.18261	2931.15
245.44663	3151.85
249.70755	3340.55
253.96539	3492.55
258.22014	3628.65
262.4718	3706.55
266.72039	3764.65
270.96589	3762.35
275.20832	3723.55
279.44768	3646.35
283.68397	3558.15
287.91719	3488.55
292.14735	3454.05
296.37445	3420.65
300.59849	3438.95
304.81948	3482.15
309.03742	3520.65
313.25231	3545.55
317.46415	3529.65
321.67296	3458.25
325.87872	3397.45
330.08145	3360.35
334.28114	3364.25
338.47781	3383.35
342.67145	3441.45
346.86207	3490.65
351.04966	3586.25
355.23424	3660.45
359.4158	3714.95
363.59435	3761.05
367.76989	3774.65
371.94243	3781.55
376.11196	3784.75
380.27849	3787.15
384.44203	3788.65
388.60257	3805.55
392.76012	3835.85
396.91468	3881.85
401.06626	3933.25
405.21485	3955.15
409.36047	3934.55
413.50311	3847.75
417.64277	3779.05
421.77947	3746.45
425.9132	3761.15
430.04396	3775.05
434.17176	3819.65
438.2966	3866.45
442.41849	3937.25
446.53742	4035.15
450.6534	4117.45
454.76644	4158.15
458.87653	4154.65
462.98368	4128.55
467.08789	4099.95
471.18916	4027.25
475.2875	3969.25
479.38291	3897.35
483.4754	3850.15
487.56496	3828.55
491.6516	3802.75
495.73531	3818.75
499.81612	3821.35
503.89401	3826.65
507.96899	3848.85
512.04106	3868.35
516.11023	3866.15
520.1765	3889.55
524.23987	3892.15
528.30034	3902.35
532.35792	3880.25
536.41261	3851.75
540.46441	3831.05
544.51333	3798.65
548.55936	3814.25
552.60252	3859.95
556.64279	3933.45
560.6802	3950.85
564.71473	3977.55
568.7464	3977.05
572.7752	4016.15
576.80114	4014.35
580.82422	4062.65
584.84444	4128.55
588.86181	4258.65
592.87633	4456.05
596.888	4615.15
600.89682	4623.15
604.9028	4717.35
608.90594	5179.85
612.90624	5698.05
616.90371	5326.25
620.89834	4439.35
624.89015	4013.65
628.87913	3960.75
632.86528	4009.85
636.84862	4047.05
640.82913	4006.85
644.80683	3928.15
648.78172	3867.25
652.75379	3901.25
656.72306	3950.05
660.68952	4023.55
664.65319	3979.35
668.61405	3893.25
672.57211	3876.75
676.52738	3918.05
680.47986	3949.25
684.42955	3937.95
688.37646	3912.35
692.32058	3911.05
696.26192	3916.95
700.20048	3944.55
704.13626	3949.75
708.06928	3942.35
711.99952	3922.25
715.927	3914.55
719.85171	3918.75
723.77365	3925.45
727.69284	3904.55
731.60928	3905.05
735.52295	3900.75
739.43388	3919.55
743.34206	3927.65
747.24749	3933.35
751.15017	3950.05
755.05012	3998.95
758.94733	4113.15
762.8418	4369.55
766.73354	4779.25
770.62254	5172.15
774.50882	5252.45
778.39237	4984.95
782.27321	4605.15
786.15132	4257.85
790.02671	4055.55
793.89938	3953.55
797.76935	3907.55
801.6366	3864.55
805.50115	3853.35
809.36299	3820.95
813.22213	3796.95
817.07857	3779.25
820.93231	3790.75
824.78336	3784.85
828.63172	3794.55
832.47738	3793.05
836.32036	3786.15
840.16066	3762.55
843.99827	3767.05
847.8332	3769.25
851.66546	3770.25
855.49504	3782.05
859.32195	3779.85
863.1462	3787.55
866.96777	3782.75
870.78668	3776.15
874.60293	3777.25
878.41652	3813.45
882.22745	3814.05
886.03573	3821.25
889.84136	3828.35
893.64433	3806.75
897.44466	3806.35
901.24235	3809.25
905.0374	3793.95
908.8298	3804.15
912.61957	3764.05
916.40671	3801.85
920.19121	3800.35
923.97308	3843.85
927.75233	3832.65
931.52895	3843.15
935.30295	3813.75
939.07433	3740.15
942.84309	3700.65
946.60924	3673.85
950.37278	3648.95
954.13371	3638.35
957.89203	3623.95
961.64774	3630.45
965.40086	3619.85
969.15137	3604.05
972.89929	3607.55
976.64461	3576.15
980.38733	3600.45
984.12747	3581.95
987.86502	3596.55
991.59999	3602.25
995.33237	3634.55
999.06217	3667.55
1002.78939	3698.45
1006.51404	3764.25
1010.23611	3817.25
1013.95561	3833.05
1017.67255	3849.15
1021.38692	3812.75
1025.09872	3768.75
1028.80796	3729.75
1032.51465	3715.15
1036.21877	3699.15
1039.92035	3721.05
1043.61937	3712.05
1047.31584	3736.45
1051.00976	3746.35
1054.70114	3763.35
1058.38998	3748.95
1062.07627	3771.85
1065.76003	3772.55
1069.44126	3788.65
1073.11995	3814.35
1076.79611	3867.55
1080.46974	3893.25
1084.14085	3940.55
1087.80943	3984.75
1091.47549	4010.45
1095.13903	3968.25
1098.80005	3910.15
1102.45857	3861.05
1106.11456	3843.95
1109.76805	3843.55
1113.41903	3875.55
1117.06751	3935.75
1120.71348	4000.05
1124.35696	4105.65
1127.99793	4172.95
1131.63641	4170.95
1135.2724	4103.05
1138.90589	4020.55
1142.5369	3993.05
1146.16542	3952.45
1149.79145	3942.25
1153.415	3952.05
1157.03607	3971.55
1160.65467	4044.15
1164.27079	4117.45
1167.88443	4253.05
1171.49561	4477.15
1175.10432	4785.45
1178.71056	5175.25
1182.31434	5535.55
1185.91565	5685.55
1189.51451	5632.05
1193.11091	5479.55
1196.70485	5253.95
1200.29634	5030.45
1203.88538	4808.45
1207.47197	4611.35
1211.05612	4398.15
1214.63782	4280.25
1218.21708	4249.25
1221.79391	4239.05
1225.36829	4280.55
1228.94024	4289.05
1232.50976	4267.55
1236.07685	4211.95
1239.6415	4186.75
1243.20374	4169.05
1246.76355	4167.25
1250.32093	4186.25
1253.8759	4223.55
1257.42845	4288.55
1260.97859	4383.75
1264.52631	4488.15
1268.07163	4578.45
1271.61453	4645.45
1275.15503	4706.15
1278.69312	4779.65
1282.22882	4823.45
1285.76211	4926.95
1289.29301	5073.55
1292.82151	5230.65
1296.34761	5400.55
1299.87133	5640.55
1303.39266	5934.35
1306.9116	6319.55
1310.42815	6704.85
1313.94233	6906.75
1317.45412	6768.75
1320.96354	6489.55
1324.47058	6146.95
1327.97525	5816.95
1331.47754	5596.45
1334.97747	5497.95
1338.47502	5495.55
1341.97022	5564.15
1345.46305	5742.95
1348.95352	6020.65
1352.44163	6348.35
1355.92738	6756.45
1359.41078	7297.25
1362.89183	7828.85
1366.37053	7761.35
1369.84688	6993.25
1373.32088	6052.75
1376.79254	5416.95
1380.26186	5087.75
1383.72883	4933.65
1387.19347	4803.75
1390.65578	4666.25
1394.11575	4556.15
1397.57339	4497.15
1401.0287	4476.55
1404.48168	4449.85
1407.93234	4439.15
1411.38068	4413.85
1414.82669	4413.45
1418.27039	4391.75
1421.71177	4357.65
1425.15083	4287.25
1428.58758	4236.05
1432.02203	4217.95
1435.45416	4244.95
1438.88399	4277.35
1442.31151	4288.45
1445.73673	4293.35
1449.15965	4306.95
1452.58027	4303.75
1455.9986	4278.45
1459.41463	4279.35
1462.82837	4322.55
1466.23982	4404.15
1469.64898	4489.15
1473.05586	4591.95
1476.46045	4652.05
1479.86276	4706.25
1483.26279	4765.05
1486.66054	4845.95
1490.05602	4977.95
1493.44922	5182.75
1496.84016	5451.45
1500.22882	5797.45
1503.61521	6232.85
1506.99934	6639.05
1510.38121	6908.15
1513.76081	6807.35
1517.13816	6388.25
1520.51324	5872.35
1523.88607	5462.85
1527.25665	5198.15
1530.62498	5073.05
1533.99105	4981.95
1537.35488	4880.35
1540.71647	4764.65
1544.07581	4658.45
1547.4329	4553.55
1550.78776	4504.65
1554.14038	4468.55
1557.49077	4479.05
1560.83892	4521.35
1564.18484	4604.75
1567.52853	4725.85
1570.86999	4824.85
1574.20922	4886.95
1577.54624	4860.65
1580.88103	4693.15
1584.2136	4521.85
1587.54395	4394.05
1590.87208	4432.85
1594.19801	4618.05
1597.52172	4854.25
1600.84321	4954.45
1604.16251	4860.05
1607.47959	4679.75
1610.79447	4448.25
1614.10715	4219.85
1617.41763	4019.05
1620.7259	3865.65
1624.03199	3794.85
1627.33587	3769.45
1630.63757	3824.95
1633.93707	3959.35
1637.23439	4212.55
1640.52951	4588.95
1643.82246	5118.35
1647.11321	5619.55
1650.40179	5828.55
1653.68819	5573.95
1656.97241	4977.55
1660.25446	4377.55
1663.53433	3946.35
1666.81203	3661.45
1670.08756	3493.65
1673.36092	3387.55
1676.63211	3327.95
1679.90115	3269.65
1683.16801	3222.85
1686.43272	3190.65
1689.69527	3159.65
1692.95567	3135.95
1696.2139	3121.65
1699.46999	3111.25
1702.72392	3095.15
1705.97571	3082.65
1709.22535	3067.05
1712.47284	3066.95
1715.71819	3067.45
1718.96139	3054.55
1722.20246	3031.85
1725.44139	3009.85
1728.67818	2998.05
1731.91284	2988.05
1735.14537	2966.85
1738.37576	2939.05
1741.60403	2946.35
1744.83017	2946.65
1748.05418	2931.75
1751.27607	2929.15
1754.49584	2942.85
1757.71349	2941.05
1760.92903	2936.75
1764.14244	2929.05
1767.35375	2921.45
1770.56294	2901.05
1773.77002	2887.15
1776.97499	2862.75
1780.17785	2861.75
1783.37861	2842.05
1786.57727	2831.95
1789.77382	2812.55
1792.96828	2802.85
1796.16064	2800.75
1799.3509	2797.25
1802.53907	2774.85
1805.72514	2773.05
1808.90913	2775.65
1812.09102	2738.45
1815.27083	2740.85
1818.44856	2724.15
1821.6242	2719.55
1824.79776	2729.75
1827.96924	2709.85
1831.13864	2722.65
1834.30597	2708.75
1837.47122	2701.95
1840.6344	2695.85
1843.7955	2700.35
1846.95454	2695.95
1850.11151	2691.25
1853.26642	2679.65
1856.41926	2686.05
1859.57004	2672.65
1862.71876	2679.65
1865.86542	2670.45
1869.01003	2672.75
1872.15258	2676.85
1875.29308	2667.35
1878.43152	2655.35
1881.56792	2668.75
1884.70227	2651.25
1887.83457	2651.15
1890.96482	2645.45
1894.09304	2633.15
1897.21921	2635.55
1900.34335	2630.45
1903.46544	2627.35
1906.58551	2633.35
1909.70353	2611.65
1912.81953	2612.05
1915.93349	2598.45
1919.04543	2599.25
1922.15534	2591.15
1925.26322	2594.35
1928.36908	2574.25
1931.47292	2570.25
1934.57473	2570.95
1937.67453	2564.85
1940.77232	2548.45
1943.86808	2549.55
1946.96184	2525.05
1950.05358	2525.85
1953.14331	2515.85
1956.23103	2501.95
1959.31675	2506.95
1962.40046	2487.45
1965.48217	2478.25
1968.56188	2488.25
1971.63959	2477.75
1974.7153	2457.35
1977.78901	2455.85
1980.86073	2454.55
1983.93046	2433.75
1986.99819	2440.85
1990.06394	2425.65
1993.1277	2419.45
1996.18947	2410.15
1999.24925	2391.45
2002.30706	2403.15
2005.36288	2378.35
2008.41672	2369.85
2011.46859	2363.15
2014.51848	2354.05
2017.56639	2349.85
2020.61233	2351.75
2023.6563	2353.95
2026.6983	2336.65
2029.73833	2330.55
2032.7764	2317.45
2035.8125	2312.05
2038.84664	2304.35
2041.87881	2312.05
2044.90903	2301.05
2047.93729	2280.35
2050.96359	2297.85
2053.98794	2276.85
2057.01034	2284.25
2060.03078	2277.45
2063.04927	2269.45
2066.06582	2273.75
2069.08042	2269.85
2072.09307	2273.25
2075.10378	2269.15
2078.11255	2268.95
2081.11938	2264.95
2084.12426	2258.45
2087.12722	2268.15
2090.12824	2271.25
2093.12732	2267.95
2096.12447	2265.85
2099.11969	2259.85
2102.11299	2263.15
2105.10435	2255.85
2108.09379	2254.45
2111.08131	2256.15
2114.0669	2262.95
2117.05057	2277.05
2120.03233	2258.55
2123.01216	2264.85
2125.99008	2272.15
2128.96609	2260.55
2131.94018	2262.45
2134.91236	2269.55
2137.88263	2265.35
2140.851	2266.25
2143.81746	2258.45
2146.78201	2274.55
2149.74466	2271.15
2152.7054	2264.05
2155.66425	2259.05
2158.6212	2257.25
2161.57625	2248.35
2164.52941	2255.55
2167.48067	2254.65
2170.43004	2240.45
2173.37752	2243.95
2176.32311	2236.35
2179.26681	2239.05
2182.20863	2249.15
2185.14856	2233.25
2188.08661	2246.65
2191.02278	2240.55
2193.95707	2236.85
2196.88948	2225.55
2199.82001	2231.55
2202.74867	2236.25
2205.67545	2237.15
2208.60037	2224.45
2211.52341	2218.75
2214.44458	2206.85
2217.36388	2201.75
2220.28132	2199.05
2223.1969	2184.05
2226.11061	2182.85
2229.02246	2184.65
2231.93245	2173.65
2234.84058	2171.75
2237.74686	2172.45
2240.65128	2175.95
2243.55385	2164.15
2246.45456	2163.45
2249.35343	2165.85
2252.25044	2163.85
2255.14561	2171.85
2258.03893	2167.45
2260.93041	2152.55
2263.82004	2139.45
2266.70783	2149.65
2269.59378	2134.95
2272.4779	2119.35
2275.36017	2120.95
2278.24061	2108.75
2281.11922	2104.95
2283.996	2108.15
2286.87094	2100.15
2289.74405	2095.55
2292.61534	2079.75
2295.4848	2085.75
2298.35243	2090.75
2301.21824	2077.25
2304.08223	2079.15
2306.94439	2076.75
2309.80474	2082.65
2312.66327	2070.45
2315.51999	2069.75
2318.37489	2057.95
2321.22797	2056.65
2324.07925	2054.45
2326.92871	2050.65
2329.77637	2045.65
2332.62222	2051.05
2335.46626	2042.05
2338.3085	2042.35
2341.14893	2040.15
2343.98756	2034.95
2346.8244	2045.45
2349.65943	2029.65
2352.49267	2022.85
2355.32411	2025.85
2358.15376	2029.35
2360.98161	2027.05
2363.80768	2018.35
2366.63195	2018.85
2369.45444	2031.35
2372.27514	2021.65
2375.09405	2031.35
2377.91118	2026.55
2380.72652	2013.95
2383.54009	2007.65
2386.35187	2009.15
2389.16188	1984.15
2391.97011	1980.25
2394.77657	1985.65
2397.58125	1972.85
2400.38416	1964.05
2403.18529	1977.15
2405.98466	1963.35
2408.78226	1962.45
2411.57809	1964.85
2414.37216	1951.15
2417.16446	1951.45
2419.955	1955.25
2422.74378	1945.85
2425.5308	1951.25
2428.31606	1946.15
2431.09956	1947.65
2433.88131	1938.55
2436.6613	1938.85
2439.43954	1935.65
2442.21603	1934.15
2444.99077	1936.05
2447.76377	1940.95
2450.53501	1930.85
2453.30451	1926.45
2456.07226	1930.15
2458.83827	1920.75
2461.60254	1928.75
2464.36507	1914.85
2467.12586	1925.15
2469.88492	1922.45
2472.64224	1915.15
2475.39782	1919.85
2478.15167	1903.15
2480.90379	1912.55
2483.65417	1899.35
2486.40283	1909.85
2489.14976	1921.65
2491.89497	1914.75
2494.63845	1927.85
2497.3802	1911.25
2500.12024	1900.95
2502.85855	1912.55
2505.59514	1902.15
2508.33002	1897.55
2511.06318	1898.35
2513.79462	1887.45
2516.52435	1881.15
2519.25237	1879.65
2521.97867	1871.15
2524.70327	1876.95
2527.42616	1861.15
2530.14734	1864.95
2532.86681	1872.25
2535.58458	1861.55
2538.30065	1863.95
2541.01501	1871.45
2543.72768	1855.25
2546.43864	1858.85
2549.14791	1855.65
2551.85548	1846.45
2554.56136	1842.85
2557.26554	1843.85
2559.96803	1834.55
2562.66883	1831.55
2565.36794	1836.35
2568.06536	1829.25
2570.7611	1827.15
2573.45514	1818.35
2576.14751	1815.55
2578.83819	1804.05
2581.52719	1811.15
2584.21451	1796.45
2586.90015	1809.85
2589.58411	1806.25
2592.2664	1803.05
2594.94701	1792.25
2597.62594	1793.35
2600.30321	1784.55
2602.9788	1787.35
2605.65273	1773.85
2608.32498	1782.85
2610.99557	1777.65
2613.66449	1781.45
2616.33175	1770.05
2618.99734	1771.15
2621.66128	1760.55
2624.32355	1770.45
2626.98416	1767.35
2629.64311	1752.35
2632.30041	1757.65
2634.95605	1757.55
2637.61004	1750.55
2640.26238	1747.05
2642.91306	1742.95
2645.56209	1743.35
2648.20948	1746.95
2650.85521	1744.35
2653.4993	1740.25
2656.14175	1746.65
2658.78255	1754.15
2661.42171	1743.25
2664.05923	1740.85
2666.6951	1751.05
2669.32934	1758.55
2671.96194	1744.65
2674.59291	1744.05
2677.22224	1746.35
2679.84993	1748.15
2682.476	1745.05
2685.10043	1748.25
2687.72324	1739.25
2690.34441	1732.85
2692.96396	1726.65
2695.58188	1730.55
2698.19818	1729.95
2700.81285	1732.95
2703.4259	1725.55
2706.03733	1724.55
2708.64714	1731.65
2711.25533	1730.95
2713.86191	1730.95
2716.46687	1744.55
2719.07021	1730.95
2721.67194	1753.05
2724.27206	1733.95
2726.87057	1749.35
2729.46747	1733.85
2732.06276	1734.55
2734.65644	1734.05
2737.24852	1735.65
2739.83899	1724.95
2742.42786	1734.05
2745.01513	1727.25
2747.60079	1724.25
2750.18486	1719.45
2752.76733	1723.35
2755.3482	1716.25
2757.92747	1718.85
2760.50515	1716.35
2763.08123	1711.95
2765.65573	1705.35
2768.22863	1701.05
2770.79994	1697.85
2773.36967	1695.65
2775.9378	1697.95
2778.50435	1690.25
2781.06932	1689.05
2783.6327	1700.05
2786.1945	1697.05
2788.75471	1687.55
2791.31335	1684.15
2793.87041	1685.55
2796.42589	1681.75
2798.97979	1686.85
2801.53212	1678.95
2804.08288	1672.15
2806.63206	1673.65
2809.17967	1675.45
2811.72571	1676.35
2814.27018	1668.75
2816.81308	1668.35
2819.35442	1665.15
2821.89419	1665.45
2824.43239	1658.75
2826.96904	1664.05
2829.50412	1662.25
2832.03763	1649.25
2834.56959	1653.45
2837.1	1657.55
2839.62884	1656.35
2842.15613	1657.55
2844.68186	1657.75
2847.20604	1664.55
2849.72867	1654.65
2852.24974	1660.35
2854.76927	1660.85
2857.28724	1644.85
2859.80367	1656.75
2862.31855	1666.05
2864.83189	1659.95
2867.34368	1675.45
2869.85393	1680.15
2872.36264	1675.45
2874.8698	1681.15
2877.37543	1664.95
2879.87952	1667.45
2882.38207	1675.15
2884.88308	1687.25
2887.38256	1676.25
2889.88051	1679.05
2892.37692	1690.55
2894.8718	1683.75
2897.36515	1696.95
2899.85698	1706.55
2902.34727	1710.55
2904.83604	1710.05
2907.32328	1714.15
2909.809	1718.75
2912.29319	1728.55
2914.77587	1732.25
2917.25702	1740.45
2919.73665	1743.45
2922.21476	1741.15
2924.69136	1750.45
2927.16644	1746.25
2929.64	1742.75
2932.11205	1748.15
2934.58258	1747.95
2937.05161	1749.65
2939.51912	1747.55
2941.98513	1750.55
2944.44962	1744.05
2946.91261	1740.55
2949.37409	1733.35
2951.83407	1735.45
2954.29254	1731.55
2956.74951	1719.45
2959.20498	1723.05
2961.65895	1705.45
2964.11142	1704.95
2966.56239	1708.15
2969.01186	1696.35
2971.45984	1687.55
2973.90632	1684.95
2976.35131	1679.95
2978.7948	1670.65
2981.23681	1670.85
2983.67732	1664.85
2986.11635	1664.45
2988.55388	1655.05
2990.98993	1652.95
2993.4245	1639.05
2995.85758	1638.45
2998.28917	1629.25
3000.71928	1628.15
3003.14791	1632.05
3005.57506	1629.45
3008.00073	1621.05
3010.42493	1587.25
3012.84764	1613.45
3015.26888	1625.75
3017.68865	1613.95
3020.10694	1614.15
3022.52376	1618.45
3024.9391	1609.25
3027.35298	1610.85
3029.76539	1614.25
3032.17632	1610.45
3034.5858	1601.35
3036.9938	1604.35
3039.40034	1610.35
3041.80542	1606.55
3044.20903	1606.05
3046.61118	1609.05
3049.01187	1609.55
3051.4111	1610.55
3053.80888	1605.15
3056.20519	1615.45
3058.60005	1621.45
3060.99345	1609.25
3063.3854	1610.75
3065.7759	1605.75
3068.16494	1610.45
3070.55254	1597.25
3072.93868	1614.05
3075.32338	1608.95
3077.70662	1601.15
3080.08842	1601.75
3082.46878	1607.65
3084.84769	1612.05
3087.22515	1616.05
3089.60118	1613.95
3091.97576	1615.95
3094.3489	1623.25
3096.72061	1632.95
3099.09087	1635.55
3101.4597	1642.65
3103.82709	1655.15
3106.19305	1650.35
3108.55757	1656.95
3110.92066	1662.35
3113.28232	1658.15
3115.64255	1674.95
3118.00134	1676.15
3120.35871	1683.85
3122.71466	1672.05
3125.06917	1674.05
3127.42226	1681.75
3129.77393	1691.25
3132.12417	1687.15
3134.47299	1698.55
3136.82039	1695.25
3139.16636	1705.95
3141.51092	1707.25
3143.85406	1721.05
3146.19579	1731.55
3148.53609	1739.35
3150.87499	1735.35
3153.21246	1750.45
3155.54853	1757.95
3157.88318	1766.35
3160.21642	1767.95
3162.54826	1774.35
3164.87868	1771.65
3167.2077	1785.65
3169.5353	1803.55
3171.86151	1814.25
3174.18631	1810.35
3176.5097	1821.35
3178.83169	1813.05
3181.15228	1825.95
3183.47147	1822.15
3185.78926	1825.05
3188.10565	1833.45
3190.42065	1831.55
3192.73424	1836.35
3195.04645	1837.85
3197.35725	1849.65
3199.66667	1858.05
3201.97469	1852.75
3204.28132	1861.35
3206.58656	1865.95
3208.8904	1875.05
3211.19287	1884.15
3213.49394	1888.35
3215.79363	1892.65
3218.09193	1896.85
3220.38884	1901.05
3222.68438	1904.15
3224.97853	1900.65
3227.2713	1911.75
3229.56269	1908.85
3231.8527	1906.55
3234.14133	1908.75
3236.42858	1907.15
3238.71446	1902.45
3240.99896	1894.65
3243.28209	1895.45
3245.56384	1900.25
3247.84423	1898.75
3250.12324	1900.25
3252.40088	1893.55
3254.67715	1891.25
3256.95205	1896.65
3259.22558	1894.45
3261.49775	1901.65
3263.76855	1899.25
3266.03799	1900.05
3268.30606	1907.05
3270.57277	1899.35
3272.83812	1894.95
3275.10211	1885.35
3277.36474	1890.85
3279.62601	1887.45
3281.88593	1883.65
3284.14448	1889.95
3286.40168	1886.85
3288.65753	1884.65
3290.91202	1880.85
3293.16516	1877.75
3295.41695	1881.45
3297.66738	1872.05
3299.91647	1866.95
3302.16421	1847.85
3304.4106	1842.05
3306.65564	1831.35
3308.89933	1823.75
3311.14169	1819.85
3313.38269	1799.65
3315.62236	1785.95
3317.86068	1776.85
3320.09766	1769.75
3322.3333	1753.05
3324.5676	1743.75
3326.80056	1725.75
3329.03219	1710.75
3331.26248	0.95
3333.49143	1.25
3335.71905	0.05
