Data from AgNPs_UA_20uM_CRN_500uM_AS_RamanShift__32__15-00-51-535.txt Node

Date: Wed Aug 17 15:00:51 BST 2022
User: TCL
Spectrometer: QEP01345
Trigger mode: 4
Integration Time (sec): 7.000000E0
Scans to average: 10
Electric dark correction enabled: true
Nonlinearity correction enabled: false
Boxcar width: 0
XAxis mode: Raman Shifts
Number of Pixels in Spectrum: 1044
>>>>>Begin Spectral Data<<<<<
46.04893	0.375
50.45542	-0.425
54.85868	-1.025
59.25871	0.375
63.6555	52.175
68.04907	52.575
72.43941	58.375
76.82654	60.975
81.21044	62.175
85.59113	60.175
89.96862	68.975
94.34289	77.675
98.71396	73.175
103.08183	73.675
107.4465	77.475
111.80798	77.775
116.16626	82.175
120.52136	80.475
124.87327	81.575
129.222	85.775
133.56755	94.875
137.90993	99.875
142.24913	110.475
146.58517	118.775
150.91804	131.975
155.24774	151.875
159.57429	182.175
163.89768	232.475
168.21792	304.275
172.53501	414.075
176.84895	570.875
181.15975	799.775
185.46741	1128.475
189.77193	1564.375
194.07331	2112.175
198.37157	2741.475
202.6667	3419.875
206.9587	4135.875
211.24758	4907.575
215.53334	5782.575
219.81599	6780.675
224.09553	7967.375
228.37195	9227.775
232.64527	10530.675
236.91549	11693.275
241.18261	12556.175
245.44663	13077.175
249.70755	13441.175
253.96539	13754.675
258.22014	13944.675
262.4718	13923.175
266.72039	13645.275
270.96589	13083.075
275.20832	12357.075
279.44768	11654.775
283.68397	11135.775
287.91719	10959.375
292.14735	11222.975
296.37445	12077.475
300.59849	13520.575
304.81948	15374.575
309.03742	16968.075
313.25231	17518.675
317.46415	16249.775
321.67296	13830.675
325.87872	11835.075
330.08145	10978.375
334.28114	11056.875
338.47781	11610.975
342.67145	12381.175
346.86207	13593.575
351.04966	15490.075
355.23424	17634.675
359.4158	18906.675
363.59435	18999.975
367.76989	18393.075
371.94243	17522.675
376.11196	16607.575
380.27849	15959.575
384.44203	15176.875
388.60257	14552.275
392.76012	14219.975
396.91468	14309.875
401.06626	14773.175
405.21485	14971.775
409.36047	14019.175
413.50311	12269.075
417.64277	10628.475
421.77947	9646.675
425.9132	9161.475
430.04396	9017.275
434.17176	9072.675
438.2966	9361.675
442.41849	9857.875
446.53742	10323.075
450.6534	10627.575
454.76644	10591.975
458.87653	10283.375
462.98368	9900.675
467.08789	9512.775
471.18916	9103.575
475.2875	8598.875
479.38291	8174.675
483.4754	7891.875
487.56496	7745.675
491.6516	7632.175
495.73531	7594.575
499.81612	7708.275
503.89401	7956.875
507.96899	8388.575
512.04106	8860.175
516.11023	9368.475
520.1765	9727.675
524.23987	9735.475
528.30034	9542.975
532.35792	9277.875
536.41261	8919.375
540.46441	8444.675
544.51333	8120.275
548.55936	8105.975
552.60252	8456.875
556.64279	8900.175
560.6802	9363.575
564.71473	10517.775
568.7464	12204.875
572.7752	12245.075
576.80114	10177.475
580.82422	8382.775
584.84444	7566.475
588.86181	7345.575
592.87633	7418.275
596.888	7832.675
600.89682	9177.675
604.9028	13524.875
608.90594	24073.575
612.90624	35794.075
616.90371	31105.675
620.89834	16178.675
624.89015	9985.475
628.87913	9178.775
632.86528	10014.075
636.84862	10472.075
640.82913	9503.775
644.80683	8004.975
648.78172	7187.875
652.75379	7422.975
656.72306	8632.475
660.68952	9671.675
664.65319	8828.075
668.61405	7370.875
672.57211	6820.775
676.52738	6848.475
680.47986	6770.975
684.42955	6467.275
688.37646	6356.075
692.32058	6385.475
696.26192	6600.375
700.20048	6874.475
704.13626	6934.575
708.06928	6788.475
711.99952	6687.475
715.927	6754.975
719.85171	7010.875
723.77365	7181.975
727.69284	7037.175
731.60928	6837.075
735.52295	6758.175
739.43388	6746.875
743.34206	6819.275
747.24749	6793.275
751.15017	6831.175
755.05012	7372.675
758.94733	9230.275
762.8418	13485.375
766.73354	18770.675
770.62254	22278.175
774.50882	23889.875
778.39237	22938.275
782.27321	17784.575
786.15132	12058.975
790.02671	8853.075
793.89938	7478.175
797.76935	6944.275
801.6366	6683.275
805.50115	6539.275
809.36299	6465.475
813.22213	6412.275
817.07857	6353.675
820.93231	6423.875
824.78336	6588.175
828.63172	6792.975
832.47738	6837.875
836.32036	6652.475
840.16066	6350.775
843.99827	6159.475
847.8332	6115.475
851.66546	6103.675
855.49504	6127.575
859.32195	6089.675
863.1462	6025.775
866.96777	5994.775
870.78668	6010.775
874.60293	6061.075
878.41652	6228.375
882.22745	6435.775
886.03573	6543.075
889.84136	6519.875
893.64433	6511.675
897.44466	6571.275
901.24235	6563.775
905.0374	6390.775
908.8298	6164.575
912.61957	5951.275
916.40671	5898.175
920.19121	5915.775
923.97308	6169.175
927.75233	6709.975
931.52895	7214.275
935.30295	6862.875
939.07433	6029.475
942.84309	5492.275
946.60924	5253.475
950.37278	5183.275
954.13371	5134.875
957.89203	5148.475
961.64774	5137.575
965.40086	5111.075
969.15137	5085.475
972.89929	5060.775
976.64461	5041.975
980.38733	5048.675
984.12747	5033.975
987.86502	5071.475
991.59999	5118.175
995.33237	5222.575
999.06217	5371.075
1002.78939	5597.875
1006.51404	5887.875
1010.23611	6067.075
1013.95561	6063.975
1017.67255	5931.075
1021.38692	5726.675
1025.09872	5505.775
1028.80796	5383.575
1032.51465	5418.775
1036.21877	5525.775
1039.92035	5652.175
1043.61937	5798.075
1047.31584	5901.175
1051.00976	5878.375
1054.70114	5773.775
1058.38998	5668.875
1062.07627	5677.075
1065.76003	5670.475
1069.44126	5733.875
1073.11995	5945.275
1076.79611	6467.975
1080.46974	7355.975
1084.14085	8330.475
1087.80943	8939.175
1091.47549	8858.375
1095.13903	8137.375
1098.80005	7266.975
1102.45857	6800.275
1106.11456	6783.275
1109.76805	7188.675
1113.41903	8057.375
1117.06751	9476.575
1120.71348	11601.375
1124.35696	14105.475
1127.99793	14890.275
1131.63641	13072.775
1135.2724	10531.375
1138.90589	8829.775
1142.5369	7832.975
1146.16542	7232.775
1149.79145	6902.175
1153.415	6795.575
1157.03607	6924.175
1160.65467	7296.075
1164.27079	7972.575
1167.88443	9078.975
1171.49561	10933.875
1175.10432	14036.775
1178.71056	17932.975
1182.31434	20680.375
1185.91565	20695.175
1189.51451	18857.475
1193.11091	16441.775
1196.70485	14455.675
1200.29634	13125.175
1203.88538	11746.575
1207.47197	9921.575
1211.05612	8283.175
1214.63782	7308.675
1218.21708	6823.475
1221.79391	6612.175
1225.36829	6575.075
1228.94024	6550.575
1232.50976	6558.475
1236.07685	6643.575
1239.6415	6807.075
1243.20374	7001.375
1246.76355	7170.775
1250.32093	7419.875
1253.8759	7814.875
1257.42845	8448.575
1260.97859	9314.475
1264.52631	10249.175
1268.07163	10914.375
1271.61453	11193.175
1275.15503	11041.675
1278.69312	10889.375
1282.22882	11252.875
1285.76211	12177.575
1289.29301	13136.975
1292.82151	13876.675
1296.34761	14945.875
1299.87133	17014.675
1303.39266	20976.175
1306.9116	27054.375
1310.42815	32436.075
1313.94233	32695.675
1317.45412	27770.575
1320.96354	21549.975
1324.47058	16334.075
1327.97525	12934.175
1331.47754	11324.375
1334.97747	11054.675
1338.47502	12006.375
1341.97022	14210.675
1345.46305	17623.275
1348.95352	21527.275
1352.44163	26243.275
1355.92738	33792.775
1359.41078	43989.275
1362.89183	48701.475
1366.37053	41055.675
1369.84688	29465.275
1373.32088	21550.475
1376.79254	17236.175
1380.26186	14400.575
1383.72883	12045.575
1387.19347	10113.875
1390.65578	8675.575
1394.11575	7765.475
1397.57339	7318.475
1401.0287	7131.275
1404.48168	6994.475
1407.93234	7022.975
1411.38068	7264.375
1414.82669	7637.575
1418.27039	7811.675
1421.71177	7742.275
1425.15083	7748.375
1428.58758	8137.675
1432.02203	8567.675
1435.45416	8530.075
1438.88399	8254.175
1442.31151	8097.175
1445.73673	8118.675
1449.15965	8170.575
1452.58027	8007.175
1455.9986	7770.775
1459.41463	7812.775
1462.82837	8198.075
1466.23982	8648.075
1469.64898	8865.175
1473.05586	8877.075
1476.46045	8898.675
1479.86276	9175.375
1483.26279	9795.775
1486.66054	10859.175
1490.05602	12498.875
1493.44922	15000.975
1496.84016	19032.475
1500.22882	25240.175
1503.61521	33744.375
1506.99934	43008.775
1510.38121	49422.175
1513.76081	49069.275
1517.13816	41470.975
1520.51324	31007.475
1523.88607	22336.175
1527.25665	16974.275
1530.62498	14030.975
1533.99105	12251.475
1537.35488	11243.975
1540.71647	10765.175
1544.07581	10814.075
1547.4329	11106.675
1550.78776	11540.475
1554.14038	11882.675
1557.49077	12248.875
1560.83892	13020.375
1564.18484	14604.275
1567.52853	16399.775
1570.86999	17572.975
1574.20922	17874.475
1577.54624	16829.675
1580.88103	14108.775
1584.2136	11162.375
1587.54395	9428.575
1590.87208	9095.375
1594.19801	9931.675
1597.52172	11045.075
1600.84321	11314.075
1604.16251	10497.475
1607.47959	9442.075
1610.79447	8403.775
1614.10715	7461.775
1617.41763	6818.675
1620.7259	6521.375
1624.03199	6490.575
1627.33587	6722.175
1630.63757	7250.375
1633.93707	8229.375
1637.23439	9991.675
1640.52951	13200.575
1643.82246	18224.475
1647.11321	23960.275
1650.40179	26962.575
1653.68819	24636.275
1656.97241	18893.975
1660.25446	13245.275
1663.53433	9547.075
1666.81203	7451.075
1670.08756	6301.275
1673.36092	5652.575
1676.63211	5246.775
1679.90115	4986.375
1683.16801	4819.275
1686.43272	4704.775
1689.69527	4608.875
1692.95567	4540.175
1696.2139	4541.775
1699.46999	4513.175
1702.72392	4489.475
1705.97571	4445.475
1709.22535	4442.375
1712.47284	4433.075
1715.71819	4411.675
1718.96139	4375.475
1722.20246	4316.375
1725.44139	4232.475
1728.67818	4120.675
1731.91284	4029.775
1735.14537	3969.275
1738.37576	3924.175
1741.60403	3880.875
1744.83017	3862.775
1748.05418	3828.975
1751.27607	3811.375
1754.49584	3767.075
1757.71349	3732.775
1760.92903	3673.775
1764.14244	3638.175
1767.35375	3568.775
1770.56294	3525.275
1773.77002	3461.975
1776.97499	3405.575
1780.17785	3333.975
1783.37861	3294.175
1786.57727	3272.175
1789.77382	3247.375
1792.96828	3236.675
1796.16064	3222.175
1799.3509	3209.875
1802.53907	3198.875
1805.72514	3170.975
1808.90913	3149.875
1812.09102	3112.475
1815.27083	3096.275
1818.44856	3087.875
1821.6242	3064.675
1824.79776	3046.275
1827.96924	3021.775
1831.13864	2995.075
1834.30597	2976.775
1837.47122	2950.675
1840.6344	2920.875
1843.7955	2906.175
1846.95454	2901.475
1850.11151	2892.975
1853.26642	2884.975
1856.41926	2877.375
1859.57004	2877.175
1862.71876	2885.975
1865.86542	2890.275
1869.01003	2907.775
1872.15258	2908.875
1875.29308	2904.975
1878.43152	2896.875
1881.56792	2903.675
1884.70227	2886.875
1887.83457	2878.975
1890.96482	2874.175
1894.09304	2854.675
1897.21921	2853.375
1900.34335	2842.475
1903.46544	2844.375
1906.58551	2866.175
1909.70353	2837.975
1912.81953	2841.775
1915.93349	2837.975
1919.04543	2820.775
1922.15534	2797.775
1925.26322	2777.575
1928.36908	2759.475
1931.47292	2723.975
1934.57473	2699.275
1937.67453	2659.975
1940.77232	2634.175
1943.86808	2607.775
1946.96184	2598.375
1950.05358	2592.375
1953.14331	2592.975
1956.23103	2597.475
1959.31675	2602.975
1962.40046	2605.975
1965.48217	2602.675
1968.56188	2625.375
1971.63959	2633.975
1974.7153	2606.475
1977.78901	2588.775
1980.86073	2573.075
1983.93046	2530.775
1986.99819	2518.775
1990.06394	2481.375
1993.1277	2452.975
1996.18947	2433.775
1999.24925	2417.375
2002.30706	2395.275
2005.36288	2372.575
2008.41672	2376.975
2011.46859	2352.975
2014.51848	2352.275
2017.56639	2352.775
2020.61233	2334.075
2023.6563	2318.075
2026.6983	2296.675
2029.73833	2301.775
2032.7764	2296.475
2035.8125	2281.275
2038.84664	2270.475
2041.87881	2281.275
2044.90903	2276.375
2047.93729	2255.775
2050.96359	2240.675
2053.98794	2225.075
2057.01034	2219.375
2060.03078	2222.275
2063.04927	2201.675
2066.06582	2197.275
2069.08042	2180.275
2072.09307	2169.375
2075.10378	2178.975
2078.11255	2174.175
2081.11938	2175.475
2084.12426	2185.475
2087.12722	2168.075
2090.12824	2173.275
2093.12732	2178.975
2096.12447	2172.075
2099.11969	2175.375
2102.11299	2180.275
2105.10435	2175.675
2108.09379	2163.675
2111.08131	2179.475
2114.0669	2196.675
2117.05057	2227.375
2120.03233	2226.975
2123.01216	2243.275
2125.99008	2262.975
2128.96609	2249.575
2131.94018	2250.475
2134.91236	2231.175
2137.88263	2215.475
2140.851	2205.975
2143.81746	2196.675
2146.78201	2179.075
2149.74466	2152.575
2152.7054	2139.175
2155.66425	2126.275
2158.6212	2118.975
2161.57625	2114.575
2164.52941	2108.075
2167.48067	2109.075
2170.43004	2100.675
2173.37752	2093.475
2176.32311	2097.975
2179.26681	2113.375
2182.20863	2109.875
2185.14856	2112.575
2188.08661	2110.075
2191.02278	2095.575
2193.95707	2083.375
2196.88948	2083.475
2199.82001	2062.875
2202.74867	2054.775
2205.67545	2057.175
2208.60037	2065.175
2211.52341	2040.575
2214.44458	2045.775
2217.36388	2027.575
2220.28132	2036.175
2223.1969	2006.675
2226.11061	2010.875
2229.02246	1998.775
2231.93245	1995.275
2234.84058	1983.375
2237.74686	1968.075
2240.65128	1991.775
2243.55385	1980.675
2246.45456	1994.675
2249.35343	2014.875
2252.25044	2031.175
2255.14561	2061.375
2258.03893	2082.575
2260.93041	2095.775
2263.82004	2112.575
2266.70783	2100.175
2269.59378	2089.175
2272.4779	2082.275
2275.36017	2075.275
2278.24061	2066.875
2281.11922	2054.175
2283.996	2046.175
2286.87094	2022.275
2289.74405	2001.275
2292.61534	1989.275
2295.4848	1964.475
2298.35243	1959.075
2301.21824	1945.475
2304.08223	1934.675
2306.94439	1951.775
2309.80474	1942.075
2312.66327	1939.975
2315.51999	1927.475
2318.37489	1921.875
2321.22797	1916.475
2324.07925	1916.875
2326.92871	1901.075
2329.77637	1912.775
2332.62222	1904.075
2335.46626	1908.275
2338.3085	1915.475
2341.14893	1910.375
2343.98756	1928.875
2346.8244	1922.875
2349.65943	1938.875
2352.49267	1949.775
2355.32411	1967.375
2358.15376	1993.575
2360.98161	2009.175
2363.80768	2037.375
2366.63195	2052.875
2369.45444	2061.075
2372.27514	2061.675
2375.09405	2069.875
2377.91118	2070.475
2380.72652	2047.475
2383.54009	2030.975
2386.35187	2012.675
2389.16188	1975.675
2391.97011	1956.975
2394.77657	1933.175
2397.58125	1908.775
2400.38416	1897.475
2403.18529	1892.675
2405.98466	1869.875
2408.78226	1867.475
2411.57809	1857.375
2414.37216	1852.175
2417.16446	1848.475
2419.955	1866.275
2422.74378	1860.275
2425.5308	1867.575
2428.31606	1868.675
2431.09956	1884.975
2433.88131	1891.675
2436.6613	1895.975
2439.43954	1907.075
2442.21603	1909.775
2444.99077	1928.475
2447.76377	1927.375
2450.53501	1926.775
2453.30451	1936.375
2456.07226	1939.475
2458.83827	1938.375
2461.60254	1937.375
2464.36507	1924.075
2467.12586	1933.275
2469.88492	1927.275
2472.64224	1941.375
2475.39782	1949.375
2478.15167	1985.475
2480.90379	1991.575
2483.65417	2026.675
2486.40283	2053.075
2489.14976	2075.375
2491.89497	2081.575
2494.63845	2088.375
2497.3802	2080.475
2500.12024	2056.575
2502.85855	2034.675
2505.59514	2013.175
2508.33002	1956.375
2511.06318	1940.475
2513.79462	1895.275
2516.52435	1856.575
2519.25237	1828.375
2521.97867	1800.275
2524.70327	1791.275
2527.42616	1789.975
2530.14734	1767.775
2532.86681	1781.675
2535.58458	1775.175
2538.30065	1789.175
2541.01501	1795.875
2543.72768	1807.475
2546.43864	1811.575
2549.14791	1816.675
2551.85548	1817.075
2554.56136	1822.775
2557.26554	1827.075
2559.96803	1821.975
2562.66883	1832.575
2565.36794	1820.975
2568.06536	1809.275
2570.7611	1810.375
2573.45514	1801.075
2576.14751	1786.575
2578.83819	1780.775
2581.52719	1772.775
2584.21451	1771.575
2586.90015	1743.775
2589.58411	1756.475
2592.2664	1752.875
2594.94701	1745.875
2597.62594	1750.675
2600.30321	1741.975
2602.9788	1755.575
2605.65273	1759.175
2608.32498	1748.675
2610.99557	1770.575
2613.66449	1777.275
2616.33175	1769.475
2618.99734	1776.775
2621.66128	1754.275
2624.32355	1750.675
2626.98416	1742.075
2629.64311	1733.175
2632.30041	1724.075
2634.95605	1717.975
2637.61004	1707.675
2640.26238	1697.675
2642.91306	1701.575
2645.56209	1687.975
2648.20948	1694.075
2650.85521	1681.975
2653.4993	1697.875
2656.14175	1711.075
2658.78255	1724.275
2661.42171	1730.275
2664.05923	1742.575
2666.6951	1744.075
2669.32934	1769.575
2671.96194	1764.075
2674.59291	1764.075
2677.22224	1760.075
2679.84993	1762.975
2682.476	1758.575
2685.10043	1751.375
2687.72324	1752.675
2690.34441	1740.775
2692.96396	1751.075
2695.58188	1734.275
2698.19818	1740.075
2700.81285	1735.575
2703.4259	1752.175
2706.03733	1763.975
2708.64714	1754.475
2711.25533	1767.675
2713.86191	1769.175
2716.46687	1777.075
2719.07021	1785.875
2721.67194	1785.675
2724.27206	1790.875
2726.87057	1786.775
2729.46747	1770.875
2732.06276	1761.875
2734.65644	1754.475
2737.24852	1746.075
2739.83899	1724.175
2742.42786	1730.875
2745.01513	1696.275
2747.60079	1696.175
2750.18486	1685.075
2752.76733	1675.775
2755.3482	1664.675
2757.92747	1663.175
2760.50515	1655.175
2763.08123	1645.075
2765.65573	1648.775
2768.22863	1645.075
2770.79994	1648.475
2773.36967	1659.275
2775.9378	1657.175
2778.50435	1667.075
2781.06932	1678.675
2783.6327	1673.675
2786.1945	1692.075
2788.75471	1706.975
2791.31335	1704.075
2793.87041	1721.775
2796.42589	1725.275
2798.97979	1742.275
2801.53212	1755.775
2804.08288	1775.575
2806.63206	1779.575
2809.17967	1814.275
2811.72571	1838.675
2814.27018	1869.075
2816.81308	1882.575
2819.35442	1892.975
2821.89419	1916.675
2824.43239	1933.475
2826.96904	1944.675
2829.50412	1942.675
2832.03763	1943.375
2834.56959	1946.275
2837.1	1939.975
2839.62884	1952.875
2842.15613	1955.175
2844.68186	1976.375
2847.20604	1994.375
2849.72867	2022.275
2852.24974	2041.875
2854.76927	2064.575
2857.28724	2093.075
2859.80367	2114.575
2862.31855	2137.375
2864.83189	2163.475
2867.34368	2200.575
2869.85393	2225.375
2872.36264	2230.675
2874.8698	2236.375
2877.37543	2227.975
2879.87952	2226.575
2882.38207	2205.275
2884.88308	2200.875
2887.38256	2191.675
2889.88051	2191.075
2892.37692	2184.275
2894.8718	2180.075
2897.36515	2178.775
2899.85698	2166.875
2902.34727	2173.075
2904.83604	2168.675
2907.32328	2142.175
2909.809	2129.275
2912.29319	2123.575
2914.77587	2115.075
2917.25702	2097.575
2919.73665	2089.575
2922.21476	2076.775
2924.69136	2066.475
2927.16644	2050.675
2929.64	2048.075
2932.11205	2039.875
2934.58258	2023.575
2937.05161	2018.975
2939.51912	1997.075
2941.98513	1992.775
2944.44962	1984.175
2946.91261	1963.775
2949.37409	1962.275
2951.83407	1952.375
2954.29254	1941.175
2956.74951	1930.775
2959.20498	1913.875
2961.65895	1900.775
2964.11142	1899.775
2966.56239	1883.375
2969.01186	1858.775
2971.45984	1845.175
2973.90632	1837.375
2976.35131	1816.875
2978.7948	1802.475
2981.23681	1790.475
2983.67732	1781.775
2986.11635	1772.175
2988.55388	1778.075
2990.98993	1767.375
2993.4245	1769.575
2995.85758	1772.175
2998.28917	1772.275
3000.71928	1768.875
3003.14791	1785.775
3005.57506	1783.275
3008.00073	1782.175
3010.42493	1752.075
3012.84764	1786.675
3015.26888	1782.775
3017.68865	1773.775
3020.10694	1772.275
3022.52376	1765.275
3024.9391	1760.775
3027.35298	1748.975
3029.76539	1735.475
3032.17632	1713.675
3034.5858	1701.475
3036.9938	1688.275
3039.40034	1675.075
3041.80542	1658.175
3044.20903	1662.275
3046.61118	1653.175
3049.01187	1647.475
3051.4111	1651.675
3053.80888	1634.875
3056.20519	1639.175
3058.60005	1635.775
3060.99345	1627.975
3063.3854	1623.475
3065.7759	1629.375
3068.16494	1613.075
3070.55254	1609.175
3072.93868	1606.275
3075.32338	1593.775
3077.70662	1588.275
3080.08842	1586.975
3082.46878	1590.375
3084.84769	1589.575
3087.22515	1584.675
3089.60118	1598.775
3091.97576	1580.275
3094.3489	1592.375
3096.72061	1594.175
3099.09087	1609.175
3101.4597	1599.075
3103.82709	1612.075
3106.19305	1621.075
3108.55757	1627.775
3110.92066	1633.275
3113.28232	1637.275
3115.64255	1637.975
3118.00134	1645.075
3120.35871	1647.975
3122.71466	1645.075
3125.06917	1655.175
3127.42226	1664.275
3129.77393	1657.075
3132.12417	1676.075
3134.47299	1680.075
3136.82039	1693.575
3139.16636	1695.175
3141.51092	1702.075
3143.85406	1722.175
3146.19579	1735.775
3148.53609	1749.675
3150.87499	1756.575
3153.21246	1774.975
3155.54853	1797.175
3157.88318	1788.875
3160.21642	1811.175
3162.54826	1819.175
3164.87868	1818.675
3167.2077	1827.875
3169.5353	1842.675
3171.86151	1850.875
3174.18631	1858.875
3176.5097	1854.975
3178.83169	1858.575
3181.15228	1863.275
3183.47147	1871.375
3185.78926	1880.375
3188.10565	1885.975
3190.42065	1896.175
3192.73424	1909.075
3195.04645	1920.375
3197.35725	1933.875
3199.66667	1937.175
3201.97469	1962.275
3204.28132	1960.675
3206.58656	1994.075
3208.8904	2015.075
3211.19287	2030.975
3213.49394	2040.975
3215.79363	2051.375
3218.09193	2055.275
3220.38884	2067.475
