Data from AgNPs_UA_50uM_CRN_500uM_AS_RamanShift__9__15-16-01-551.txt Node

Date: Wed Aug 17 15:16:01 BST 2022
User: TCL
Spectrometer: QEP01345
Trigger mode: 4
Integration Time (sec): 7.000000E0
Scans to average: 10
Electric dark correction enabled: true
Nonlinearity correction enabled: false
Boxcar width: 0
XAxis mode: Raman Shifts
Number of Pixels in Spectrum: 1044
>>>>>Begin Spectral Data<<<<<
46.04893	-0.0875
50.45542	-0.0875
54.85868	-1.1875
59.25871	0.1125
63.6555	36.4125
68.04907	39.3125
72.43941	41.1125
76.82654	44.6125
81.21044	47.3125
85.59113	48.0125
89.96862	47.9125
94.34289	57.9125
98.71396	57.9125
103.08183	57.2125
107.4465	57.4125
111.80798	56.4125
116.16626	58.6125
120.52136	56.9125
124.87327	57.0125
129.222	60.0125
133.56755	58.5125
137.90993	63.4125
142.24913	70.0125
146.58517	69.1125
150.91804	73.2125
155.24774	79.8125
159.57429	89.2125
163.89768	106.4125
168.21792	135.1125
172.53501	175.3125
176.84895	231.5125
181.15975	323.5125
185.46741	434.8125
189.77193	593.4125
194.07331	800.2125
198.37157	1008.1125
202.6667	1256.0125
206.9587	1498.2125
211.24758	1754.0125
215.53334	2013.6125
219.81599	2291.6125
224.09553	2595.8125
228.37195	2952.1125
232.64527	3303.9125
236.91549	3664.6125
241.18261	3983.6125
245.44663	4207.5125
249.70755	4375.8125
253.96539	4476.3125
258.22014	4572.5125
262.4718	4632.5125
266.72039	4683.6125
270.96589	4670.0125
275.20832	4588.7125
279.44768	4473.7125
283.68397	4361.3125
287.91719	4276.3125
292.14735	4245.9125
296.37445	4308.7125
300.59849	4471.6125
304.81948	4688.1125
309.03742	4843.5125
313.25231	4943.8125
317.46415	4841.2125
321.67296	4597.8125
325.87872	4331.9125
330.08145	4194.3125
334.28114	4174.7125
338.47781	4202.7125
342.67145	4295.2125
346.86207	4441.0125
351.04966	4620.7125
355.23424	4861.5125
359.4158	5008.8125
363.59435	5088.7125
367.76989	5092.2125
371.94243	5043.3125
376.11196	4985.2125
380.27849	4973.4125
384.44203	4922.8125
388.60257	4917.6125
392.76012	4911.9125
396.91468	4951.8125
401.06626	5042.9125
405.21485	5063.5125
409.36047	4899.2125
413.50311	4659.2125
417.64277	4424.5125
421.77947	4303.9125
425.9132	4253.7125
430.04396	4278.5125
434.17176	4309.1125
438.2966	4382.5125
442.41849	4496.2125
446.53742	4636.1125
450.6534	4752.8125
454.76644	4780.7125
458.87653	4773.2125
462.98368	4700.4125
467.08789	4612.3125
471.18916	4514.2125
475.2875	4392.8125
479.38291	4280.2125
483.4754	4204.2125
487.56496	4152.8125
491.6516	4123.2125
495.73531	4124.7125
499.81612	4144.1125
503.89401	4166.4125
507.96899	4233.3125
512.04106	4287.1125
516.11023	4356.4125
520.1765	4419.6125
524.23987	4425.5125
528.30034	4398.8125
532.35792	4376.6125
536.41261	4326.4125
540.46441	4219.0125
544.51333	4166.4125
548.55936	4207.8125
552.60252	4282.6125
556.64279	4385.3125
560.6802	4446.9125
564.71473	4479.9125
568.7464	4580.1125
572.7752	4638.0125
576.80114	4515.1125
580.82422	4437.6125
584.84444	4449.5125
588.86181	4564.0125
592.87633	4762.8125
596.888	4956.4125
600.89682	5097.9125
604.9028	5618.0125
608.90594	7158.6125
612.90624	8910.6125
616.90371	8078.7125
620.89834	5626.8125
624.89015	4543.0125
628.87913	4395.1125
632.86528	4557.8125
636.84862	4683.0125
640.82913	4596.4125
644.80683	4367.5125
648.78172	4201.6125
652.75379	4197.4125
656.72306	4369.5125
660.68952	4527.1125
664.65319	4398.9125
668.61405	4126.4125
672.57211	4074.9125
676.52738	4113.3125
680.47986	4158.5125
684.42955	4105.0125
688.37646	4049.3125
692.32058	4025.3125
696.26192	4041.9125
700.20048	4082.7125
704.13626	4111.2125
708.06928	4098.3125
711.99952	4056.5125
715.927	4065.1125
719.85171	4096.9125
723.77365	4127.5125
727.69284	4132.1125
731.60928	4098.6125
735.52295	4119.8125
739.43388	4116.9125
743.34206	4143.4125
747.24749	4130.9125
751.15017	4130.9125
755.05012	4218.1125
758.94733	4490.3125
762.8418	5177.6125
766.73354	6252.2125
770.62254	7169.7125
774.50882	7376.7125
778.39237	6835.9125
782.27321	5865.0125
786.15132	4982.3125
790.02671	4454.4125
793.89938	4203.6125
797.76935	4071.3125
801.6366	3999.9125
805.50115	3960.1125
809.36299	3955.4125
813.22213	3919.7125
817.07857	3921.1125
820.93231	3903.2125
824.78336	3893.7125
828.63172	3895.4125
832.47738	3913.9125
836.32036	3872.9125
840.16066	3851.6125
843.99827	3845.2125
847.8332	3839.2125
851.66546	3841.9125
855.49504	3875.8125
859.32195	3858.5125
863.1462	3850.8125
866.96777	3834.0125
870.78668	3847.0125
874.60293	3856.5125
878.41652	3883.4125
882.22745	3925.7125
886.03573	3956.9125
889.84136	3952.5125
893.64433	3946.0125
897.44466	3924.4125
901.24235	3929.6125
905.0374	3894.0125
908.8298	3874.2125
912.61957	3837.5125
916.40671	3835.2125
920.19121	3854.7125
923.97308	3917.1125
927.75233	3965.2125
931.52895	4004.0125
935.30295	3921.6125
939.07433	3793.9125
942.84309	3686.0125
946.60924	3641.2125
950.37278	3613.7125
954.13371	3585.3125
957.89203	3590.2125
961.64774	3580.7125
965.40086	3584.3125
969.15137	3577.0125
972.89929	3550.2125
976.64461	3533.6125
980.38733	3535.2125
984.12747	3536.5125
987.86502	3543.2125
991.59999	3577.0125
995.33237	3603.3125
999.06217	3667.4125
1002.78939	3763.2125
1006.51404	3850.1125
1010.23611	3911.6125
1013.95561	3959.1125
1017.67255	3942.3125
1021.38692	3897.8125
1025.09872	3817.1125
1028.80796	3738.2125
1032.51465	3698.2125
1036.21877	3713.2125
1039.92035	3750.6125
1043.61937	3786.2125
1047.31584	3799.2125
1051.00976	3824.1125
1054.70114	3827.3125
1058.38998	3814.1125
1062.07627	3811.8125
1065.76003	3802.5125
1069.44126	3835.5125
1073.11995	3882.0125
1076.79611	3975.6125
1080.46974	4081.7125
1084.14085	4219.2125
1087.80943	4338.5125
1091.47549	4390.3125
1095.13903	4273.8125
1098.80005	4102.3125
1102.45857	4008.4125
1106.11456	4013.6125
1109.76805	4062.2125
1113.41903	4177.3125
1117.06751	4348.8125
1120.71348	4610.8125
1124.35696	4891.1125
1127.99793	5116.7125
1131.63641	5034.5125
1135.2724	4767.9125
1138.90589	4521.0125
1142.5369	4372.5125
1146.16542	4235.9125
1149.79145	4153.1125
1153.415	4134.8125
1157.03607	4188.1125
1160.65467	4260.1125
1164.27079	4450.6125
1167.88443	4725.5125
1171.49561	5165.9125
1175.10432	5827.6125
1178.71056	6764.9125
1182.31434	7575.0125
1185.91565	7842.1125
1189.51451	7606.3125
1193.11091	7178.1125
1196.70485	6717.2125
1200.29634	6271.0125
1203.88538	5825.7125
1207.47197	5364.2125
1211.05612	4923.0125
1214.63782	4664.4125
1218.21708	4545.6125
1221.79391	4524.5125
1225.36829	4541.3125
1228.94024	4540.2125
1232.50976	4478.9125
1236.07685	4450.1125
1239.6415	4397.4125
1243.20374	4404.7125
1246.76355	4415.9125
1250.32093	4454.4125
1253.8759	4528.5125
1257.42845	4661.0125
1260.97859	4846.0125
1264.52631	5053.1125
1268.07163	5256.8125
1271.61453	5387.2125
1275.15503	5505.0125
1278.69312	5557.5125
1282.22882	5637.4125
1285.76211	5864.0125
1289.29301	6138.4125
1292.82151	6449.4125
1296.34761	6795.8125
1299.87133	7306.7125
1303.39266	8078.7125
1306.9116	9136.3125
1310.42815	10130.3125
1313.94233	10388.6125
1317.45412	9745.5125
1320.96354	8764.3125
1324.47058	7784.0125
1327.97525	6971.9125
1331.47754	6476.0125
1334.97747	6267.6125
1338.47502	6326.0125
1341.97022	6590.1125
1345.46305	7141.3125
1348.95352	7944.3125
1352.44163	8919.9125
1355.92738	10116.3125
1359.41078	11798.9125
1362.89183	13250.5125
1366.37053	12745.3125
1369.84688	10489.8125
1373.32088	8204.5125
1376.79254	6910.1125
1380.26186	6257.5125
1383.72883	5872.4125
1387.19347	5541.1125
1390.65578	5253.6125
1394.11575	5010.4125
1397.57339	4866.2125
1401.0287	4788.5125
1404.48168	4711.5125
1407.93234	4686.4125
1411.38068	4667.8125
1414.82669	4718.7125
1418.27039	4723.1125
1421.71177	4685.2125
1425.15083	4596.6125
1428.58758	4519.7125
1432.02203	4549.4125
1435.45416	4604.7125
1438.88399	4623.3125
1442.31151	4629.8125
1445.73673	4632.6125
1449.15965	4636.1125
1452.58027	4609.3125
1455.9986	4575.0125
1459.41463	4582.9125
1462.82837	4650.9125
1466.23982	4797.1125
1469.64898	4941.7125
1473.05586	5070.2125
1476.46045	5134.5125
1479.86276	5226.2125
1483.26279	5373.0125
1486.66054	5571.6125
1490.05602	5947.8125
1493.44922	6475.1125
1496.84016	7286.6125
1500.22882	8496.8125
1503.61521	10040.2125
1506.99934	11556.3125
1510.38121	12416.7125
1513.76081	12109.8125
1517.13816	10677.5125
1520.51324	8940.9125
1523.88607	7557.9125
1527.25665	6767.3125
1530.62498	6363.9125
1533.99105	6118.8125
1537.35488	5898.0125
1540.71647	5691.1125
1544.07581	5491.0125
1547.4329	5345.5125
1550.78776	5282.0125
1554.14038	5227.3125
1557.49077	5289.1125
1560.83892	5415.4125
1564.18484	5711.8125
1567.52853	6072.6125
1570.86999	6438.5125
1574.20922	6610.2125
1577.54624	6483.5125
1580.88103	6001.5125
1584.2136	5409.3125
1587.54395	5069.8125
1590.87208	5075.4125
1594.19801	5362.7125
1597.52172	5704.5125
1600.84321	5790.3125
1604.16251	5566.0125
1607.47959	5248.7125
1610.79447	4934.6125
1614.10715	4588.9125
1617.41763	4309.5125
1620.7259	4119.6125
1624.03199	4022.4125
1627.33587	4004.1125
1630.63757	4109.5125
1633.93707	4341.6125
1637.23439	4813.3125
1640.52951	5559.6125
1643.82246	6610.8125
1647.11321	7746.2125
1650.40179	8309.4125
1653.68819	7854.3125
1656.97241	6609.1125
1660.25446	5363.3125
1663.53433	4513.6125
1666.81203	3995.5125
1670.08756	3705.6125
1673.36092	3526.2125
1676.63211	3404.1125
1679.90115	3305.5125
1683.16801	3267.1125
1686.43272	3208.8125
1689.69527	3154.9125
1692.95567	3121.4125
1696.2139	3106.7125
1699.46999	3088.3125
1702.72392	3057.7125
1705.97571	3025.8125
1709.22535	3000.2125
1712.47284	2998.9125
1715.71819	2975.5125
1718.96139	2968.7125
1722.20246	2946.5125
1725.44139	2909.6125
1728.67818	2895.4125
1731.91284	2857.7125
1735.14537	2838.9125
1738.37576	2807.8125
1741.60403	2809.1125
1744.83017	2786.7125
1748.05418	2793.0125
1751.27607	2791.5125
1754.49584	2806.0125
1757.71349	2779.5125
1760.92903	2765.6125
1764.14244	2777.0125
1767.35375	2736.1125
1770.56294	2717.5125
1773.77002	2693.4125
1776.97499	2684.0125
1780.17785	2656.5125
1783.37861	2647.0125
1786.57727	2627.5125
1789.77382	2605.9125
1792.96828	2588.0125
1796.16064	2589.7125
1799.3509	2575.6125
1802.53907	2567.0125
1805.72514	2559.4125
1808.90913	2544.5125
1812.09102	2532.8125
1815.27083	2515.4125
1818.44856	2508.7125
1821.6242	2508.2125
1824.79776	2490.9125
1827.96924	2487.3125
1831.13864	2483.5125
1834.30597	2478.1125
1837.47122	2469.8125
1840.6344	2451.5125
1843.7955	2454.4125
1846.95454	2445.9125
1850.11151	2451.5125
1853.26642	2438.3125
1856.41926	2439.0125
1859.57004	2431.4125
1862.71876	2423.6125
1865.86542	2424.5125
1869.01003	2427.4125
1872.15258	2413.6125
1875.29308	2421.6125
1878.43152	2410.6125
1881.56792	2404.5125
1884.70227	2405.0125
1887.83457	2402.9125
1890.96482	2397.9125
1894.09304	2393.8125
1897.21921	2388.2125
1900.34335	2392.6125
1903.46544	2387.3125
1906.58551	2382.4125
1909.70353	2390.3125
1912.81953	2368.4125
1915.93349	2355.7125
1919.04543	2363.6125
1922.15534	2357.7125
1925.26322	2355.8125
1928.36908	2343.7125
1931.47292	2320.2125
1934.57473	2316.3125
1937.67453	2319.3125
1940.77232	2309.4125
1943.86808	2282.6125
1946.96184	2278.0125
1950.05358	2268.1125
1953.14331	2267.7125
1956.23103	2266.2125
1959.31675	2255.5125
1962.40046	2244.8125
1965.48217	2241.2125
1968.56188	2241.0125
1971.63959	2241.9125
1974.7153	2222.7125
1977.78901	2220.0125
1980.86073	2207.3125
1983.93046	2204.3125
1986.99819	2198.1125
1990.06394	2185.3125
1993.1277	2173.9125
1996.18947	2159.4125
1999.24925	2158.4125
2002.30706	2140.4125
2005.36288	2140.1125
2008.41672	2133.5125
2011.46859	2124.0125
2014.51848	2107.7125
2017.56639	2105.1125
2020.61233	2115.1125
2023.6563	2102.0125
2026.6983	2094.2125
2029.73833	2081.6125
2032.7764	2075.4125
2035.8125	2062.7125
2038.84664	2060.0125
2041.87881	2060.6125
2044.90903	2048.6125
2047.93729	2051.0125
2050.96359	2056.6125
2053.98794	2038.2125
2057.01034	2037.1125
2060.03078	2031.0125
2063.04927	2036.5125
2066.06582	2030.9125
2069.08042	2033.6125
2072.09307	2020.4125
2075.10378	2026.9125
2078.11255	2020.8125
2081.11938	2020.7125
2084.12426	2024.8125
2087.12722	2023.1125
2090.12824	2022.5125
2093.12732	2014.9125
2096.12447	2022.5125
2099.11969	2030.9125
2102.11299	2026.4125
2105.10435	2030.9125
2108.09379	2013.7125
2111.08131	2018.2125
2114.0669	2024.9125
2117.05057	2027.9125
2120.03233	2027.4125
2123.01216	2032.7125
2125.99008	2035.1125
2128.96609	2041.4125
2131.94018	2045.0125
2134.91236	2035.7125
2137.88263	2045.3125
2140.851	2042.8125
2143.81746	2042.0125
2146.78201	2038.7125
2149.74466	2029.4125
2152.7054	2019.8125
2155.66425	2015.8125
2158.6212	1997.9125
2161.57625	1996.1125
2164.52941	2009.0125
2167.48067	1996.9125
2170.43004	1997.0125
2173.37752	1985.9125
2176.32311	1991.4125
2179.26681	1999.4125
2182.20863	1994.4125
2185.14856	1992.6125
2188.08661	1984.8125
2191.02278	1985.2125
2193.95707	1986.6125
2196.88948	1975.0125
2199.82001	1977.2125
2202.74867	1981.5125
2205.67545	1976.6125
2208.60037	1964.6125
2211.52341	1961.2125
2214.44458	1965.4125
2217.36388	1948.8125
2220.28132	1944.9125
2223.1969	1932.2125
2226.11061	1942.3125
2229.02246	1925.5125
2231.93245	1929.9125
2234.84058	1913.9125
2237.74686	1923.8125
2240.65128	1915.0125
2243.55385	1921.6125
2246.45456	1921.2125
2249.35343	1909.1125
2252.25044	1917.8125
2255.14561	1921.8125
2258.03893	1918.0125
2260.93041	1915.0125
2263.82004	1917.1125
2266.70783	1896.3125
2269.59378	1906.5125
2272.4779	1891.2125
2275.36017	1883.0125
2278.24061	1874.3125
2281.11922	1875.9125
2283.996	1863.0125
2286.87094	1872.3125
2289.74405	1865.4125
2292.61534	1873.6125
2295.4848	1852.9125
2298.35243	1851.6125
2301.21824	1834.9125
2304.08223	1843.1125
2306.94439	1845.5125
2309.80474	1848.6125
2312.66327	1837.5125
2315.51999	1830.4125
2318.37489	1841.5125
2321.22797	1820.4125
2324.07925	1819.1125
2326.92871	1820.2125
2329.77637	1814.4125
2332.62222	1813.8125
2335.46626	1818.0125
2338.3085	1807.4125
2341.14893	1799.2125
2343.98756	1813.0125
2346.8244	1793.0125
2349.65943	1812.1125
2352.49267	1800.9125
2355.32411	1812.6125
2358.15376	1811.4125
2360.98161	1816.5125
2363.80768	1826.5125
2366.63195	1830.8125
2369.45444	1819.9125
2372.27514	1814.8125
2375.09405	1824.7125
2377.91118	1814.6125
2380.72652	1802.5125
2383.54009	1805.5125
2386.35187	1798.1125
2389.16188	1778.8125
2391.97011	1767.1125
2394.77657	1770.3125
2397.58125	1764.6125
2400.38416	1758.3125
2403.18529	1751.4125
2405.98466	1747.7125
2408.78226	1732.1125
2411.57809	1739.2125
2414.37216	1731.2125
2417.16446	1734.2125
2419.955	1726.6125
2422.74378	1738.8125
2425.5308	1730.5125
2428.31606	1738.7125
2431.09956	1734.3125
2433.88131	1737.6125
2436.6613	1734.1125
2439.43954	1730.0125
2442.21603	1725.8125
2444.99077	1728.8125
2447.76377	1727.3125
2450.53501	1734.6125
2453.30451	1724.7125
2456.07226	1729.1125
2458.83827	1724.0125
2461.60254	1729.8125
2464.36507	1727.2125
2467.12586	1725.7125
2469.88492	1721.2125
2472.64224	1709.8125
2475.39782	1717.6125
2478.15167	1728.1125
2480.90379	1736.8125
2483.65417	1724.2125
2486.40283	1738.1125
2489.14976	1735.3125
2491.89497	1741.8125
2494.63845	1745.3125
2497.3802	1745.7125
2500.12024	1749.2125
2502.85855	1741.9125
2505.59514	1726.0125
2508.33002	1716.7125
2511.06318	1712.3125
2513.79462	1697.8125
2516.52435	1698.3125
2519.25237	1677.9125
2521.97867	1669.6125
2524.70327	1674.7125
2527.42616	1669.8125
2530.14734	1660.5125
2532.86681	1656.8125
2535.58458	1656.0125
2538.30065	1662.2125
2541.01501	1668.8125
2543.72768	1655.6125
2546.43864	1662.9125
2549.14791	1658.1125
2551.85548	1646.7125
2554.56136	1653.2125
2557.26554	1643.3125
2559.96803	1645.7125
2562.66883	1646.3125
2565.36794	1646.5125
2568.06536	1631.7125
2570.7611	1633.2125
2573.45514	1630.4125
2576.14751	1632.3125
2578.83819	1618.0125
2581.52719	1616.7125
2584.21451	1611.2125
2586.90015	1609.7125
2589.58411	1613.5125
2592.2664	1611.1125
2594.94701	1601.9125
2597.62594	1600.1125
2600.30321	1604.6125
2602.9788	1606.6125
2605.65273	1600.6125
2608.32498	1612.1125
2610.99557	1590.7125
2613.66449	1597.5125
2616.33175	1587.3125
2618.99734	1596.5125
2621.66128	1585.4125
2624.32355	1591.5125
2626.98416	1585.3125
2629.64311	1578.5125
2632.30041	1566.3125
2634.95605	1577.2125
2637.61004	1568.0125
2640.26238	1569.8125
2642.91306	1576.1125
2645.56209	1557.0125
2648.20948	1559.4125
2650.85521	1559.4125
2653.4993	1561.5125
2656.14175	1561.5125
2658.78255	1556.5125
2661.42171	1552.3125
2664.05923	1559.0125
2666.6951	1573.2125
2669.32934	1571.7125
2671.96194	1571.8125
2674.59291	1567.1125
2677.22224	1570.9125
2679.84993	1577.0125
2682.476	1570.7125
2685.10043	1569.2125
2687.72324	1563.5125
2690.34441	1564.1125
2692.96396	1557.2125
2695.58188	1559.4125
2698.19818	1555.1125
2700.81285	1551.4125
2703.4259	1554.8125
2706.03733	1561.8125
2708.64714	1564.7125
2711.25533	1564.4125
2713.86191	1560.5125
2716.46687	1558.8125
2719.07021	1570.1125
2721.67194	1560.6125
2724.27206	1566.3125
2726.87057	1570.5125
2729.46747	1556.5125
2732.06276	1561.0125
2734.65644	1565.3125
2737.24852	1553.6125
2739.83899	1549.1125
2742.42786	1549.8125
2745.01513	1546.6125
2747.60079	1548.3125
2750.18486	1541.1125
2752.76733	1544.3125
2755.3482	1540.0125
2757.92747	1535.1125
2760.50515	1530.0125
2763.08123	1528.5125
2765.65573	1522.2125
2768.22863	1531.2125
2770.79994	1523.5125
2773.36967	1512.3125
2775.9378	1509.6125
2778.50435	1513.6125
2781.06932	1510.9125
2783.6327	1510.1125
2786.1945	1512.3125
2788.75471	1518.3125
2791.31335	1509.4125
2793.87041	1509.2125
2796.42589	1513.8125
2798.97979	1516.0125
2801.53212	1510.1125
2804.08288	1508.1125
2806.63206	1503.9125
2809.17967	1511.2125
2811.72571	1516.4125
2814.27018	1516.0125
2816.81308	1512.7125
2819.35442	1513.9125
2821.89419	1512.5125
2824.43239	1516.3125
2826.96904	1519.0125
2829.50412	1518.3125
2832.03763	1515.8125
2834.56959	1518.1125
2837.1	1508.8125
2839.62884	1515.6125
2842.15613	1517.6125
2844.68186	1521.1125
2847.20604	1523.2125
2849.72867	1530.8125
2852.24974	1531.6125
2854.76927	1542.8125
2857.28724	1548.2125
2859.80367	1558.3125
2862.31855	1558.2125
2864.83189	1568.3125
2867.34368	1580.9125
2869.85393	1581.7125
2872.36264	1584.4125
2874.8698	1598.6125
2877.37543	1588.6125
2879.87952	1592.2125
2882.38207	1602.9125
2884.88308	1607.0125
2887.38256	1606.5125
2889.88051	1602.3125
2892.37692	1607.7125
2894.8718	1621.1125
2897.36515	1628.9125
2899.85698	1623.3125
2902.34727	1652.2125
2904.83604	1647.6125
2907.32328	1662.0125
2909.809	1664.3125
2912.29319	1680.2125
2914.77587	1675.3125
2917.25702	1684.0125
2919.73665	1685.1125
2922.21476	1691.3125
2924.69136	1691.8125
2927.16644	1682.9125
2929.64	1681.8125
2932.11205	1691.3125
2934.58258	1670.8125
2937.05161	1683.4125
2939.51912	1677.6125
2941.98513	1677.1125
2944.44962	1677.4125
2946.91261	1665.8125
2949.37409	1661.7125
2951.83407	1647.3125
2954.29254	1641.7125
2956.74951	1633.6125
2959.20498	1621.4125
2961.65895	1616.2125
2964.11142	1606.2125
2966.56239	1593.5125
2969.01186	1587.7125
2971.45984	1572.9125
2973.90632	1577.5125
2976.35131	1568.2125
2978.7948	1558.0125
2981.23681	1552.1125
2983.67732	1550.6125
2986.11635	1546.1125
2988.55388	1528.7125
2990.98993	1522.4125
2993.4245	1518.5125
2995.85758	1520.5125
2998.28917	1514.4125
3000.71928	1508.1125
3003.14791	1513.8125
3005.57506	1501.1125
3008.00073	1492.1125
3010.42493	1460.2125
3012.84764	1491.8125
3015.26888	1487.8125
3017.68865	1482.9125
3020.10694	1490.3125
3022.52376	1486.1125
3024.9391	1474.1125
3027.35298	1475.0125
3029.76539	1469.3125
3032.17632	1464.8125
3034.5858	1464.2125
3036.9938	1454.5125
3039.40034	1458.7125
3041.80542	1464.3125
3044.20903	1461.7125
3046.61118	1463.7125
3049.01187	1470.4125
3051.4111	1463.6125
3053.80888	1463.3125
3056.20519	1476.7125
3058.60005	1471.1125
3060.99345	1473.8125
3063.3854	1470.6125
3065.7759	1467.9125
3068.16494	1465.6125
3070.55254	1458.7125
3072.93868	1465.4125
3075.32338	1453.5125
3077.70662	1464.3125
3080.08842	1460.5125
3082.46878	1470.1125
3084.84769	1458.2125
3087.22515	1461.9125
3089.60118	1470.6125
3091.97576	1470.1125
3094.3489	1478.7125
3096.72061	1487.4125
3099.09087	1493.0125
3101.4597	1492.7125
3103.82709	1497.2125
3106.19305	1495.2125
3108.55757	1507.4125
3110.92066	1502.2125
3113.28232	1503.0125
3115.64255	1516.0125
3118.00134	1528.8125
3120.35871	1526.6125
3122.71466	1517.4125
3125.06917	1525.0125
3127.42226	1522.2125
