Data from AgNPs_UA_5uM_CRN_500uM_AS_RamanShift__9__13-08-03-829.txt Node

Date: Wed Aug 17 13:08:03 BST 2022
User: TCL
Spectrometer: QEP01345
Trigger mode: 4
Integration Time (sec): 7.000000E0
Scans to average: 10
Electric dark correction enabled: true
Nonlinearity correction enabled: false
Boxcar width: 0
XAxis mode: Raman Shifts
Number of Pixels in Spectrum: 1044
>>>>>Begin Spectral Data<<<<<
46.04893	0.4125
50.45542	0.2125
54.85868	-0.4875
59.25871	0.3125
63.6555	42.3125
68.04907	44.2125
72.43941	48.3125
76.82654	52.1125
81.21044	58.8125
85.59113	60.7125
89.96862	61.4125
94.34289	67.5125
98.71396	68.4125
103.08183	71.9125
107.4465	69.4125
111.80798	71.1125
116.16626	69.3125
120.52136	72.3125
124.87327	72.0125
129.222	72.9125
133.56755	70.7125
137.90993	71.7125
142.24913	73.0125
146.58517	73.7125
150.91804	74.9125
155.24774	81.4125
159.57429	92.5125
163.89768	106.9125
168.21792	122.0125
172.53501	150.6125
176.84895	192.4125
181.15975	248.7125
185.46741	336.6125
189.77193	457.0125
194.07331	621.6125
198.37157	820.0125
202.6667	1040.5125
206.9587	1270.4125
211.24758	1520.0125
215.53334	1760.3125
219.81599	1997.2125
224.09553	2235.0125
228.37195	2452.8125
232.64527	2643.6125
236.91549	2834.0125
241.18261	3027.4125
245.44663	3183.4125
249.70755	3300.4125
253.96539	3414.3125
258.22014	3429.8125
262.4718	3431.5125
266.72039	3365.6125
270.96589	3261.6125
275.20832	3120.5125
279.44768	2945.8125
283.68397	2780.5125
287.91719	2627.6125
292.14735	2471.4125
296.37445	2342.8125
300.59849	2226.1125
304.81948	2130.2125
309.03742	2054.9125
313.25231	1996.4125
317.46415	1932.1125
321.67296	1880.3125
325.87872	1834.2125
330.08145	1807.4125
334.28114	1808.3125
338.47781	1814.4125
342.67145	1834.2125
346.86207	1846.5125
351.04966	1847.9125
355.23424	1850.3125
359.4158	1832.8125
363.59435	1819.6125
367.76989	1812.8125
371.94243	1788.2125
376.11196	1785.8125
380.27849	1776.5125
384.44203	1772.5125
388.60257	1766.5125
392.76012	1772.9125
396.91468	1780.7125
401.06626	1777.7125
405.21485	1786.9125
409.36047	1794.1125
413.50311	1798.3125
417.64277	1800.9125
421.77947	1804.3125
425.9132	1812.3125
430.04396	1827.4125
434.17176	1841.9125
438.2966	1857.5125
442.41849	1874.1125
446.53742	1901.8125
450.6534	1914.9125
454.76644	1927.7125
458.87653	1943.4125
462.98368	1950.5125
467.08789	1959.2125
471.18916	1957.2125
475.2875	1956.1125
479.38291	1960.2125
483.4754	1959.8125
487.56496	1952.1125
491.6516	1965.0125
495.73531	1971.1125
499.81612	1983.2125
503.89401	1997.9125
507.96899	1986.5125
512.04106	1981.1125
516.11023	1972.0125
520.1765	1943.5125
524.23987	1941.9125
528.30034	1932.6125
532.35792	1922.3125
536.41261	1931.4125
540.46441	1928.4125
544.51333	1933.2125
548.55936	1931.6125
552.60252	1946.6125
556.64279	1950.3125
560.6802	1958.5125
564.71473	1982.9125
568.7464	2003.0125
572.7752	2039.8125
576.80114	2057.6125
580.82422	2055.3125
584.84444	2035.7125
588.86181	2028.9125
592.87633	2034.7125
596.888	2048.8125
600.89682	2080.0125
604.9028	2112.9125
608.90594	2162.6125
612.90624	2210.9125
616.90371	2208.7125
620.89834	2165.5125
624.89015	2134.6125
628.87913	2140.6125
632.86528	2124.7125
636.84862	2138.6125
640.82913	2167.6125
644.80683	2206.9125
648.78172	2260.8125
652.75379	2285.6125
656.72306	2275.9125
660.68952	2298.7125
664.65319	2376.0125
668.61405	2524.8125
672.57211	2836.1125
676.52738	3267.5125
680.47986	3663.4125
684.42955	3806.0125
688.37646	3661.5125
692.32058	3341.7125
696.26192	3067.9125
700.20048	2863.9125
704.13626	2729.6125
708.06928	2620.4125
711.99952	2501.7125
715.927	2423.9125
719.85171	2392.9125
723.77365	2390.8125
727.69284	2412.8125
731.60928	2432.0125
735.52295	2409.0125
739.43388	2347.5125
743.34206	2318.0125
747.24749	2328.1125
751.15017	2360.2125
755.05012	2398.3125
758.94733	2420.1125
762.8418	2444.1125
766.73354	2423.3125
770.62254	2365.1125
774.50882	2328.1125
778.39237	2265.5125
782.27321	2229.7125
786.15132	2195.2125
790.02671	2191.1125
793.89938	2188.1125
797.76935	2192.1125
801.6366	2188.9125
805.50115	2201.4125
809.36299	2187.4125
813.22213	2162.9125
817.07857	2143.7125
820.93231	2139.9125
824.78336	2133.5125
828.63172	2123.6125
832.47738	2131.9125
836.32036	2136.4125
840.16066	2123.9125
843.99827	2130.2125
847.8332	2136.2125
851.66546	2138.1125
855.49504	2157.3125
859.32195	2171.2125
863.1462	2182.9125
866.96777	2203.8125
870.78668	2217.3125
874.60293	2249.6125
878.41652	2246.2125
882.22745	2262.3125
886.03573	2243.5125
889.84136	2234.1125
893.64433	2230.7125
897.44466	2230.2125
901.24235	2233.0125
905.0374	2244.7125
908.8298	2245.3125
912.61957	2241.6125
916.40671	2259.3125
920.19121	2266.9125
923.97308	2285.6125
927.75233	2291.8125
931.52895	2291.3125
935.30295	2289.4125
939.07433	2286.7125
942.84309	2259.7125
946.60924	2226.2125
950.37278	2210.2125
954.13371	2188.8125
957.89203	2192.8125
961.64774	2215.0125
965.40086	2202.2125
969.15137	2186.7125
972.89929	2171.4125
976.64461	2152.6125
980.38733	2142.3125
984.12747	2120.6125
987.86502	2124.8125
991.59999	2129.1125
995.33237	2109.3125
999.06217	2133.8125
1002.78939	2122.9125
1006.51404	2112.3125
1010.23611	2121.6125
1013.95561	2139.7125
1017.67255	2141.2125
1021.38692	2162.0125
1025.09872	2151.5125
1028.80796	2154.4125
1032.51465	2192.8125
1036.21877	2202.4125
1039.92035	2235.0125
1043.61937	2272.4125
1047.31584	2316.5125
1051.00976	2343.4125
1054.70114	2358.8125
1058.38998	2333.6125
1062.07627	2292.6125
1065.76003	2251.7125
1069.44126	2214.2125
1073.11995	2172.5125
1076.79611	2149.6125
1080.46974	2138.5125
1084.14085	2129.4125
1087.80943	2120.9125
1091.47549	2115.9125
1095.13903	2117.8125
1098.80005	2103.6125
1102.45857	2113.7125
1106.11456	2096.1125
1109.76805	2108.7125
1113.41903	2105.4125
1117.06751	2119.3125
1120.71348	2126.2125
1124.35696	2128.4125
1127.99793	2148.4125
1131.63641	2152.0125
1135.2724	2182.3125
1138.90589	2168.1125
1142.5369	2161.6125
1146.16542	2157.1125
1149.79145	2165.9125
1153.415	2169.2125
1157.03607	2152.3125
1160.65467	2163.6125
1164.27079	2167.9125
1167.88443	2158.7125
1171.49561	2164.5125
1175.10432	2176.3125
1178.71056	2191.6125
1182.31434	2199.9125
1185.91565	2203.2125
1189.51451	2207.4125
1193.11091	2200.4125
1196.70485	2177.7125
1200.29634	2185.6125
1203.88538	2170.7125
1207.47197	2157.8125
1211.05612	2158.3125
1214.63782	2153.5125
1218.21708	2147.4125
1221.79391	2164.0125
1225.36829	2176.6125
1228.94024	2188.3125
1232.50976	2215.8125
1236.07685	2242.6125
1239.6415	2280.5125
1243.20374	2315.6125
1246.76355	2347.0125
1250.32093	2378.0125
1253.8759	2394.2125
1257.42845	2399.8125
1260.97859	2406.4125
1264.52631	2384.4125
1268.07163	2350.8125
1271.61453	2336.8125
1275.15503	2312.0125
1278.69312	2289.1125
1282.22882	2293.4125
1285.76211	2285.8125
1289.29301	2287.5125
1292.82151	2285.3125
1296.34761	2301.4125
1299.87133	2306.2125
1303.39266	2326.6125
1306.9116	2340.1125
1310.42815	2368.6125
1313.94233	2365.3125
1317.45412	2360.4125
1320.96354	2353.5125
1324.47058	2367.0125
1327.97525	2354.3125
1331.47754	2365.5125
1334.97747	2377.1125
1338.47502	2401.1125
1341.97022	2414.9125
1345.46305	2479.9125
1348.95352	2504.8125
1352.44163	2558.7125
1355.92738	2584.5125
1359.41078	2645.2125
1362.89183	2670.9125
1366.37053	2673.2125
1369.84688	2645.6125
1373.32088	2570.5125
1376.79254	2534.1125
1380.26186	2504.3125
1383.72883	2459.8125
1387.19347	2430.2125
1390.65578	2394.1125
1394.11575	2373.4125
1397.57339	2392.7125
1401.0287	2397.4125
1404.48168	2427.7125
1407.93234	2460.8125
1411.38068	2498.2125
1414.82669	2528.0125
1418.27039	2553.6125
1421.71177	2546.1125
1425.15083	2516.8125
1428.58758	2443.7125
1432.02203	2386.7125
1435.45416	2347.2125
1438.88399	2319.0125
1442.31151	2312.9125
1445.73673	2328.2125
1449.15965	2357.6125
1452.58027	2354.4125
1455.9986	2358.5125
1459.41463	2385.7125
1462.82837	2378.3125
1466.23982	2382.0125
1469.64898	2378.5125
1473.05586	2357.5125
1476.46045	2309.2125
1479.86276	2274.0125
1483.26279	2232.4125
1486.66054	2201.0125
1490.05602	2187.4125
1493.44922	2193.9125
1496.84016	2183.4125
1500.22882	2197.0125
1503.61521	2222.2125
1506.99934	2247.3125
1510.38121	2265.2125
1513.76081	2267.2125
1517.13816	2254.9125
1520.51324	2240.3125
1523.88607	2221.1125
1527.25665	2208.7125
1530.62498	2216.5125
1533.99105	2212.8125
1537.35488	2220.2125
1540.71647	2227.9125
1544.07581	2238.2125
1547.4329	2250.4125
1550.78776	2268.9125
1554.14038	2257.7125
1557.49077	2273.9125
1560.83892	2289.5125
1564.18484	2285.0125
1567.52853	2284.6125
1570.86999	2296.4125
1574.20922	2292.5125
1577.54624	2285.3125
1580.88103	2288.3125
1584.2136	2273.2125
1587.54395	2274.3125
1590.87208	2268.9125
1594.19801	2267.6125
1597.52172	2288.2125
1600.84321	2267.9125
1604.16251	2269.6125
1607.47959	2241.3125
1610.79447	2239.9125
1614.10715	2217.5125
1617.41763	2193.5125
1620.7259	2174.1125
1624.03199	2158.3125
1627.33587	2141.8125
1630.63757	2140.5125
1633.93707	2134.5125
1637.23439	2135.8125
1640.52951	2133.6125
1643.82246	2149.7125
1647.11321	2181.3125
1650.40179	2198.4125
1653.68819	2207.1125
1656.97241	2197.9125
1660.25446	2199.7125
1663.53433	2205.9125
1666.81203	2200.5125
1670.08756	2226.5125
1673.36092	2245.2125
1676.63211	2247.9125
1679.90115	2258.0125
1683.16801	2263.2125
1686.43272	2256.4125
1689.69527	2253.7125
1692.95567	2247.7125
1696.2139	2246.4125
1699.46999	2241.8125
1702.72392	2230.2125
1705.97571	2220.0125
1709.22535	2186.9125
1712.47284	2182.7125
1715.71819	2165.6125
1718.96139	2157.8125
1722.20246	2153.3125
1725.44139	2163.8125
1728.67818	2175.6125
1731.91284	2194.5125
1735.14537	2209.7125
1738.37576	2248.6125
1741.60403	2286.2125
1744.83017	2358.9125
1748.05418	2473.6125
1751.27607	2630.1125
1754.49584	2801.7125
1757.71349	2930.8125
1760.92903	3008.1125
1764.14244	2997.3125
1767.35375	2894.0125
1770.56294	2770.5125
1773.77002	2645.5125
1776.97499	2552.8125
1780.17785	2486.9125
1783.37861	2415.9125
1786.57727	2372.2125
1789.77382	2302.3125
1792.96828	2248.3125
1796.16064	2181.7125
1799.3509	2131.2125
1802.53907	2083.0125
1805.72514	2034.6125
1808.90913	2004.7125
1812.09102	1983.0125
1815.27083	1935.3125
1818.44856	1904.2125
1821.6242	1878.6125
1824.79776	1865.2125
1827.96924	1834.8125
1831.13864	1795.2125
1834.30597	1783.4125
1837.47122	1766.6125
1840.6344	1753.5125
1843.7955	1734.3125
1846.95454	1721.9125
1850.11151	1721.1125
1853.26642	1710.6125
1856.41926	1706.7125
1859.57004	1697.1125
1862.71876	1687.6125
1865.86542	1684.3125
1869.01003	1691.0125
1872.15258	1695.0125
1875.29308	1695.9125
1878.43152	1689.5125
1881.56792	1691.7125
1884.70227	1696.2125
1887.83457	1689.4125
1890.96482	1692.9125
1894.09304	1689.9125
1897.21921	1699.0125
1900.34335	1705.7125
1903.46544	1709.4125
1906.58551	1706.8125
1909.70353	1706.2125
1912.81953	1721.0125
1915.93349	1714.4125
1919.04543	1722.0125
1922.15534	1730.6125
1925.26322	1739.3125
1928.36908	1733.5125
1931.47292	1737.4125
1934.57473	1738.1125
1937.67453	1735.1125
1940.77232	1738.4125
1943.86808	1733.3125
1946.96184	1726.4125
1950.05358	1713.4125
1953.14331	1713.8125
1956.23103	1699.5125
1959.31675	1704.1125
1962.40046	1695.2125
1965.48217	1685.4125
1968.56188	1675.7125
1971.63959	1676.9125
1974.7153	1656.8125
1977.78901	1639.7125
1980.86073	1623.2125
1983.93046	1625.3125
1986.99819	1619.6125
1990.06394	1607.1125
1993.1277	1587.3125
1996.18947	1580.7125
1999.24925	1583.0125
2002.30706	1577.5125
2005.36288	1569.0125
2008.41672	1560.2125
2011.46859	1556.0125
2014.51848	1552.2125
2017.56639	1542.6125
2020.61233	1536.7125
2023.6563	1526.7125
2026.6983	1529.2125
2029.73833	1508.2125
2032.7764	1512.5125
2035.8125	1508.6125
2038.84664	1493.9125
2041.87881	1502.2125
2044.90903	1494.8125
2047.93729	1493.1125
2050.96359	1489.0125
2053.98794	1492.0125
2057.01034	1485.8125
2060.03078	1488.6125
2063.04927	1493.0125
2066.06582	1491.2125
2069.08042	1487.0125
2072.09307	1488.0125
2075.10378	1502.8125
2078.11255	1498.5125
2081.11938	1502.7125
2084.12426	1508.6125
2087.12722	1508.6125
2090.12824	1519.3125
2093.12732	1508.2125
2096.12447	1523.1125
2099.11969	1523.9125
2102.11299	1521.7125
2105.10435	1523.2125
2108.09379	1520.0125
2111.08131	1529.0125
2114.0669	1530.0125
2117.05057	1530.5125
2120.03233	1536.9125
2123.01216	1543.6125
2125.99008	1546.6125
2128.96609	1548.2125
2131.94018	1547.1125
2134.91236	1544.6125
2137.88263	1542.1125
2140.851	1549.9125
2143.81746	1542.5125
2146.78201	1536.0125
2149.74466	1542.8125
2152.7054	1523.2125
2155.66425	1523.5125
2158.6212	1524.4125
2161.57625	1524.6125
2164.52941	1513.5125
2167.48067	1512.6125
2170.43004	1496.5125
2173.37752	1495.7125
2176.32311	1488.4125
2179.26681	1482.8125
2182.20863	1486.5125
2185.14856	1485.3125
2188.08661	1480.4125
2191.02278	1479.8125
2193.95707	1475.4125
2196.88948	1472.2125
2199.82001	1475.7125
2202.74867	1462.2125
2205.67545	1465.1125
2208.60037	1471.3125
2211.52341	1456.3125
2214.44458	1457.4125
2217.36388	1454.0125
2220.28132	1441.6125
2223.1969	1438.8125
2226.11061	1436.2125
2229.02246	1443.6125
2231.93245	1436.2125
2234.84058	1428.1125
2237.74686	1427.9125
2240.65128	1420.5125
2243.55385	1424.0125
2246.45456	1431.7125
2249.35343	1421.3125
2252.25044	1420.3125
2255.14561	1411.7125
2258.03893	1420.5125
2260.93041	1416.5125
2263.82004	1407.4125
2266.70783	1407.2125
2269.59378	1394.8125
2272.4779	1398.7125
2275.36017	1388.6125
2278.24061	1381.8125
2281.11922	1385.9125
2283.996	1386.4125
2286.87094	1387.4125
2289.74405	1386.1125
2292.61534	1370.6125
2295.4848	1379.9125
2298.35243	1374.7125
2301.21824	1370.5125
2304.08223	1374.7125
2306.94439	1367.8125
2309.80474	1364.6125
2312.66327	1375.6125
2315.51999	1361.9125
2318.37489	1367.4125
2321.22797	1358.4125
2324.07925	1360.2125
2326.92871	1349.4125
2329.77637	1361.5125
2332.62222	1361.2125
2335.46626	1350.2125
2338.3085	1346.2125
2341.14893	1343.8125
2343.98756	1340.7125
2346.8244	1341.6125
2349.65943	1342.0125
2352.49267	1342.5125
2355.32411	1335.1125
2358.15376	1339.1125
2360.98161	1333.1125
2363.80768	1335.5125
2366.63195	1334.4125
2369.45444	1334.4125
2372.27514	1336.8125
2375.09405	1327.4125
2377.91118	1328.9125
2380.72652	1328.5125
2383.54009	1325.7125
2386.35187	1327.9125
2389.16188	1325.6125
2391.97011	1315.2125
2394.77657	1315.5125
2397.58125	1320.9125
2400.38416	1324.2125
2403.18529	1304.1125
2405.98466	1314.1125
2408.78226	1313.5125
2411.57809	1308.6125
2414.37216	1302.0125
2417.16446	1300.2125
2419.955	1311.8125
2422.74378	1302.0125
2425.5308	1299.7125
2428.31606	1298.6125
2431.09956	1297.9125
2433.88131	1296.3125
2436.6613	1288.7125
2439.43954	1296.2125
2442.21603	1289.7125
2444.99077	1290.4125
2447.76377	1291.1125
2450.53501	1291.8125
2453.30451	1285.5125
2456.07226	1284.1125
2458.83827	1277.1125
2461.60254	1279.4125
2464.36507	1282.0125
2467.12586	1272.7125
2469.88492	1273.5125
2472.64224	1271.1125
2475.39782	1272.3125
2478.15167	1272.7125
2480.90379	1272.1125
2483.65417	1277.3125
2486.40283	1268.0125
2489.14976	1268.1125
2491.89497	1263.0125
2494.63845	1267.7125
2497.3802	1260.5125
2500.12024	1262.7125
2502.85855	1264.5125
2505.59514	1265.4125
2508.33002	1260.8125
2511.06318	1257.0125
2513.79462	1254.2125
2516.52435	1246.0125
2519.25237	1261.7125
2521.97867	1255.1125
2524.70327	1253.8125
2527.42616	1248.0125
2530.14734	1239.5125
2532.86681	1244.8125
2535.58458	1240.6125
2538.30065	1240.2125
2541.01501	1245.5125
2543.72768	1234.0125
2546.43864	1234.3125
2549.14791	1236.8125
2551.85548	1230.1125
2554.56136	1234.2125
2557.26554	1230.5125
2559.96803	1226.2125
2562.66883	1227.1125
2565.36794	1222.2125
2568.06536	1215.7125
2570.7611	1212.9125
2573.45514	1213.6125
2576.14751	1217.4125
2578.83819	1217.6125
2581.52719	1218.5125
2584.21451	1212.9125
2586.90015	1208.7125
2589.58411	1203.9125
2592.2664	1203.5125
2594.94701	1202.8125
2597.62594	1198.6125
2600.30321	1194.2125
2602.9788	1196.3125
2605.65273	1198.6125
2608.32498	1197.7125
2610.99557	1191.7125
2613.66449	1192.1125
2616.33175	1189.1125
2618.99734	1191.1125
2621.66128	1187.4125
2624.32355	1178.7125
2626.98416	1184.6125
2629.64311	1184.1125
2632.30041	1187.0125
2634.95605	1186.1125
2637.61004	1174.2125
2640.26238	1172.7125
2642.91306	1171.0125
2645.56209	1178.1125
2648.20948	1181.4125
2650.85521	1173.9125
2653.4993	1175.0125
2656.14175	1167.0125
2658.78255	1182.1125
2661.42171	1173.7125
2664.05923	1173.6125
2666.6951	1172.7125
2669.32934	1180.8125
2671.96194	1180.2125
2674.59291	1185.8125
2677.22224	1185.8125
2679.84993	1177.1125
2682.476	1183.2125
2685.10043	1188.5125
2687.72324	1174.2125
2690.34441	1171.9125
2692.96396	1174.5125
2695.58188	1184.2125
2698.19818	1179.3125
2700.81285	1184.2125
2703.4259	1180.8125
2706.03733	1186.5125
2708.64714	1183.3125
2711.25533	1188.8125
2713.86191	1177.6125
2716.46687	1182.0125
2719.07021	1189.8125
2721.67194	1188.5125
2724.27206	1183.9125
2726.87057	1191.0125
2729.46747	1187.7125
2732.06276	1191.4125
2734.65644	1192.4125
2737.24852	1185.5125
2739.83899	1182.3125
2742.42786	1176.3125
2745.01513	1173.8125
2747.60079	1175.6125
2750.18486	1177.0125
2752.76733	1172.3125
2755.3482	1175.2125
2757.92747	1176.9125
2760.50515	1173.1125
2763.08123	1172.8125
2765.65573	1174.1125
2768.22863	1174.0125
2770.79994	1163.0125
2773.36967	1168.3125
2775.9378	1174.8125
2778.50435	1165.9125
2781.06932	1163.5125
2783.6327	1163.6125
2786.1945	1170.8125
2788.75471	1172.5125
2791.31335	1172.2125
2793.87041	1174.1125
2796.42589	1179.4125
2798.97979	1175.0125
2801.53212	1179.4125
2804.08288	1178.4125
2806.63206	1175.9125
2809.17967	1180.8125
2811.72571	1173.9125
2814.27018	1182.9125
2816.81308	1173.0125
2819.35442	1175.5125
2821.89419	1175.4125
2824.43239	1181.6125
2826.96904	1177.8125
2829.50412	1186.1125
2832.03763	1179.4125
2834.56959	1179.5125
2837.1	1180.4125
2839.62884	1183.0125
2842.15613	1190.3125
2844.68186	1186.0125
2847.20604	1194.5125
2849.72867	1183.2125
2852.24974	1183.7125
2854.76927	1196.6125
2857.28724	1200.2125
2859.80367	1199.0125
2862.31855	1191.7125
2864.83189	1183.8125
2867.34368	1189.8125
2869.85393	1201.5125
2872.36264	1205.3125
2874.8698	1208.4125
2877.37543	1221.5125
2879.87952	1215.7125
2882.38207	1225.2125
2884.88308	1237.5125
2887.38256	1246.4125
2889.88051	1252.4125
2892.37692	1258.7125
2894.8718	1264.3125
2897.36515	1281.2125
2899.85698	1299.0125
2902.34727	1317.3125
2904.83604	1313.0125
2907.32328	1331.0125
2909.809	1352.7125
2912.29319	1355.5125
2914.77587	1360.8125
2917.25702	1381.3125
2919.73665	1404.6125
2922.21476	1422.7125
2924.69136	1432.9125
2927.16644	1440.9125
2929.64	1458.4125
2932.11205	1467.0125
2934.58258	1483.7125
2937.05161	1496.7125
2939.51912	1517.4125
2941.98513	1534.0125
2944.44962	1550.5125
2946.91261	1570.2125
2949.37409	1579.6125
2951.83407	1608.6125
2954.29254	1612.4125
2956.74951	1600.8125
2959.20498	1586.5125
2961.65895	1554.0125
2964.11142	1528.6125
2966.56239	1496.9125
2969.01186	1471.6125
2971.45984	1445.3125
2973.90632	1413.3125
2976.35131	1398.7125
2978.7948	1376.9125
2981.23681	1365.7125
2983.67732	1359.0125
2986.11635	1349.3125
2988.55388	1334.9125
2990.98993	1330.3125
2993.4245	1324.2125
2995.85758	1325.5125
2998.28917	1318.1125
3000.71928	1319.3125
3003.14791	1330.0125
3005.57506	1331.9125
3008.00073	1329.0125
3010.42493	1336.8125
3012.84764	1335.1125
3015.26888	1337.7125
3017.68865	1328.6125
3020.10694	1327.5125
3022.52376	1321.6125
3024.9391	1320.9125
3027.35298	1310.3125
3029.76539	1305.8125
3032.17632	1305.7125
3034.5858	1300.0125
3036.9938	1286.3125
3039.40034	1289.5125
3041.80542	1275.2125
3044.20903	1280.9125
3046.61118	1285.8125
3049.01187	1270.3125
3051.4111	1265.9125
3053.80888	1269.8125
3056.20519	1258.5125
3058.60005	1267.3125
3060.99345	1265.1125
3063.3854	1269.5125
3065.7759	1266.8125
3068.16494	1260.4125
3070.55254	1257.2125
3072.93868	1270.3125
3075.32338	1264.9125
3077.70662	1264.7125
3080.08842	1272.8125
3082.46878	1279.2125
3084.84769	1285.2125
3087.22515	1290.7125
3089.60118	1299.7125
3091.97576	1304.2125
3094.3489	1318.4125
3096.72061	1313.1125
3099.09087	1328.8125
3101.4597	1345.4125
3103.82709	1337.7125
3106.19305	1343.0125
3108.55757	1359.9125
3110.92066	1357.9125
3113.28232	1369.4125
3115.64255	1375.1125
3118.00134	1387.9125
3120.35871	1384.2125
3122.71466	1392.9125
3125.06917	1392.1125
3127.42226	1402.9125
3129.77393	1423.1125
