Data from AgNPs_UA_20uM_CRN_500uM_AS_RamanShift__22__14-49-11-523.txt Node

Date: Wed Aug 17 14:49:11 BST 2022
User: TCL
Spectrometer: QEP01345
Trigger mode: 4
Integration Time (sec): 7.000000E0
Scans to average: 10
Electric dark correction enabled: true
Nonlinearity correction enabled: false
Boxcar width: 0
XAxis mode: Raman Shifts
Number of Pixels in Spectrum: 1044
>>>>>Begin Spectral Data<<<<<
46.04893	-1.6875
50.45542	1.1125
54.85868	-0.7875
59.25871	-0.8875
63.6555	38.8125
68.04907	37.9125
72.43941	42.8125
76.82654	44.7125
81.21044	47.7125
85.59113	48.6125
89.96862	49.4125
94.34289	54.5125
98.71396	55.5125
103.08183	56.0125
107.4465	54.9125
111.80798	55.0125
116.16626	60.1125
120.52136	58.0125
124.87327	59.2125
129.222	57.8125
133.56755	60.8125
137.90993	62.0125
142.24913	71.1125
146.58517	74.2125
150.91804	79.4125
155.24774	89.8125
159.57429	101.0125
163.89768	120.0125
168.21792	156.3125
172.53501	203.7125
176.84895	271.0125
181.15975	379.7125
185.46741	520.5125
189.77193	715.8125
194.07331	961.1125
198.37157	1234.2125
202.6667	1530.6125
206.9587	1843.6125
211.24758	2162.4125
215.53334	2523.4125
219.81599	2930.4125
224.09553	3388.6125
228.37195	3906.2125
232.64527	4433.9125
236.91549	4932.9125
241.18261	5298.1125
245.44663	5546.7125
249.70755	5695.1125
253.96539	5823.5125
258.22014	5958.0125
262.4718	6066.2125
266.72039	6101.2125
270.96589	6055.0125
275.20832	5869.9125
279.44768	5636.9125
283.68397	5427.2125
287.91719	5300.4125
292.14735	5366.8125
296.37445	5625.7125
300.59849	6100.7125
304.81948	6635.0125
309.03742	7025.5125
313.25231	7087.2125
317.46415	6671.8125
321.67296	5920.1125
325.87872	5300.9125
330.08145	5030.4125
334.28114	5038.5125
338.47781	5169.8125
342.67145	5375.5125
346.86207	5699.7125
351.04966	6236.0125
355.23424	6865.1125
359.4158	7335.3125
363.59435	7591.0125
367.76989	7597.6125
371.94243	7438.3125
376.11196	7283.3125
380.27849	7133.5125
384.44203	6951.3125
388.60257	6747.5125
392.76012	6603.9125
396.91468	6582.3125
401.06626	6702.1125
405.21485	6781.3125
409.36047	6480.5125
413.50311	5882.2125
417.64277	5344.0125
421.77947	5021.6125
425.9132	4885.3125
430.04396	4843.0125
434.17176	4854.9125
438.2966	4955.7125
442.41849	5108.9125
446.53742	5260.7125
450.6534	5386.2125
454.76644	5426.8125
458.87653	5414.4125
462.98368	5310.6125
467.08789	5198.8125
471.18916	5058.8125
475.2875	4939.9125
479.38291	4795.2125
483.4754	4670.9125
487.56496	4601.6125
491.6516	4583.2125
495.73531	4579.6125
499.81612	4644.1125
503.89401	4743.7125
507.96899	4859.4125
512.04106	5027.3125
516.11023	5194.5125
520.1765	5305.7125
524.23987	5302.9125
528.30034	5194.9125
532.35792	5086.4125
536.41261	4992.8125
540.46441	4828.7125
544.51333	4747.6125
548.55936	4746.0125
552.60252	4877.6125
556.64279	5049.2125
560.6802	5170.2125
564.71473	5435.2125
568.7464	5855.0125
572.7752	5872.0125
576.80114	5352.8125
580.82422	4886.6125
584.84444	4670.8125
588.86181	4624.0125
592.87633	4709.6125
596.888	4856.7125
600.89682	5301.3125
604.9028	6729.5125
608.90594	10202.7125
612.90624	14151.7125
616.90371	12661.1125
620.89834	7606.4125
624.89015	5435.6125
628.87913	5042.1125
632.86528	5236.1125
636.84862	5488.1125
640.82913	5344.6125
644.80683	4923.2125
648.78172	4633.5125
652.75379	4666.6125
656.72306	5097.2125
660.68952	5484.0125
664.65319	5238.8125
668.61405	4737.0125
672.57211	4534.7125
676.52738	4568.9125
680.47986	4574.2125
684.42955	4487.9125
688.37646	4403.1125
692.32058	4387.2125
696.26192	4419.4125
700.20048	4503.6125
704.13626	4543.9125
708.06928	4498.1125
711.99952	4416.5125
715.927	4422.2125
719.85171	4490.4125
723.77365	4550.0125
727.69284	4533.4125
731.60928	4492.6125
735.52295	4458.1125
739.43388	4466.1125
743.34206	4509.9125
747.24749	4498.7125
751.15017	4514.0125
755.05012	4651.9125
758.94733	5113.6125
762.8418	6330.4125
766.73354	8266.4125
770.62254	9986.3125
774.50882	10688.2125
778.39237	9995.2125
782.27321	8082.6125
786.15132	6204.9125
790.02671	5157.6125
793.89938	4711.4125
797.76935	4502.6125
801.6366	4416.8125
805.50115	4385.6125
809.36299	4334.4125
813.22213	4277.9125
817.07857	4279.5125
820.93231	4265.9125
824.78336	4298.3125
828.63172	4340.2125
832.47738	4332.4125
836.32036	4301.3125
840.16066	4233.5125
843.99827	4189.4125
847.8332	4183.7125
851.66546	4199.0125
855.49504	4218.3125
859.32195	4222.2125
863.1462	4244.5125
866.96777	4211.0125
870.78668	4207.1125
874.60293	4203.1125
878.41652	4243.8125
882.22745	4306.0125
886.03573	4333.4125
889.84136	4318.7125
893.64433	4296.0125
897.44466	4295.8125
901.24235	4282.2125
905.0374	4249.5125
908.8298	4172.4125
912.61957	4115.5125
916.40671	4114.5125
920.19121	4133.8125
923.97308	4189.6125
927.75233	4328.3125
931.52895	4469.7125
935.30295	4397.8125
939.07433	4182.3125
942.84309	4012.4125
946.60924	3882.7125
950.37278	3835.4125
954.13371	3812.4125
957.89203	3797.7125
961.64774	3792.5125
965.40086	3780.8125
969.15137	3759.0125
972.89929	3756.3125
976.64461	3722.4125
980.38733	3737.0125
984.12747	3738.5125
987.86502	3763.5125
991.59999	3774.6125
995.33237	3818.9125
999.06217	3907.8125
1002.78939	4006.6125
1006.51404	4145.5125
1010.23611	4228.8125
1013.95561	4236.7125
1017.67255	4189.7125
1021.38692	4130.8125
1025.09872	4039.8125
1028.80796	3985.5125
1032.51465	3987.8125
1036.21877	4028.0125
1039.92035	4085.4125
1043.61937	4139.5125
1047.31584	4161.8125
1051.00976	4146.9125
1054.70114	4102.5125
1058.38998	4081.7125
1062.07627	4077.5125
1065.76003	4046.7125
1069.44126	4060.9125
1073.11995	4120.4125
1076.79611	4241.7125
1080.46974	4467.4125
1084.14085	4751.7125
1087.80943	4995.9125
1091.47549	5065.6125
1095.13903	4895.2125
1098.80005	4630.5125
1102.45857	4465.7125
1106.11456	4450.7125
1109.76805	4588.3125
1113.41903	4859.1125
1117.06751	5291.2125
1120.71348	5798.2125
1124.35696	6400.6125
1127.99793	6805.3125
1131.63641	6496.5125
1135.2724	5796.1125
1138.90589	5230.8125
1142.5369	4885.9125
1146.16542	4646.5125
1149.79145	4520.1125
1153.415	4454.1125
1157.03607	4483.0125
1160.65467	4608.7125
1164.27079	4857.8125
1167.88443	5246.6125
1171.49561	5872.6125
1175.10432	6942.5125
1178.71056	8516.5125
1182.31434	9819.0125
1185.91565	10055.1125
1189.51451	9307.7125
1193.11091	8201.8125
1196.70485	7228.0125
1200.29634	6650.9125
1203.88538	6198.0125
1207.47197	5612.1125
1211.05612	5062.6125
1214.63782	4716.9125
1218.21708	4564.1125
1221.79391	4486.1125
1225.36829	4477.3125
1228.94024	4451.2125
1232.50976	4440.7125
1236.07685	4419.6125
1239.6415	4438.9125
1243.20374	4494.0125
1246.76355	4547.5125
1250.32093	4638.9125
1253.8759	4726.1125
1257.42845	4913.4125
1260.97859	5169.8125
1264.52631	5465.9125
1268.07163	5756.4125
1271.61453	6000.5125
1275.15503	6133.9125
1278.69312	6151.8125
1282.22882	6229.5125
1285.76211	6470.9125
1289.29301	6874.1125
1292.82151	7255.7125
1296.34761	7730.1125
1299.87133	8539.7125
1303.39266	10022.7125
1306.9116	12211.6125
1310.42815	14266.2125
1313.94233	14488.3125
1317.45412	12804.9125
1320.96354	10661.5125
1324.47058	8785.6125
1327.97525	7430.3125
1331.47754	6644.8125
1334.97747	6346.7125
1338.47502	6458.4125
1341.97022	6975.3125
1345.46305	7974.6125
1348.95352	9414.1125
1352.44163	11135.7125
1355.92738	13578.7125
1359.41078	17180.1125
1362.89183	20269.0125
1366.37053	18809.1125
1369.84688	13999.5125
1373.32088	10203.8125
1376.79254	8191.4125
1380.26186	7151.3125
1383.72883	6414.9125
1387.19347	5837.4125
1390.65578	5355.2125
1394.11575	5019.6125
1397.57339	4806.3125
1401.0287	4695.8125
1404.48168	4631.0125
1407.93234	4618.1125
1411.38068	4655.2125
1414.82669	4772.5125
1418.27039	4873.2125
1421.71177	4898.0125
1425.15083	4833.2125
1428.58758	4841.1125
1432.02203	4948.4125
1435.45416	5023.4125
1438.88399	4989.1125
1442.31151	4882.6125
1445.73673	4877.2125
1449.15965	4925.8125
1452.58027	4876.0125
1455.9986	4811.1125
1459.41463	4799.0125
1462.82837	4898.2125
1466.23982	5071.1125
1469.64898	5270.9125
1473.05586	5367.1125
1476.46045	5377.3125
1479.86276	5467.7125
1483.26279	5645.2125
1486.66054	5992.8125
1490.05602	6529.7125
1493.44922	7337.2125
1496.84016	8730.8125
1500.22882	11005.0125
1503.61521	14277.6125
1506.99934	17751.3125
1510.38121	19949.5125
1513.76081	19529.9125
1517.13816	16605.8125
1520.51324	12901.9125
1523.88607	9839.8125
1527.25665	7999.3125
1530.62498	7052.8125
1533.99105	6464.8125
1537.35488	6086.2125
1540.71647	5871.5125
1544.07581	5792.3125
1547.4329	5844.5125
1550.78776	5986.2125
1554.14038	6145.1125
1557.49077	6325.2125
1560.83892	6593.9125
1564.18484	7088.5125
1567.52853	7728.0125
1570.86999	8264.2125
1574.20922	8522.8125
1577.54624	8274.4125
1580.88103	7343.5125
1584.2136	6255.3125
1587.54395	5559.5125
1590.87208	5387.0125
1594.19801	5688.4125
1597.52172	6140.4125
1600.84321	6211.4125
1604.16251	5908.5125
1607.47959	5537.3125
1610.79447	5164.1125
1614.10715	4783.1125
1617.41763	4451.4125
1620.7259	4262.0125
1624.03199	4208.2125
1627.33587	4265.6125
1630.63757	4442.4125
1633.93707	4759.6125
1637.23439	5355.8125
1640.52951	6373.1125
1643.82246	8035.2125
1647.11321	10044.1125
1650.40179	11358.1125
1653.68819	10807.5125
1656.97241	8789.8125
1660.25446	6708.7125
1663.53433	5340.7125
1666.81203	4535.3125
1670.08756	4091.6125
1673.36092	3832.4125
1676.63211	3662.8125
1679.90115	3553.7125
1683.16801	3468.8125
1686.43272	3422.9125
1689.69527	3364.5125
1692.95567	3327.6125
1696.2139	3353.7125
1699.46999	3309.4125
1702.72392	3295.9125
1705.97571	3278.3125
1709.22535	3265.9125
1712.47284	3255.0125
1715.71819	3232.3125
1718.96139	3196.1125
1722.20246	3174.9125
1725.44139	3145.8125
1728.67818	3105.6125
1731.91284	3064.9125
1735.14537	3024.5125
1738.37576	3023.9125
1741.60403	3000.8125
1744.83017	3008.1125
1748.05418	2994.4125
1751.27607	2990.8125
1754.49584	2984.1125
1757.71349	2971.4125
1760.92903	2947.9125
1764.14244	2924.6125
1767.35375	2914.2125
1770.56294	2871.1125
1773.77002	2863.9125
1776.97499	2824.3125
1780.17785	2804.7125
1783.37861	2785.8125
1786.57727	2773.2125
1789.77382	2762.6125
1792.96828	2744.9125
1796.16064	2742.2125
1799.3509	2723.3125
1802.53907	2723.5125
1805.72514	2711.7125
1808.90913	2685.4125
1812.09102	2658.6125
1815.27083	2656.4125
1818.44856	2651.0125
1821.6242	2634.4125
1824.79776	2635.0125
1827.96924	2630.0125
1831.13864	2614.6125
1834.30597	2604.7125
1837.47122	2587.5125
1840.6344	2585.7125
1843.7955	2583.2125
1846.95454	2580.8125
1850.11151	2570.4125
1853.26642	2556.9125
1856.41926	2555.7125
1859.57004	2553.4125
1862.71876	2561.4125
1865.86542	2556.3125
1869.01003	2565.3125
1872.15258	2557.3125
1875.29308	2570.4125
1878.43152	2546.5125
1881.56792	2545.9125
1884.70227	2545.1125
1887.83457	2540.2125
1890.96482	2537.6125
1894.09304	2527.7125
1897.21921	2523.4125
1900.34335	2544.7125
1903.46544	2536.4125
1906.58551	2515.6125
1909.70353	2529.6125
1912.81953	2520.2125
1915.93349	2508.7125
1919.04543	2495.1125
1922.15534	2498.1125
1925.26322	2491.0125
1928.36908	2483.2125
1931.47292	2473.7125
1934.57473	2462.8125
1937.67453	2449.8125
1940.77232	2429.2125
1943.86808	2413.8125
1946.96184	2415.2125
1950.05358	2404.4125
1953.14331	2409.1125
1956.23103	2397.2125
1959.31675	2399.7125
1962.40046	2388.2125
1965.48217	2370.6125
1968.56188	2376.8125
1971.63959	2376.9125
1974.7153	2373.3125
1977.78901	2356.8125
1980.86073	2352.7125
1983.93046	2344.8125
1986.99819	2323.8125
1990.06394	2323.9125
1993.1277	2294.4125
1996.18947	2294.1125
1999.24925	2284.2125
2002.30706	2269.7125
2005.36288	2259.4125
2008.41672	2247.2125
2011.46859	2232.0125
2014.51848	2229.7125
2017.56639	2234.2125
2020.61233	2231.4125
2023.6563	2224.4125
2026.6983	2209.4125
2029.73833	2203.7125
2032.7764	2206.4125
2035.8125	2185.4125
2038.84664	2172.6125
2041.87881	2169.4125
2044.90903	2177.6125
2047.93729	2170.5125
2050.96359	2168.4125
2053.98794	2166.6125
2057.01034	2157.7125
2060.03078	2151.6125
2063.04927	2149.4125
2066.06582	2145.7125
2069.08042	2145.5125
2072.09307	2129.3125
2075.10378	2133.3125
2078.11255	2137.1125
2081.11938	2133.4125
2084.12426	2138.1125
2087.12722	2140.1125
2090.12824	2135.2125
2093.12732	2128.3125
2096.12447	2130.7125
2099.11969	2133.4125
2102.11299	2125.9125
2105.10435	2125.4125
2108.09379	2126.5125
2111.08131	2135.5125
2114.0669	2138.4125
2117.05057	2154.6125
2120.03233	2153.6125
2123.01216	2149.9125
2125.99008	2162.6125
2128.96609	2153.0125
2131.94018	2157.0125
2134.91236	2154.0125
2137.88263	2147.9125
2140.851	2151.3125
2143.81746	2147.2125
2146.78201	2138.6125
2149.74466	2152.7125
2152.7054	2134.8125
2155.66425	2130.0125
2158.6212	2134.3125
2161.57625	2123.1125
2164.52941	2117.5125
2167.48067	2112.9125
2170.43004	2120.6125
2173.37752	2100.8125
2176.32311	2115.3125
2179.26681	2107.1125
2182.20863	2109.9125
2185.14856	2119.4125
2188.08661	2115.6125
2191.02278	2110.9125
2193.95707	2108.6125
2196.88948	2099.9125
2199.82001	2104.9125
2202.74867	2098.2125
2205.67545	2094.5125
2208.60037	2099.9125
2211.52341	2096.2125
2214.44458	2090.3125
2217.36388	2074.8125
2220.28132	2075.4125
2223.1969	2059.9125
2226.11061	2063.6125
2229.02246	2048.7125
2231.93245	2045.6125
2234.84058	2048.7125
2237.74686	2046.5125
2240.65128	2043.6125
2243.55385	2043.7125
2246.45456	2044.7125
2249.35343	2038.2125
2252.25044	2058.4125
2255.14561	2048.9125
2258.03893	2059.6125
2260.93041	2059.0125
2263.82004	2054.4125
2266.70783	2057.9125
2269.59378	2050.6125
2272.4779	2045.7125
2275.36017	2035.7125
2278.24061	2035.8125
2281.11922	2023.7125
2283.996	2010.5125
2286.87094	2002.3125
2289.74405	1991.2125
2292.61534	1994.3125
2295.4848	1997.5125
2298.35243	1989.1125
2301.21824	1975.8125
2304.08223	1977.8125
2306.94439	1969.1125
2309.80474	1981.6125
2312.66327	1976.1125
2315.51999	1965.1125
2318.37489	1973.8125
2321.22797	1965.4125
2324.07925	1952.0125
2326.92871	1958.7125
2329.77637	1961.4125
2332.62222	1949.2125
2335.46626	1966.0125
2338.3085	1957.9125
2341.14893	1962.4125
2343.98756	1964.4125
2346.8244	1960.2125
2349.65943	1967.6125
2352.49267	1968.9125
2355.32411	1979.5125
2358.15376	1983.2125
2360.98161	1996.9125
2363.80768	1988.9125
2366.63195	2003.5125
2369.45444	2003.9125
2372.27514	2008.0125
2375.09405	2005.2125
2377.91118	1995.8125
2380.72652	1982.9125
2383.54009	1976.2125
2386.35187	1958.5125
2389.16188	1945.6125
2391.97011	1933.6125
2394.77657	1916.6125
2397.58125	1916.5125
2400.38416	1918.1125
2403.18529	1903.9125
2405.98466	1899.6125
2408.78226	1888.2125
2411.57809	1886.9125
2414.37216	1898.5125
2417.16446	1883.9125
2419.955	1882.6125
2422.74378	1880.2125
2425.5308	1891.9125
2428.31606	1891.3125
2431.09956	1894.3125
2433.88131	1888.2125
2436.6613	1900.2125
2439.43954	1893.4125
2442.21603	1890.8125
2444.99077	1897.2125
2447.76377	1905.7125
2450.53501	1893.9125
2453.30451	1900.6125
2456.07226	1902.9125
2458.83827	1905.0125
2461.60254	1904.4125
2464.36507	1900.1125
2467.12586	1899.1125
2469.88492	1888.1125
2472.64224	1907.5125
2475.39782	1913.4125
2478.15167	1904.2125
2480.90379	1916.0125
2483.65417	1931.0125
2486.40283	1932.5125
2489.14976	1950.0125
2491.89497	1950.1125
2494.63845	1946.3125
2497.3802	1958.4125
2500.12024	1938.9125
2502.85855	1930.8125
2505.59514	1908.0125
2508.33002	1893.2125
2511.06318	1887.8125
2513.79462	1870.2125
2516.52435	1855.8125
2519.25237	1829.9125
2521.97867	1830.6125
2524.70327	1817.5125
2527.42616	1820.9125
2530.14734	1805.3125
2532.86681	1807.5125
2535.58458	1811.7125
2538.30065	1814.3125
2541.01501	1821.8125
2543.72768	1825.3125
2546.43864	1826.4125
2549.14791	1818.9125
2551.85548	1817.1125
2554.56136	1811.1125
2557.26554	1807.2125
2559.96803	1817.6125
2562.66883	1817.7125
2565.36794	1808.6125
2568.06536	1803.2125
2570.7611	1809.6125
2573.45514	1794.6125
2576.14751	1797.6125
2578.83819	1776.7125
2581.52719	1779.5125
2584.21451	1774.4125
2586.90015	1767.3125
2589.58411	1776.9125
2592.2664	1769.2125
2594.94701	1761.9125
2597.62594	1760.2125
2600.30321	1772.1125
2602.9788	1756.9125
2605.65273	1752.7125
2608.32498	1760.1125
2610.99557	1756.0125
2613.66449	1762.1125
2616.33175	1759.1125
2618.99734	1763.7125
2621.66128	1760.8125
2624.32355	1751.1125
2626.98416	1746.5125
2629.64311	1739.8125
2632.30041	1741.4125
2634.95605	1733.9125
2637.61004	1733.6125
2640.26238	1722.7125
2642.91306	1722.3125
2645.56209	1714.9125
2648.20948	1714.6125
2650.85521	1708.5125
2653.4993	1721.1125
2656.14175	1709.8125
2658.78255	1727.3125
2661.42171	1725.6125
2664.05923	1728.2125
2666.6951	1726.9125
2669.32934	1748.6125
2671.96194	1728.7125
2674.59291	1744.9125
2677.22224	1737.2125
2679.84993	1736.4125
2682.476	1735.7125
2685.10043	1724.9125
2687.72324	1731.3125
2690.34441	1723.4125
2692.96396	1716.0125
2695.58188	1730.4125
2698.19818	1718.2125
2700.81285	1711.8125
2703.4259	1722.6125
2706.03733	1738.7125
2708.64714	1726.8125
2711.25533	1731.0125
2713.86191	1731.7125
2716.46687	1730.8125
2719.07021	1732.3125
2721.67194	1734.5125
2724.27206	1728.9125
2726.87057	1738.6125
2729.46747	1724.1125
2732.06276	1729.4125
2734.65644	1715.5125
2737.24852	1723.5125
2739.83899	1702.2125
2742.42786	1704.0125
2745.01513	1696.0125
2747.60079	1695.6125
2750.18486	1686.2125
2752.76733	1693.3125
2755.3482	1687.6125
2757.92747	1684.2125
2760.50515	1673.1125
2763.08123	1674.2125
2765.65573	1671.2125
2768.22863	1662.7125
2770.79994	1663.2125
2773.36967	1665.9125
2775.9378	1657.8125
2778.50435	1663.8125
2781.06932	1664.4125
2783.6327	1670.1125
2786.1945	1662.0125
2788.75471	1669.6125
2791.31335	1675.9125
2793.87041	1667.0125
2796.42589	1673.7125
2798.97979	1668.7125
2801.53212	1677.8125
2804.08288	1670.3125
2806.63206	1679.3125
2809.17967	1687.4125
2811.72571	1681.7125
2814.27018	1702.0125
2816.81308	1707.7125
2819.35442	1704.1125
2821.89419	1702.5125
2824.43239	1718.1125
2826.96904	1713.8125
2829.50412	1703.2125
2832.03763	1703.1125
2834.56959	1706.6125
2837.1	1695.6125
2839.62884	1699.9125
2842.15613	1694.0125
2844.68186	1716.0125
2847.20604	1724.5125
2849.72867	1712.0125
2852.24974	1729.4125
2854.76927	1727.3125
2857.28724	1738.7125
2859.80367	1749.5125
2862.31855	1760.2125
2864.83189	1767.5125
2867.34368	1784.6125
2869.85393	1791.8125
2872.36264	1796.1125
2874.8698	1803.9125
2877.37543	1810.0125
2879.87952	1816.2125
2882.38207	1811.4125
2884.88308	1805.7125
2887.38256	1821.3125
2889.88051	1812.4125
2892.37692	1814.0125
2894.8718	1814.4125
2897.36515	1823.6125
2899.85698	1835.1125
2902.34727	1838.7125
2904.83604	1839.1125
2907.32328	1845.2125
2909.809	1858.3125
2912.29319	1854.7125
2914.77587	1844.5125
2917.25702	1857.2125
2919.73665	1854.2125
2922.21476	1855.0125
2924.69136	1857.4125
2927.16644	1858.6125
2929.64	1851.7125
2932.11205	1847.7125
2934.58258	1845.0125
2937.05161	1846.1125
2939.51912	1844.9125
2941.98513	1840.2125
2944.44962	1841.2125
2946.91261	1827.6125
2949.37409	1824.4125
2951.83407	1817.4125
2954.29254	1811.2125
2956.74951	1804.2125
2959.20498	1788.7125
2961.65895	1778.7125
2964.11142	1783.0125
2966.56239	1767.2125
2969.01186	1756.0125
2971.45984	1757.6125
2973.90632	1748.6125
2976.35131	1734.4125
2978.7948	1734.3125
2981.23681	1725.4125
2983.67732	1717.8125
2986.11635	1706.0125
2988.55388	1695.8125
2990.98993	1692.4125
2993.4245	1694.3125
2995.85758	1688.5125
2998.28917	1699.3125
3000.71928	1693.0125
3003.14791	1693.0125
3005.57506	1702.3125
3008.00073	1688.3125
3010.42493	1654.2125
3012.84764	1691.8125
3015.26888	1686.8125
3017.68865	1686.2125
3020.10694	1679.7125
3022.52376	1673.0125
3024.9391	1674.8125
3027.35298	1673.1125
3029.76539	1666.5125
3032.17632	1667.4125
3034.5858	1652.6125
3036.9938	1651.2125
3039.40034	1650.7125
3041.80542	1648.2125
3044.20903	1659.2125
3046.61118	1647.5125
3049.01187	1634.5125
3051.4111	1636.0125
3053.80888	1642.1125
3056.20519	1650.5125
3058.60005	1644.7125
3060.99345	1645.3125
3063.3854	1646.0125
3065.7759	1647.0125
3068.16494	1632.1125
3070.55254	1630.4125
3072.93868	1630.3125
3075.32338	1625.6125
3077.70662	1623.9125
3080.08842	1616.6125
3082.46878	1632.1125
3084.84769	1622.3125
3087.22515	1629.2125
3089.60118	1632.4125
3091.97576	1638.9125
3094.3489	1636.4125
3096.72061	1647.1125
3099.09087	1647.2125
3101.4597	1650.9125
3103.82709	1653.8125
3106.19305	1660.0125
3108.55757	1665.7125
3110.92066	1670.4125
3113.28232	1680.2125
3115.64255	1678.6125
3118.00134	1674.1125
3120.35871	1687.3125
3122.71466	1688.7125
3125.06917	1683.6125
