Data from AgNPs_UA_50uM_CRN_500uM_AS_RamanShift__28__15-38-11-574.txt Node

Date: Wed Aug 17 15:38:11 BST 2022
User: TCL
Spectrometer: QEP01345
Trigger mode: 4
Integration Time (sec): 7.000000E0
Scans to average: 10
Electric dark correction enabled: true
Nonlinearity correction enabled: false
Boxcar width: 0
XAxis mode: Raman Shifts
Number of Pixels in Spectrum: 1044
>>>>>Begin Spectral Data<<<<<
46.04893	0.2
50.45542	-0.4
54.85868	-1.7
59.25871	-0.2
63.6555	32.8
68.04907	32.8
72.43941	35.2
76.82654	37.3
81.21044	38.3
85.59113	41.6
89.96862	41.2
94.34289	46.8
98.71396	46.4
103.08183	46.9
107.4465	51.1
111.80798	48.8
116.16626	48.9
120.52136	50.8
124.87327	48
129.222	52.4
133.56755	56.7
137.90993	58.5
142.24913	63.3
146.58517	69.7
150.91804	75.4
155.24774	85.4
159.57429	98.2
163.89768	120
168.21792	162.3
172.53501	213.9
176.84895	295.7
181.15975	403.9
185.46741	563.6
189.77193	781.9
194.07331	1046.3
198.37157	1349.7
202.6667	1665
206.9587	2003.7
211.24758	2366.2
215.53334	2768.1
219.81599	3206
224.09553	3738.4
228.37195	4323.1
232.64527	4921.7
236.91549	5452.2
241.18261	5847.5
245.44663	6082.6
249.70755	6255.9
253.96539	6409
258.22014	6557
262.4718	6662.1
266.72039	6698.1
270.96589	6618.1
275.20832	6409.5
279.44768	6118.6
283.68397	5885.5
287.91719	5765.8
292.14735	5880.1
296.37445	6236.4
300.59849	6841.3
304.81948	7577.4
309.03742	8072.1
313.25231	8167.9
317.46415	7561.5
321.67296	6574.5
325.87872	5775.4
330.08145	5444
334.28114	5459.8
338.47781	5646.2
342.67145	5941.3
346.86207	6401.6
351.04966	7122.2
355.23424	7943.8
359.4158	8545.2
363.59435	8749.8
367.76989	8708
371.94243	8492.1
376.11196	8279.2
380.27849	8063.5
384.44203	7802.9
388.60257	7531.6
392.76012	7363.6
396.91468	7392.8
401.06626	7571.8
405.21485	7650.5
409.36047	7240.3
413.50311	6492.6
417.64277	5813.8
421.77947	5398.8
425.9132	5203.5
430.04396	5130.5
434.17176	5146
438.2966	5274.9
442.41849	5464.6
446.53742	5674.2
450.6534	5789
454.76644	5808
458.87653	5731.9
462.98368	5616.2
467.08789	5503.4
471.18916	5360
475.2875	5170.6
479.38291	5014.9
483.4754	4902
487.56496	4840
491.6516	4796.7
495.73531	4794.1
499.81612	4866.1
503.89401	4983.2
507.96899	5149.5
512.04106	5382.7
516.11023	5611.5
520.1765	5792.2
524.23987	5808.6
528.30034	5679.2
532.35792	5546.9
536.41261	5415.8
540.46441	5203.5
544.51333	5096.5
548.55936	5151
552.60252	5360.9
556.64279	5565.8
560.6802	5736.4
564.71473	6082.7
568.7464	6660.4
572.7752	6646.6
576.80114	5900.4
580.82422	5242.3
584.84444	4941.1
588.86181	4873.2
592.87633	4924.5
596.888	5109.2
600.89682	5676.2
604.9028	7496.6
608.90594	11943.9
612.90624	16884.6
616.90371	14897
620.89834	8640.9
624.89015	6057.2
628.87913	5671.2
632.86528	5967.5
636.84862	6232.7
640.82913	5942.8
644.80683	5374.9
648.78172	4998.1
652.75379	5094
656.72306	5549.4
660.68952	5996.2
664.65319	5683.8
668.61405	5084.2
672.57211	4829.6
676.52738	4854.5
680.47986	4866
684.42955	4775.7
688.37646	4703.8
692.32058	4696.7
696.26192	4757.6
700.20048	4860.1
704.13626	4912.2
708.06928	4862.9
711.99952	4800.6
715.927	4804.3
719.85171	4911.6
723.77365	5000.1
727.69284	4969
731.60928	4883.3
735.52295	4865.5
739.43388	4881.7
743.34206	4906.6
747.24749	4926.9
751.15017	4954.8
755.05012	5129.4
758.94733	5778.4
762.8418	7391.9
766.73354	9768.7
770.62254	11724.6
774.50882	12482
778.39237	11526.8
782.27321	9230.7
786.15132	6998.4
790.02671	5777.3
793.89938	5249.3
797.76935	5041.6
801.6366	4971.6
805.50115	4919.6
809.36299	4912.9
813.22213	4920.2
817.07857	4901.9
820.93231	4895.8
824.78336	4903.1
828.63172	4984.4
832.47738	5002.9
836.32036	4929
840.16066	4832.2
843.99827	4779.2
847.8332	4747.7
851.66546	4762.9
855.49504	4774.9
859.32195	4782.7
863.1462	4767.9
866.96777	4754.2
870.78668	4778
874.60293	4813.5
878.41652	4883.9
882.22745	4977.1
886.03573	5026.9
889.84136	5015.1
893.64433	4987
897.44466	5000.6
901.24235	5004.5
905.0374	4936.9
908.8298	4872
912.61957	4787.1
916.40671	4765.3
920.19121	4786.1
923.97308	4852.8
927.75233	5047.2
931.52895	5261.3
935.30295	5165.6
939.07433	4893.5
942.84309	4665.5
946.60924	4562.1
950.37278	4507
954.13371	4495.7
957.89203	4516.7
961.64774	4500.3
965.40086	4486.1
969.15137	4482.3
972.89929	4467.3
976.64461	4455.6
980.38733	4462
984.12747	4488.6
987.86502	4497
991.59999	4535
995.33237	4582.4
999.06217	4651.2
1002.78939	4794.6
1006.51404	4951.6
1010.23611	5048.1
1013.95561	5060.6
1017.67255	5009
1021.38692	4939.4
1025.09872	4835.5
1028.80796	4784.2
1032.51465	4803.2
1036.21877	4832.9
1039.92035	4897.3
1043.61937	4966.5
1047.31584	5027.1
1051.00976	5051.5
1054.70114	5027.1
1058.38998	5007.2
1062.07627	5021.3
1065.76003	5018.4
1069.44126	5031.7
1073.11995	5104.5
1076.79611	5282.2
1080.46974	5576.7
1084.14085	5967.2
1087.80943	6277.6
1091.47549	6339.5
1095.13903	6117.6
1098.80005	5776.9
1102.45857	5569.8
1106.11456	5580.1
1109.76805	5776
1113.41903	6133
1117.06751	6735.6
1120.71348	7461.2
1124.35696	8235.3
1127.99793	8656.5
1131.63641	8166.5
1135.2724	7279
1138.90589	6619.7
1142.5369	6217.8
1146.16542	5921.2
1149.79145	5732.3
1153.415	5634.8
1157.03607	5700.8
1160.65467	5853.3
1164.27079	6132.3
1167.88443	6609.6
1171.49561	7395.4
1175.10432	8688.4
1178.71056	10488.2
1182.31434	11891
1185.91565	12033.1
1189.51451	11199.7
1193.11091	9975.4
1196.70485	8852.1
1200.29634	8187.2
1203.88538	7678.5
1207.47197	7025.5
1211.05612	6386.8
1214.63782	5991.7
1218.21708	5781.4
1221.79391	5699.5
1225.36829	5694.1
1228.94024	5660.1
1232.50976	5685.2
1236.07685	5708.1
1239.6415	5750.8
1243.20374	5830.7
1246.76355	5922.1
1250.32093	6022.9
1253.8759	6152.5
1257.42845	6396.3
1260.97859	6703.4
1264.52631	7064.2
1268.07163	7378.4
1271.61453	7564.8
1275.15503	7602.8
1278.69312	7579.6
1282.22882	7651.5
1285.76211	7990.9
1289.29301	8452.9
1292.82151	8900.9
1296.34761	9401
1299.87133	10281.9
1303.39266	12016.1
1306.9116	14657.6
1310.42815	17089.9
1313.94233	17405.1
1317.45412	15356.9
1320.96354	12768.8
1324.47058	10539.3
1327.97525	8932.7
1331.47754	8030
1334.97747	7686.7
1338.47502	7867.3
1341.97022	8537.5
1345.46305	9853.4
1348.95352	11624.1
1352.44163	13759
1355.92738	16785.8
1359.41078	21333.2
1362.89183	24660.7
1366.37053	22363.6
1369.84688	16680.2
1373.32088	12417.3
1376.79254	10127.3
1380.26186	8853.9
1383.72883	8017.6
1387.19347	7381.5
1390.65578	6856.2
1394.11575	6437
1397.57339	6186.7
1401.0287	6057.6
1404.48168	5972.8
1407.93234	5921
1411.38068	5958.3
1414.82669	6125
1418.27039	6254.6
1421.71177	6301.3
1425.15083	6259
1428.58758	6297.3
1432.02203	6480.3
1435.45416	6537.7
1438.88399	6424.5
1442.31151	6344.3
1445.73673	6363.6
1449.15965	6397
1452.58027	6352.8
1455.9986	6258.6
1459.41463	6236.9
1462.82837	6319
1466.23982	6513.2
1469.64898	6744.7
1473.05586	6799.8
1476.46045	6794.6
1479.86276	6873.6
1483.26279	7134
1486.66054	7554.8
1490.05602	8188
1493.44922	9206.5
1496.84016	10917.6
1500.22882	13663.9
1503.61521	17640
1506.99934	21948.1
1510.38121	24842
1513.76081	24511.7
1517.13816	20910.7
1520.51324	16226.9
1523.88607	12449.3
1527.25665	10217.4
1530.62498	8998.1
1533.99105	8291.1
1537.35488	7849.4
1540.71647	7599.5
1544.07581	7599.8
1547.4329	7720.4
1550.78776	7920
1554.14038	8181.5
1557.49077	8432.1
1560.83892	8839.5
1564.18484	9450.2
1567.52853	10146.7
1570.86999	10635.3
1574.20922	10866.9
1577.54624	10602.8
1580.88103	9534.7
1584.2136	8271.2
1587.54395	7499.7
1590.87208	7285.6
1594.19801	7593.4
1597.52172	8061.7
1600.84321	8190.2
1604.16251	7933.5
1607.47959	7581.2
1610.79447	7239.2
1614.10715	6833.5
1617.41763	6469.3
1620.7259	6270.2
1624.03199	6210.2
1627.33587	6271.7
1630.63757	6469
1633.93707	6848.2
1637.23439	7529.5
1640.52951	8775.3
1643.82246	10827.3
1647.11321	13383.9
1650.40179	15011.2
1653.68819	14216.9
1656.97241	11702.2
1660.25446	9256.9
1663.53433	7646.9
1666.81203	6771.9
1670.08756	6245.1
1673.36092	5946.1
1676.63211	5747.4
1679.90115	5628.8
1683.16801	5556.2
1686.43272	5494.3
1689.69527	5461.9
1692.95567	5432
1696.2139	5440
1699.46999	5429.6
1702.72392	5413.8
1705.97571	5378.9
1709.22535	5358.9
1712.47284	5350.6
1715.71819	5348.9
1718.96139	5301.8
1722.20246	5296.4
1725.44139	5266.6
1728.67818	5214.9
1731.91284	5173.8
1735.14537	5142.7
1738.37576	5144.4
1741.60403	5137.7
1744.83017	5116.6
1748.05418	5112
1751.27607	5106
1754.49584	5123.3
1757.71349	5115.8
1760.92903	5113.2
1764.14244	5083.6
1767.35375	5052.9
1770.56294	5046.6
1773.77002	5036.1
1776.97499	5003.3
1780.17785	4982.3
1783.37861	4964.8
1786.57727	4931.9
1789.77382	4933.2
1792.96828	4936.5
1796.16064	4911.4
1799.3509	4922.6
1802.53907	4923.6
1805.72514	4908.3
1808.90913	4883.9
1812.09102	4864.3
1815.27083	4866.2
1818.44856	4841.8
1821.6242	4863.1
1824.79776	4863.6
1827.96924	4845.1
1831.13864	4829.2
1834.30597	4831.2
1837.47122	4821.5
1840.6344	4821.2
1843.7955	4816.6
1846.95454	4810.5
1850.11151	4797.6
1853.26642	4795.2
1856.41926	4824.4
1859.57004	4832.9
1862.71876	4802.2
1865.86542	4829.1
1869.01003	4830.5
1872.15258	4845.1
1875.29308	4845.5
1878.43152	4849.5
1881.56792	4836.5
1884.70227	4851.2
1887.83457	4858.5
1890.96482	4836.2
1894.09304	4827.5
1897.21921	4848.6
1900.34335	4834.4
1903.46544	4851.9
1906.58551	4864.6
1909.70353	4851.4
1912.81953	4854.8
1915.93349	4870.6
1919.04543	4847.6
1922.15534	4844.9
1925.26322	4837.8
1928.36908	4846.6
1931.47292	4819.3
1934.57473	4824.1
1937.67453	4828.4
1940.77232	4814.6
1943.86808	4780.6
1946.96184	4771.6
1950.05358	4757.4
1953.14331	4762.5
1956.23103	4752.6
1959.31675	4777.6
1962.40046	4750
1965.48217	4774.1
1968.56188	4779.5
1971.63959	4749.2
1974.7153	4733.8
1977.78901	4733.3
1980.86073	4714
1983.93046	4699.9
1986.99819	4690.4
1990.06394	4676.2
1993.1277	4659.3
1996.18947	4665.1
1999.24925	4671.7
2002.30706	4646.3
2005.36288	4625
2008.41672	4627.2
2011.46859	4612.6
2014.51848	4604.5
2017.56639	4594
2020.61233	4602.7
2023.6563	4580.9
2026.6983	4573.4
2029.73833	4558.9
2032.7764	4552.2
2035.8125	4556.6
2038.84664	4549.9
2041.87881	4552.5
2044.90903	4562.7
2047.93729	4567.2
2050.96359	4547.7
2053.98794	4530.2
2057.01034	4540.8
2060.03078	4546.9
2063.04927	4558.7
2066.06582	4548.1
2069.08042	4563.2
2072.09307	4562.1
2075.10378	4563.8
2078.11255	4563.5
2081.11938	4571
2084.12426	4575.4
2087.12722	4581.7
2090.12824	4595.4
2093.12732	4613.1
2096.12447	4628.3
2099.11969	4625.9
2102.11299	4633.9
2105.10435	4632.8
2108.09379	4623
2111.08131	4656.5
2114.0669	4658
2117.05057	4677.8
2120.03233	4707.7
2123.01216	4713
2125.99008	4740.7
2128.96609	4752.1
2131.94018	4737.8
2134.91236	4747.5
2137.88263	4757.2
2140.851	4766.4
2143.81746	4784.8
2146.78201	4788.9
2149.74466	4769.2
2152.7054	4777.2
2155.66425	4748.8
2158.6212	4768
2161.57625	4763.5
2164.52941	4780.5
2167.48067	4769.1
2170.43004	4773.7
2173.37752	4786.2
2176.32311	4802.8
2179.26681	4812.9
2182.20863	4826.2
2185.14856	4832.3
2188.08661	4826.1
2191.02278	4842.4
2193.95707	4833.6
2196.88948	4816.7
2199.82001	4833.3
2202.74867	4823.8
2205.67545	4854
2208.60037	4852.3
2211.52341	4847.4
2214.44458	4847
2217.36388	4841.1
2220.28132	4835.8
2223.1969	4816.9
2226.11061	4803.4
2229.02246	4788.7
2231.93245	4788.1
2234.84058	4813.8
2237.74686	4815.6
2240.65128	4823.1
2243.55385	4841.5
2246.45456	4832.4
2249.35343	4845.1
2252.25044	4853.8
2255.14561	4864.9
2258.03893	4886.1
2260.93041	4892.2
2263.82004	4875
2266.70783	4866
2269.59378	4870.3
2272.4779	4843.8
2275.36017	4841.9
2278.24061	4860.7
2281.11922	4851.4
2283.996	4840.1
2286.87094	4840.8
2289.74405	4812
2292.61534	4798.5
2295.4848	4818
2298.35243	4829.7
2301.21824	4808.5
2304.08223	4837.3
2306.94439	4850.3
2309.80474	4855.9
2312.66327	4855.9
2315.51999	4853
2318.37489	4846.5
2321.22797	4833
2324.07925	4831.4
2326.92871	4817.8
2329.77637	4836.4
2332.62222	4831
2335.46626	4833
2338.3085	4840.5
2341.14893	4840.1
2343.98756	4843.3
2346.8244	4860.3
2349.65943	4870.9
2352.49267	4860.1
2355.32411	4872.8
2358.15376	4889.1
2360.98161	4902.7
2363.80768	4919.4
2366.63195	4943.2
2369.45444	4938.2
2372.27514	4951.4
2375.09405	4931.2
2377.91118	4930.2
2380.72652	4923
2383.54009	4940.4
2386.35187	4922.3
2389.16188	4875.3
2391.97011	4868.7
2394.77657	4871.5
2397.58125	4867.2
2400.38416	4867.1
2403.18529	4846.1
2405.98466	4841.2
2408.78226	4812.7
2411.57809	4817.6
2414.37216	4822.9
2417.16446	4845.4
2419.955	4865.8
2422.74378	4863.6
2425.5308	4879.4
2428.31606	4859.6
2431.09956	4879.3
2433.88131	4881.6
2436.6613	4894.1
2439.43954	4879.8
2442.21603	4893.6
2444.99077	4881.5
2447.76377	4886.4
2450.53501	4884
2453.30451	4890.5
2456.07226	4905.9
2458.83827	4907.1
2461.60254	4894.1
2464.36507	4912.8
2467.12586	4903
2469.88492	4884.7
2472.64224	4922.1
2475.39782	4944.2
2478.15167	4951.2
2480.90379	4936.7
2483.65417	4957.5
2486.40283	4977.1
2489.14976	4992.3
2491.89497	5008.7
2494.63845	5023.1
2497.3802	5008.5
2500.12024	5011.7
2502.85855	4999.6
2505.59514	4974.5
2508.33002	4961
2511.06318	4943.9
2513.79462	4936.3
2516.52435	4909.6
2519.25237	4890.9
2521.97867	4891.3
2524.70327	4883.1
2527.42616	4877.5
2530.14734	4880.8
2532.86681	4897.2
2535.58458	4893
2538.30065	4908.7
2541.01501	4913.7
2543.72768	4923.2
2546.43864	4914.9
2549.14791	4908.3
2551.85548	4889
2554.56136	4887.2
2557.26554	4921.2
2559.96803	4906
2562.66883	4918.7
2565.36794	4899.9
2568.06536	4880.9
2570.7611	4870.6
2573.45514	4877.3
2576.14751	4863.2
2578.83819	4856
2581.52719	4855.8
2584.21451	4870.3
2586.90015	4851.8
2589.58411	4864.3
2592.2664	4857.3
2594.94701	4870
2597.62594	4871
2600.30321	4858.2
2602.9788	4865.5
2605.65273	4856.5
2608.32498	4866.4
2610.99557	4879.8
2613.66449	4875.6
2616.33175	4869.9
2618.99734	4866.2
2621.66128	4844
2624.32355	4840.9
2626.98416	4840.2
2629.64311	4836
2632.30041	4854.7
2634.95605	4834.1
2637.61004	4796.8
2640.26238	4819.7
2642.91306	4801.1
2645.56209	4795.1
2648.20948	4796.2
2650.85521	4817.1
2653.4993	4823
2656.14175	4835.1
2658.78255	4854.1
2661.42171	4858.7
2664.05923	4880.3
2666.6951	4888.2
2669.32934	4884.9
2671.96194	4903.3
2674.59291	4892.1
2677.22224	4907
2679.84993	4911.9
2682.476	4905.4
2685.10043	4900
2687.72324	4901.9
2690.34441	4898.1
2692.96396	4884.5
2695.58188	4924.5
2698.19818	4943.1
2700.81285	4930.5
2703.4259	4933.3
2706.03733	4935
2708.64714	4934
2711.25533	4936.3
2713.86191	4942.5
2716.46687	4952.9
2719.07021	4978.9
2721.67194	4963.9
2724.27206	4978.3
2726.87057	4991
2729.46747	4968.5
2732.06276	4968.6
2734.65644	4963.8
2737.24852	4956.7
2739.83899	4954.9
2742.42786	4973.5
2745.01513	4954.7
2747.60079	4949.7
2750.18486	4932.8
2752.76733	4945.4
2755.3482	4936.1
2757.92747	4925.5
2760.50515	4917.2
2763.08123	4924.9
2765.65573	4923.9
2768.22863	4920.8
2770.79994	4918.3
2773.36967	4919.5
2775.9378	4909.3
2778.50435	4920.4
2781.06932	4901
2783.6327	4912.1
2786.1945	4925.5
2788.75471	4924.5
2791.31335	4906.4
2793.87041	4932.9
2796.42589	4913
2798.97979	4940.6
2801.53212	4923.2
2804.08288	4911.4
2806.63206	4929.8
2809.17967	4909.2
2811.72571	4939
2814.27018	4938.4
2816.81308	4925.5
2819.35442	4926.7
2821.89419	4921.4
2824.43239	4936.2
2826.96904	4933.2
2829.50412	4959.3
2832.03763	4936.8
2834.56959	4928.8
2837.1	4917.4
2839.62884	4908.6
2842.15613	4915.4
2844.68186	4923.5
2847.20604	4936.9
2849.72867	4937.8
2852.24974	4931.6
2854.76927	4946
2857.28724	4974.8
2859.80367	4993.6
2862.31855	4966.9
2864.83189	4994.7
2867.34368	4978.4
2869.85393	5003.8
2872.36264	5008.3
2874.8698	5023.7
2877.37543	5010.4
2879.87952	5016.8
2882.38207	5017.8
2884.88308	5004.6
2887.38256	5020.2
2889.88051	5016.4
2892.37692	5003.9
2894.8718	5017.6
2897.36515	5048.3
2899.85698	5057
2902.34727	5069.6
2904.83604	5073.8
2907.32328	5081
2909.809	5088.9
2912.29319	5097
2914.77587	5111.7
2917.25702	5099.9
2919.73665	5100.3
2922.21476	5103.3
2924.69136	5072.5
2927.16644	5087.6
2929.64	5075.5
2932.11205	5068.7
2934.58258	5074.4
2937.05161	5088.5
2939.51912	5101
2941.98513	5102.5
2944.44962	5097
2946.91261	5098.7
2949.37409	5087.5
2951.83407	5101.5
2954.29254	5101.6
2956.74951	5098.7
2959.20498	5095.9
2961.65895	5095.2
2964.11142	5091.5
2966.56239	5071.8
2969.01186	5073.2
2971.45984	5071.5
2973.90632	5072.6
2976.35131	5059.5
2978.7948	5060.8
2981.23681	5068.5
2983.67732	5078.1
2986.11635	5056.7
2988.55388	5051.1
2990.98993	5056.1
2993.4245	5041.3
2995.85758	5050.1
2998.28917	5019.5
3000.71928	4996.2
3003.14791	5039.7
3005.57506	5027.2
3008.00073	5015.5
3010.42493	4976.3
3012.84764	5025.8
3015.26888	4994.4
3017.68865	5000.9
3020.10694	4985.6
3022.52376	4994.1
3024.9391	5009.5
3027.35298	4986.2
3029.76539	4977
3032.17632	4990.1
3034.5858	4975.2
3036.9938	4967.3
3039.40034	4967.1
3041.80542	4980.6
3044.20903	4986.7
3046.61118	4980.3
3049.01187	4971.3
3051.4111	4969
3053.80888	4984.7
3056.20519	4969.6
3058.60005	4976.1
3060.99345	4988.8
3063.3854	4988
3065.7759	4943.5
3068.16494	4931.4
3070.55254	4922
3072.93868	4908.8
3075.32338	4906.9
3077.70662	4902.1
3080.08842	4899.5
3082.46878	4899.3
3084.84769	4917.6
3087.22515	4916.7
3089.60118	4930.7
3091.97576	4909.5
3094.3489	4908.4
3096.72061	4941.1
3099.09087	4937.5
3101.4597	4969.8
3103.82709	4975.5
3106.19305	4987.5
3108.55757	4980.2
3110.92066	4980.2
3113.28232	5000.2
3115.64255	5003.6
3118.00134	5000.6
3120.35871	5007.1
3122.71466	4985.4
3125.06917	4966.9
3127.42226	4986.4
3129.77393	4994
3132.12417	5017.2
3134.47299	5015.8
3136.82039	5007
3139.16636	5013.2
3141.51092	5025.7
3143.85406	5025.7
3146.19579	5044
3148.53609	5078.2
3150.87499	5073.3
3153.21246	5081.9
3155.54853	5120
3157.88318	5088.6
3160.21642	5126.2
3162.54826	5135.4
3164.87868	5149.9
3167.2077	5163.7
3169.5353	5186.5
3171.86151	5198.3
3174.18631	5182.6
3176.5097	5188.4
3178.83169	5193.8
3181.15228	5178.1
3183.47147	5186.6
3185.78926	5169.3
3188.10565	5178.7
3190.42065	5207
3192.73424	5202
3195.04645	5186.7
3197.35725	5175.1
3199.66667	5193.3
3201.97469	5211.1
3204.28132	5226.6
3206.58656	5263.9
3208.8904	5281.2
3211.19287	5248.9
3213.49394	5263.6
3215.79363	5272.2
3218.09193	5290
3220.38884	5308.8
3222.68438	5332.8
3224.97853	5340.7
3227.2713	5341.2
3229.56269	5332.9
3231.8527	5338.8
3234.14133	5330.9
3236.42858	5350.7
3238.71446	5329.6
3240.99896	5347.4
3243.28209	5314.3
3245.56384	5304.8
3247.84423	5316
3250.12324	5297.3
3252.40088	5283.7
3254.67715	5293.6
3256.95205	5293.1
3259.22558	5306.7
3261.49775	5301.3
3263.76855	5309.5
3266.03799	5320.6
3268.30606	5308.8
3270.57277	5303.1
3272.83812	5303.4
3275.10211	5300.8
3277.36474	5306.4
3279.62601	5312.1
3281.88593	5294
3284.14448	5300.1
3286.40168	5287.7
3288.65753	5287.7
3290.91202	5281.9
3293.16516	5280.1
3295.41695	5254.9
3297.66738	5258.6
3299.91647	5233
3302.16421	5201.8
3304.4106	5204
3306.65564	5175.3
3308.89933	5109
3311.14169	5086.5
3313.38269	5055.5
3315.62236	5026.5
3317.86068	4981.7
3320.09766	4952.2
3322.3333	4906.5
3324.5676	4883.9
3326.80056	4818.8
3329.03219	4775.4
3331.26248	2.4
3333.49143	0.6
3335.71905	0.4
