Data from AgNPs_UA_50uM_CRN_500uM_AS_RamanShift__5__15-11-21-547.txt Node

Date: Wed Aug 17 15:11:21 BST 2022
User: TCL
Spectrometer: QEP01345
Trigger mode: 4
Integration Time (sec): 7.000000E0
Scans to average: 10
Electric dark correction enabled: true
Nonlinearity correction enabled: false
Boxcar width: 0
XAxis mode: Raman Shifts
Number of Pixels in Spectrum: 1044
>>>>>Begin Spectral Data<<<<<
46.04893	-1.525
50.45542	-0.225
54.85868	-0.825
59.25871	-0.425
63.6555	40.275
68.04907	40.675
72.43941	43.875
76.82654	45.775
81.21044	49.475
85.59113	52.675
89.96862	52.375
94.34289	61.075
98.71396	59.275
103.08183	62.375
107.4465	61.675
111.80798	61.575
116.16626	64.075
120.52136	61.675
124.87327	62.675
129.222	64.575
133.56755	65.075
137.90993	69.475
142.24913	74.275
146.58517	80.275
150.91804	85.675
155.24774	94.175
159.57429	106.475
163.89768	128.975
168.21792	168.175
172.53501	213.875
176.84895	297.775
181.15975	403.275
185.46741	565.375
189.77193	775.275
194.07331	1030.975
198.37157	1328.275
202.6667	1644.675
206.9587	1970.475
211.24758	2303.475
215.53334	2671.975
219.81599	3075.375
224.09553	3529.375
228.37195	4060.975
232.64527	4592.875
236.91549	5089.875
241.18261	5501.675
245.44663	5797.575
249.70755	5956.375
253.96539	6061.775
258.22014	6130.475
262.4718	6173.675
266.72039	6196.175
270.96589	6138.775
275.20832	5991.475
279.44768	5789.775
283.68397	5618.075
287.91719	5507.275
292.14735	5516.375
296.37445	5679.875
300.59849	6006.975
304.81948	6417.775
309.03742	6775.875
313.25231	6953.275
317.46415	6792.575
321.67296	6335.075
325.87872	5893.675
330.08145	5629.575
334.28114	5588.875
338.47781	5660.075
342.67145	5813.375
346.86207	6050.675
351.04966	6414.775
355.23424	6815.275
359.4158	7098.175
363.59435	7166.975
367.76989	7099.375
371.94243	6985.375
376.11196	6858.275
380.27849	6747.175
384.44203	6653.575
388.60257	6577.175
392.76012	6573.675
396.91468	6617.075
401.06626	6756.375
405.21485	6749.675
409.36047	6527.875
413.50311	6067.075
417.64277	5674.275
421.77947	5448.275
425.9132	5378.875
430.04396	5408.975
434.17176	5459.675
438.2966	5603.775
442.41849	5830.575
446.53742	6109.275
450.6534	6315.975
454.76644	6367.675
458.87653	6287.675
462.98368	6116.775
467.08789	5963.575
471.18916	5759.075
475.2875	5522.575
479.38291	5316.875
483.4754	5171.475
487.56496	5084.775
491.6516	5035.275
495.73531	5033.275
499.81612	5069.575
503.89401	5134.575
507.96899	5195.475
512.04106	5301.375
516.11023	5360.775
520.1765	5473.375
524.23987	5505.275
528.30034	5514.375
532.35792	5475.775
536.41261	5376.575
540.46441	5209.475
544.51333	5121.975
548.55936	5145.975
552.60252	5301.175
556.64279	5509.075
560.6802	5620.275
564.71473	5751.875
568.7464	5979.475
572.7752	6044.975
576.80114	5778.175
580.82422	5555.275
584.84444	5593.375
588.86181	5864.575
592.87633	6345.175
596.888	6721.175
600.89682	6889.275
604.9028	7660.575
608.90594	10191.175
612.90624	13072.375
616.90371	11696.575
620.89834	7538.575
624.89015	5732.375
628.87913	5486.775
632.86528	5700.175
636.84862	5921.275
640.82913	5706.975
644.80683	5281.275
648.78172	5041.775
652.75379	5055.975
656.72306	5375.475
660.68952	5651.375
664.65319	5383.675
668.61405	4949.575
672.57211	4809.575
676.52738	4871.175
680.47986	4900.375
684.42955	4800.375
688.37646	4715.675
692.32058	4697.975
696.26192	4753.475
700.20048	4848.075
704.13626	4903.775
708.06928	4856.775
711.99952	4816.775
715.927	4829.675
719.85171	4908.975
723.77365	4963.775
727.69284	4931.075
731.60928	4901.375
735.52295	4916.575
739.43388	4933.975
743.34206	4961.175
747.24749	4947.475
751.15017	4941.875
755.05012	5071.075
758.94733	5543.175
762.8418	6697.075
766.73354	8417.375
770.62254	9788.675
774.50882	10153.275
778.39237	9419.375
782.27321	7859.975
786.15132	6363.275
790.02671	5460.775
793.89938	5033.375
797.76935	4844.475
801.6366	4745.675
805.50115	4673.875
809.36299	4620.975
813.22213	4585.275
817.07857	4572.475
820.93231	4561.975
824.78336	4575.575
828.63172	4611.475
832.47738	4618.975
836.32036	4573.175
840.16066	4522.775
843.99827	4480.875
847.8332	4482.675
851.66546	4495.375
855.49504	4530.875
859.32195	4522.175
863.1462	4516.975
866.96777	4496.475
870.78668	4492.875
874.60293	4524.975
878.41652	4564.775
882.22745	4631.575
886.03573	4672.275
889.84136	4668.475
893.64433	4649.075
897.44466	4644.975
901.24235	4614.075
905.0374	4589.675
908.8298	4518.375
912.61957	4482.475
916.40671	4457.975
920.19121	4506.375
923.97308	4593.875
927.75233	4692.875
931.52895	4773.875
935.30295	4640.275
939.07433	4433.275
942.84309	4272.775
946.60924	4185.575
950.37278	4158.875
954.13371	4142.175
957.89203	4135.275
961.64774	4115.375
965.40086	4121.875
969.15137	4101.675
972.89929	4111.175
976.64461	4061.775
980.38733	4073.775
984.12747	4074.975
987.86502	4103.775
991.59999	4145.775
995.33237	4225.575
999.06217	4334.575
1002.78939	4490.775
1006.51404	4646.475
1010.23611	4783.875
1013.95561	4816.975
1017.67255	4788.575
1021.38692	4667.175
1025.09872	4516.675
1028.80796	4377.975
1032.51465	4352.475
1036.21877	4363.175
1039.92035	4409.775
1043.61937	4455.175
1047.31584	4493.675
1051.00976	4480.475
1054.70114	4478.975
1058.38998	4474.375
1062.07627	4465.075
1065.76003	4468.275
1069.44126	4506.075
1073.11995	4566.775
1076.79611	4733.375
1080.46974	4946.675
1084.14085	5199.175
1087.80943	5395.975
1091.47549	5415.575
1095.13903	5239.475
1098.80005	5000.675
1102.45857	4819.875
1106.11456	4810.775
1109.76805	4925.175
1113.41903	5133.475
1117.06751	5488.575
1120.71348	5910.375
1124.35696	6461.975
1127.99793	6762.175
1131.63641	6529.175
1135.2724	5987.475
1138.90589	5585.075
1142.5369	5335.075
1146.16542	5143.875
1149.79145	5048.875
1153.415	5044.575
1157.03607	5090.775
1160.65467	5256.975
1164.27079	5559.575
1167.88443	6034.175
1171.49561	6806.575
1175.10432	7980.975
1178.71056	9544.575
1182.31434	10878.775
1185.91565	11183.175
1189.51451	10648.475
1193.11091	9809.975
1196.70485	8981.575
1200.29634	8267.275
1203.88538	7570.375
1207.47197	6828.375
1211.05612	6210.975
1214.63782	5850.775
1218.21708	5738.975
1221.79391	5752.575
1225.36829	5818.675
1228.94024	5805.075
1232.50976	5694.175
1236.07685	5571.575
1239.6415	5517.975
1243.20374	5535.875
1246.76355	5567.575
1250.32093	5633.975
1253.8759	5743.475
1257.42845	5994.475
1260.97859	6317.675
1264.52631	6701.175
1268.07163	7019.575
1271.61453	7261.175
1275.15503	7388.775
1278.69312	7494.675
1282.22882	7652.975
1285.76211	8077.875
1289.29301	8632.575
1292.82151	9169.075
1296.34761	9799.975
1299.87133	10724.975
1303.39266	12191.575
1306.9116	14191.875
1310.42815	15974.775
1313.94233	16300.075
1317.45412	15026.775
1320.96354	13186.475
1324.47058	11369.975
1327.97525	9913.075
1331.47754	8990.575
1334.97747	8631.575
1338.47502	8722.475
1341.97022	9216.475
1345.46305	10095.575
1348.95352	11370.375
1352.44163	12942.375
1355.92738	15106.975
1359.41078	18181.275
1362.89183	20507.175
1366.37053	19150.575
1369.84688	15105.375
1373.32088	11594.475
1376.79254	9718.575
1380.26186	8810.075
1383.72883	8165.075
1387.19347	7535.975
1390.65578	7031.275
1394.11575	6735.075
1397.57339	6592.075
1401.0287	6536.875
1404.48168	6490.975
1407.93234	6481.575
1411.38068	6450.175
1414.82669	6516.875
1418.27039	6549.875
1421.71177	6434.075
1425.15083	6260.575
1428.58758	6262.675
1432.02203	6419.775
1435.45416	6543.175
1438.88399	6587.875
1442.31151	6550.775
1445.73673	6569.075
1449.15965	6548.375
1452.58027	6446.975
1455.9986	6312.075
1459.41463	6289.275
1462.82837	6425.675
1466.23982	6678.975
1469.64898	6957.075
1473.05586	7154.175
1476.46045	7291.975
1479.86276	7464.175
1483.26279	7712.375
1486.66054	8111.375
1490.05602	8691.475
1493.44922	9558.475
1496.84016	10791.975
1500.22882	12636.775
1503.61521	15073.175
1506.99934	17446.575
1510.38121	18782.175
1513.76081	18148.275
1517.13816	15761.875
1520.51324	12908.375
1523.88607	10634.675
1527.25665	9338.875
1530.62498	8685.575
1533.99105	8277.775
1537.35488	7932.475
1540.71647	7641.175
1544.07581	7381.975
1547.4329	7200.875
1550.78776	7067.275
1554.14038	7008.075
1557.49077	7026.175
1560.83892	7251.575
1564.18484	7754.275
1567.52853	8398.975
1570.86999	8966.375
1574.20922	9201.175
1577.54624	8999.475
1580.88103	8204.275
1584.2136	7319.375
1587.54395	6876.375
1590.87208	6962.775
1594.19801	7567.375
1597.52172	8259.375
1600.84321	8481.475
1604.16251	8086.775
1607.47959	7369.175
1610.79447	6648.675
1614.10715	6013.175
1617.41763	5491.275
1620.7259	5211.475
1624.03199	5080.075
1627.33587	5161.675
1630.63757	5391.275
1633.93707	5910.975
1637.23439	6835.175
1640.52951	8316.575
1643.82246	10359.175
1647.11321	12306.575
1650.40179	13072.775
1653.68819	11968.775
1656.97241	9648.475
1660.25446	7460.775
1663.53433	5981.575
1666.81203	5137.075
1670.08756	4653.775
1673.36092	4360.075
1676.63211	4165.875
1679.90115	4026.775
1683.16801	3915.775
1686.43272	3858.975
1689.69527	3790.975
1692.95567	3751.875
1696.2139	3715.275
1699.46999	3700.975
1702.72392	3661.675
1705.97571	3627.175
1709.22535	3609.275
1712.47284	3611.875
1715.71819	3584.675
1718.96139	3562.775
1722.20246	3535.275
1725.44139	3481.975
1728.67818	3447.975
1731.91284	3413.875
1735.14537	3373.575
1738.37576	3359.875
1741.60403	3336.975
1744.83017	3326.875
1748.05418	3309.375
1751.27607	3311.775
1754.49584	3310.375
1757.71349	3291.475
1760.92903	3275.275
1764.14244	3253.775
1767.35375	3253.675
1770.56294	3224.675
1773.77002	3181.375
1776.97499	3150.575
1780.17785	3118.075
1783.37861	3110.675
1786.57727	3098.975
1789.77382	3067.475
1792.96828	3061.275
1796.16064	3037.675
1799.3509	3037.175
1802.53907	3031.875
1805.72514	3006.775
1808.90913	2991.675
1812.09102	2963.775
1815.27083	2959.775
1818.44856	2949.175
1821.6242	2949.575
1824.79776	2934.675
1827.96924	2922.675
1831.13864	2910.275
1834.30597	2905.475
1837.47122	2887.475
1840.6344	2870.375
1843.7955	2873.975
1846.95454	2873.175
1850.11151	2860.175
1853.26642	2866.575
1856.41926	2864.475
1859.57004	2847.775
1862.71876	2848.375
1865.86542	2857.375
1869.01003	2851.175
1872.15258	2850.575
1875.29308	2856.775
1878.43152	2847.475
1881.56792	2833.875
1884.70227	2837.175
1887.83457	2828.975
1890.96482	2833.775
1894.09304	2824.475
1897.21921	2817.775
1900.34335	2815.475
1903.46544	2820.275
1906.58551	2818.975
1909.70353	2812.775
1912.81953	2807.875
1915.93349	2794.075
1919.04543	2770.075
1922.15534	2778.475
1925.26322	2766.575
1928.36908	2762.275
1931.47292	2752.775
1934.57473	2736.875
1937.67453	2724.875
1940.77232	2705.375
1943.86808	2698.475
1946.96184	2687.675
1950.05358	2679.775
1953.14331	2666.475
1956.23103	2661.875
1959.31675	2654.675
1962.40046	2648.875
1965.48217	2655.375
1968.56188	2645.175
1971.63959	2640.275
1974.7153	2622.275
1977.78901	2624.275
1980.86073	2618.375
1983.93046	2583.775
1986.99819	2576.275
1990.06394	2574.175
1993.1277	2551.175
1996.18947	2535.975
1999.24925	2537.375
2002.30706	2522.175
2005.36288	2503.175
2008.41672	2499.975
2011.46859	2489.975
2014.51848	2484.775
2017.56639	2477.575
2020.61233	2475.575
2023.6563	2471.875
2026.6983	2449.775
2029.73833	2454.175
2032.7764	2450.275
2035.8125	2429.375
2038.84664	2431.475
2041.87881	2428.875
2044.90903	2414.975
2047.93729	2415.975
2050.96359	2414.175
2053.98794	2408.575
2057.01034	2395.675
2060.03078	2404.275
2063.04927	2390.675
2066.06582	2395.475
2069.08042	2399.675
2072.09307	2384.375
2075.10378	2385.075
2078.11255	2382.275
2081.11938	2390.875
2084.12426	2381.675
2087.12722	2375.175
2090.12824	2380.375
2093.12732	2389.575
2096.12447	2379.175
2099.11969	2385.575
2102.11299	2383.175
2105.10435	2382.575
2108.09379	2371.075
2111.08131	2377.175
2114.0669	2385.375
2117.05057	2390.275
2120.03233	2383.075
2123.01216	2398.075
2125.99008	2402.575
2128.96609	2395.375
2131.94018	2400.675
2134.91236	2388.175
2137.88263	2396.075
2140.851	2385.675
2143.81746	2381.175
2146.78201	2380.775
2149.74466	2367.575
2152.7054	2360.675
2155.66425	2350.975
2158.6212	2337.675
2161.57625	2343.575
2164.52941	2348.075
2167.48067	2338.775
2170.43004	2333.675
2173.37752	2333.475
2176.32311	2331.475
2179.26681	2332.275
2182.20863	2345.275
2185.14856	2351.175
2188.08661	2337.675
2191.02278	2330.975
2193.95707	2336.075
2196.88948	2325.675
2199.82001	2315.675
2202.74867	2322.675
2205.67545	2330.175
2208.60037	2314.975
2211.52341	2313.175
2214.44458	2306.875
2217.36388	2282.275
2220.28132	2281.275
2223.1969	2276.075
2226.11061	2281.775
2229.02246	2269.875
2231.93245	2255.675
2234.84058	2265.175
2237.74686	2251.175
2240.65128	2259.375
2243.55385	2258.675
2246.45456	2259.775
2249.35343	2253.675
2252.25044	2262.475
2255.14561	2258.975
2258.03893	2271.875
2260.93041	2266.175
2263.82004	2267.375
2266.70783	2245.475
2269.59378	2243.675
2272.4779	2227.475
2275.36017	2218.275
2278.24061	2226.175
2281.11922	2209.975
2283.996	2215.675
2286.87094	2192.475
2289.74405	2188.575
2292.61534	2187.475
2295.4848	2172.475
2298.35243	2180.175
2301.21824	2167.975
2304.08223	2169.575
2306.94439	2166.475
2309.80474	2161.775
2312.66327	2169.175
2315.51999	2160.075
2318.37489	2172.775
2321.22797	2154.075
2324.07925	2152.975
2326.92871	2153.375
2329.77637	2144.875
2332.62222	2142.275
2335.46626	2144.275
2338.3085	2133.975
2341.14893	2140.375
2343.98756	2139.775
2346.8244	2140.675
2349.65943	2154.575
2352.49267	2149.175
2355.32411	2143.475
2358.15376	2160.875
2360.98161	2166.475
2363.80768	2174.775
2366.63195	2181.875
2369.45444	2172.175
2372.27514	2170.375
2375.09405	2172.775
2377.91118	2171.075
2380.72652	2171.275
2383.54009	2159.875
2386.35187	2138.375
2389.16188	2124.675
2391.97011	2110.775
2394.77657	2104.375
2397.58125	2103.575
2400.38416	2091.575
2403.18529	2081.675
2405.98466	2087.875
2408.78226	2079.575
2411.57809	2073.975
2414.37216	2067.875
2417.16446	2069.975
2419.955	2068.875
2422.74378	2068.375
2425.5308	2058.475
2428.31606	2065.275
2431.09956	2072.375
2433.88131	2060.275
2436.6613	2068.375
2439.43954	2072.175
2442.21603	2065.475
2444.99077	2065.575
2447.76377	2067.475
2450.53501	2070.075
2453.30451	2059.875
2456.07226	2070.575
2458.83827	2065.575
2461.60254	2074.275
2464.36507	2065.875
2467.12586	2060.475
2469.88492	2069.675
2472.64224	2069.875
2475.39782	2087.675
2478.15167	2079.475
2480.90379	2087.675
2483.65417	2094.075
2486.40283	2111.275
2489.14976	2114.475
2491.89497	2118.975
2494.63845	2125.475
2497.3802	2115.475
2500.12024	2120.675
2502.85855	2105.075
2505.59514	2093.975
2508.33002	2078.975
2511.06318	2064.575
2513.79462	2054.875
2516.52435	2032.875
2519.25237	2026.075
2521.97867	2015.075
2524.70327	2005.975
2527.42616	1996.375
2530.14734	1987.575
2532.86681	2005.875
2535.58458	1999.975
2538.30065	2002.875
2541.01501	2013.375
2543.72768	2003.775
2546.43864	2016.275
2549.14791	2014.975
2551.85548	2002.875
2554.56136	2005.775
2557.26554	1989.975
2559.96803	1990.075
2562.66883	1995.775
2565.36794	1996.875
2568.06536	1995.575
2570.7611	1982.175
2573.45514	1977.875
2576.14751	1974.175
2578.83819	1974.175
2581.52719	1959.375
2584.21451	1968.275
2586.90015	1965.275
2589.58411	1961.575
2592.2664	1970.275
2594.94701	1953.975
2597.62594	1955.775
2600.30321	1954.175
2602.9788	1956.375
2605.65273	1958.175
2608.32498	1960.475
2610.99557	1954.175
2613.66449	1950.475
2616.33175	1961.175
2618.99734	1951.475
2621.66128	1945.375
2624.32355	1949.175
2626.98416	1941.575
2629.64311	1936.875
2632.30041	1937.775
2634.95605	1925.375
2637.61004	1926.075
2640.26238	1929.475
2642.91306	1916.475
2645.56209	1907.275
2648.20948	1904.475
2650.85521	1903.775
2653.4993	1919.575
2656.14175	1918.575
2658.78255	1924.875
2661.42171	1926.975
2664.05923	1931.775
2666.6951	1934.375
2669.32934	1936.575
2671.96194	1933.975
2674.59291	1947.175
2677.22224	1942.075
2679.84993	1927.275
2682.476	1938.375
2685.10043	1931.575
2687.72324	1921.575
2690.34441	1926.175
2692.96396	1930.775
2695.58188	1923.475
2698.19818	1916.875
2700.81285	1917.975
2703.4259	1915.175
2706.03733	1938.575
2708.64714	1928.775
2711.25533	1929.575
2713.86191	1932.475
2716.46687	1937.175
2719.07021	1939.475
2721.67194	1938.175
2724.27206	1935.975
2726.87057	1943.875
2729.46747	1940.675
2732.06276	1936.775
2734.65644	1939.675
2737.24852	1934.175
2739.83899	1922.575
2742.42786	1921.175
2745.01513	1911.075
2747.60079	1901.875
2750.18486	1898.675
2752.76733	1906.475
2755.3482	1907.475
2757.92747	1895.975
2760.50515	1899.975
2763.08123	1897.175
2765.65573	1887.775
2768.22863	1898.075
2770.79994	1887.775
2773.36967	1879.075
2775.9378	1881.675
2778.50435	1890.375
2781.06932	1881.075
2783.6327	1886.475
2786.1945	1887.375
2788.75471	1892.775
2791.31335	1882.275
2793.87041	1884.175
2796.42589	1888.575
2798.97979	1890.675
2801.53212	1888.175
2804.08288	1894.675
2806.63206	1891.475
2809.17967	1906.975
2811.72571	1904.375
2814.27018	1911.175
2816.81308	1900.675
2819.35442	1912.775
2821.89419	1904.875
2824.43239	1919.975
2826.96904	1920.875
2829.50412	1924.675
2832.03763	1919.875
2834.56959	1914.775
2837.1	1909.875
2839.62884	1915.375
2842.15613	1919.675
2844.68186	1934.175
2847.20604	1939.275
2849.72867	1947.875
2852.24974	1958.475
2854.76927	1958.675
2857.28724	1974.075
2859.80367	1985.975
2862.31855	1991.275
2864.83189	1998.575
2867.34368	2013.475
2869.85393	2032.175
2872.36264	2033.675
2874.8698	2042.875
2877.37543	2053.275
2879.87952	2040.575
2882.38207	2044.775
2884.88308	2046.375
2887.38256	2060.475
2889.88051	2055.275
2892.37692	2065.075
2894.8718	2076.175
2897.36515	2086.975
2899.85698	2097.775
2902.34727	2101.775
2904.83604	2115.675
2907.32328	2119.975
2909.809	2117.175
2912.29319	2124.475
2914.77587	2146.575
2917.25702	2139.475
2919.73665	2134.675
2922.21476	2149.175
2924.69136	2139.475
2927.16644	2130.375
2929.64	2135.575
2932.11205	2132.275
2934.58258	2116.075
2937.05161	2119.475
2939.51912	2114.075
2941.98513	2100.575
2944.44962	2098.775
2946.91261	2098.275
2949.37409	2076.275
2951.83407	2070.975
2954.29254	2059.975
2956.74951	2047.275
2959.20498	2037.975
2961.65895	2025.975
2964.11142	2008.975
2966.56239	2006.575
2969.01186	1988.375
2971.45984	1971.375
2973.90632	1956.275
2976.35131	1943.975
2978.7948	1938.075
2981.23681	1936.975
2983.67732	1927.875
2986.11635	1915.475
2988.55388	1908.475
2990.98993	1885.075
2993.4245	1891.875
2995.85758	1885.175
2998.28917	1887.175
3000.71928	1872.175
3003.14791	1870.275
3005.57506	1875.575
3008.00073	1873.675
3010.42493	1832.775
3012.84764	1855.675
3015.26888	1855.675
3017.68865	1848.375
3020.10694	1842.575
3022.52376	1838.275
3024.9391	1833.775
3027.35298	1836.275
3029.76539	1830.775
3032.17632	1817.975
3034.5858	1807.775
3036.9938	1800.875
3039.40034	1806.175
3041.80542	1817.375
3044.20903	1808.975
3046.61118	1811.275
3049.01187	1810.375
3051.4111	1808.575
3053.80888	1803.375
3056.20519	1808.475
3058.60005	1804.875
3060.99345	1820.375
3063.3854	1798.475
3065.7759	1807.975
3068.16494	1807.875
3070.55254	1793.675
3072.93868	1785.475
3075.32338	1780.975
3077.70662	1774.375
3080.08842	1776.575
3082.46878	1769.275
3084.84769	1786.175
3087.22515	1789.075
3089.60118	1790.775
3091.97576	1793.775
3094.3489	1793.575
3096.72061	1791.675
3099.09087	1799.175
3101.4597	1809.875
3103.82709	1814.375
3106.19305	1817.575
3108.55757	1822.975
3110.92066	1820.475
3113.28232	1825.475
3115.64255	1832.075
3118.00134	1832.475
3120.35871	1822.475
3122.71466	1822.775
3125.06917	1825.675
3127.42226	1836.875
3129.77393	1845.775
3132.12417	1842.775
3134.47299	1840.375
3136.82039	1861.975
3139.16636	1847.075
3141.51092	1858.875
3143.85406	1871.775
3146.19579	1871.275
3148.53609	1873.475
3150.87499	1884.475
3153.21246	1894.475
3155.54853	1900.975
3157.88318	1907.175
3160.21642	1919.475
3162.54826	1914.675
3164.87868	1933.875
3167.2077	1929.475
3169.5353	1941.575
3171.86151	1950.575
3174.18631	1955.375
3176.5097	1953.375
3178.83169	1959.675
3181.15228	1962.975
3183.47147	1961.175
3185.78926	1972.775
3188.10565	1969.175
3190.42065	1959.775
3192.73424	1976.275
3195.04645	1974.375
3197.35725	1980.375
3199.66667	1976.075
3201.97469	1989.875
3204.28132	1989.275
3206.58656	2015.175
3208.8904	2010.375
3211.19287	2023.275
3213.49394	2022.175
3215.79363	2024.575
3218.09193	2032.375
3220.38884	2038.375
3222.68438	2044.975
3224.97853	2035.175
3227.2713	2060.075
3229.56269	2052.975
3231.8527	2055.475
3234.14133	2050.975
3236.42858	2048.075
