Data from AgNPs_UA_5uM_CRN_500uM_AS_RamanShift__19__13-19-43-841.txt Node

Date: Wed Aug 17 13:19:43 BST 2022
User: TCL
Spectrometer: QEP01345
Trigger mode: 4
Integration Time (sec): 7.000000E0
Scans to average: 10
Electric dark correction enabled: true
Nonlinearity correction enabled: false
Boxcar width: 0
XAxis mode: Raman Shifts
Number of Pixels in Spectrum: 1044
>>>>>Begin Spectral Data<<<<<
46.04893	0.2125
50.45542	-0.3875
54.85868	-0.3875
59.25871	0.8125
63.6555	39.0125
68.04907	45.0125
72.43941	52.8125
76.82654	50.5125
81.21044	58.9125
85.59113	60.9125
89.96862	67.4125
94.34289	66.3125
98.71396	72.8125
103.08183	69.0125
107.4465	72.2125
111.80798	70.7125
116.16626	70.6125
120.52136	72.4125
124.87327	68.9125
129.222	70.8125
133.56755	70.4125
137.90993	69.3125
142.24913	70.9125
146.58517	72.2125
150.91804	75.1125
155.24774	76.2125
159.57429	82.5125
163.89768	95.1125
168.21792	108.0125
172.53501	132.7125
176.84895	167.2125
181.15975	208.7125
185.46741	279.0125
189.77193	382.1125
194.07331	512.2125
198.37157	685.5125
202.6667	863.1125
206.9587	1064.2125
211.24758	1273.6125
215.53334	1488.3125
219.81599	1699.7125
224.09553	1901.5125
228.37195	2097.2125
232.64527	2262.9125
236.91549	2416.6125
241.18261	2525.7125
245.44663	2591.6125
249.70755	2615.0125
253.96539	2615.2125
258.22014	2577.0125
262.4718	2531.6125
266.72039	2456.0125
270.96589	2367.9125
275.20832	2269.8125
279.44768	2171.1125
283.68397	2059.7125
287.91719	1999.0125
292.14735	1940.5125
296.37445	1911.8125
300.59849	1941.8125
304.81948	1977.9125
309.03742	2009.0125
313.25231	2000.9125
317.46415	1929.3125
321.67296	1837.3125
325.87872	1754.1125
330.08145	1700.9125
334.28114	1714.8125
338.47781	1743.9125
342.67145	1786.0125
346.86207	1846.1125
351.04966	1916.3125
355.23424	1987.8125
359.4158	2051.9125
363.59435	2069.1125
367.76989	2052.0125
371.94243	2038.5125
376.11196	2022.9125
380.27849	2004.8125
384.44203	1988.2125
388.60257	1970.2125
392.76012	1966.0125
396.91468	1972.3125
401.06626	1989.0125
405.21485	2013.1125
409.36047	1988.5125
413.50311	1920.1125
417.64277	1870.0125
421.77947	1837.4125
425.9132	1828.4125
430.04396	1852.5125
434.17176	1857.7125
438.2966	1901.6125
442.41849	1942.9125
446.53742	1990.6125
450.6534	2017.4125
454.76644	2045.7125
458.87653	2057.9125
462.98368	2062.6125
467.08789	2037.2125
471.18916	2008.0125
475.2875	1973.8125
479.38291	1952.4125
483.4754	1943.6125
487.56496	1922.2125
491.6516	1903.6125
495.73531	1921.9125
499.81612	1925.1125
503.89401	1931.9125
507.96899	1938.7125
512.04106	1939.4125
516.11023	1951.6125
520.1765	1962.0125
524.23987	1963.4125
528.30034	1939.9125
532.35792	1929.2125
536.41261	1912.7125
540.46441	1879.4125
544.51333	1873.9125
548.55936	1892.5125
552.60252	1894.8125
556.64279	1923.9125
560.6802	1951.6125
564.71473	1995.1125
568.7464	2077.6125
572.7752	2110.0125
576.80114	2054.5125
580.82422	1993.9125
584.84444	1956.3125
588.86181	1924.2125
592.87633	1936.0125
596.888	1959.6125
600.89682	2029.1125
604.9028	2209.9125
608.90594	2624.9125
612.90624	3108.6125
616.90371	2969.3125
620.89834	2363.7125
624.89015	2098.3125
628.87913	2080.2125
632.86528	2115.3125
636.84862	2181.3125
640.82913	2206.7125
644.80683	2222.2125
648.78172	2222.7125
652.75379	2240.9125
656.72306	2281.8125
660.68952	2316.2125
664.65319	2321.8125
668.61405	2375.9125
672.57211	2562.7125
676.52738	2857.8125
680.47986	3087.6125
684.42955	3113.3125
688.37646	2932.4125
692.32058	2680.5125
696.26192	2523.1125
700.20048	2440.0125
704.13626	2390.3125
708.06928	2326.0125
711.99952	2258.0125
715.927	2186.0125
719.85171	2171.1125
723.77365	2178.6125
727.69284	2198.1125
731.60928	2207.1125
735.52295	2174.7125
739.43388	2133.2125
743.34206	2134.0125
747.24749	2154.5125
751.15017	2190.4125
755.05012	2253.4125
758.94733	2310.4125
762.8418	2439.0125
766.73354	2615.7125
770.62254	2749.7125
774.50882	2781.1125
778.39237	2668.7125
782.27321	2439.5125
786.15132	2221.6125
790.02671	2073.0125
793.89938	2019.4125
797.76935	2010.0125
801.6366	2003.8125
805.50115	2008.1125
809.36299	2014.9125
813.22213	1981.0125
817.07857	1959.6125
820.93231	1950.7125
824.78336	1944.4125
828.63172	1950.4125
832.47738	1952.9125
836.32036	1942.3125
840.16066	1942.0125
843.99827	1922.8125
847.8332	1929.4125
851.66546	1941.9125
855.49504	1968.4125
859.32195	2011.1125
863.1462	2041.9125
866.96777	2070.9125
870.78668	2058.3125
874.60293	2044.3125
878.41652	2030.8125
882.22745	2025.8125
886.03573	2003.6125
889.84136	1985.7125
893.64433	1983.4125
897.44466	1968.2125
901.24235	1964.7125
905.0374	1956.4125
908.8298	1947.8125
912.61957	1929.2125
916.40671	1940.3125
920.19121	1971.4125
923.97308	2029.0125
927.75233	2075.3125
931.52895	2135.7125
935.30295	2132.7125
939.07433	2083.2125
942.84309	2022.4125
946.60924	1971.7125
950.37278	1924.9125
954.13371	1896.3125
957.89203	1899.3125
961.64774	1912.5125
965.40086	1906.3125
969.15137	1893.7125
972.89929	1884.3125
976.64461	1867.8125
980.38733	1854.9125
984.12747	1840.3125
987.86502	1850.5125
991.59999	1839.4125
995.33237	1833.8125
999.06217	1837.1125
1002.78939	1859.1125
1006.51404	1880.5125
1010.23611	1893.6125
1013.95561	1903.8125
1017.67255	1898.9125
1021.38692	1891.4125
1025.09872	1891.5125
1028.80796	1880.9125
1032.51465	1903.8125
1036.21877	1935.3125
1039.92035	1956.4125
1043.61937	1992.3125
1047.31584	2024.3125
1051.00976	2041.2125
1054.70114	2031.5125
1058.38998	2006.0125
1062.07627	1981.3125
1065.76003	1945.8125
1069.44126	1929.5125
1073.11995	1906.1125
1076.79611	1911.4125
1080.46974	1912.1125
1084.14085	1946.8125
1087.80943	1965.1125
1091.47549	1980.3125
1095.13903	1952.1125
1098.80005	1919.7125
1102.45857	1897.4125
1106.11456	1890.9125
1109.76805	1914.7125
1113.41903	1950.7125
1117.06751	2003.3125
1120.71348	2063.7125
1124.35696	2125.4125
1127.99793	2196.8125
1131.63641	2164.1125
1135.2724	2087.6125
1138.90589	2022.7125
1142.5369	1973.8125
1146.16542	1955.6125
1149.79145	1914.3125
1153.415	1906.5125
1157.03607	1892.5125
1160.65467	1901.6125
1164.27079	1930.9125
1167.88443	1973.2125
1171.49561	2024.8125
1175.10432	2159.9125
1178.71056	2342.5125
1182.31434	2508.6125
1185.91565	2527.8125
1189.51451	2447.9125
1193.11091	2329.7125
1196.70485	2226.0125
1200.29634	2153.2125
1203.88538	2109.7125
1207.47197	2023.5125
1211.05612	1961.7125
1214.63782	1926.1125
1218.21708	1909.8125
1221.79391	1918.2125
1225.36829	1923.6125
1228.94024	1924.8125
1232.50976	1940.3125
1236.07685	1946.9125
1239.6415	1967.5125
1243.20374	2001.1125
1246.76355	2010.1125
1250.32093	2040.1125
1253.8759	2051.4125
1257.42845	2082.4125
1260.97859	2107.7125
1264.52631	2124.0125
1268.07163	2133.4125
1271.61453	2152.2125
1275.15503	2139.7125
1278.69312	2125.2125
1282.22882	2123.3125
1285.76211	2146.6125
1289.29301	2192.7125
1292.82151	2237.1125
1296.34761	2290.6125
1299.87133	2389.9125
1303.39266	2561.1125
1306.9116	2810.2125
1310.42815	3063.6125
1313.94233	3100.0125
1317.45412	2913.9125
1320.96354	2683.3125
1324.47058	2495.0125
1327.97525	2347.6125
1331.47754	2276.8125
1334.97747	2272.8125
1338.47502	2297.6125
1341.97022	2393.9125
1345.46305	2558.9125
1348.95352	2759.1125
1352.44163	3003.2125
1355.92738	3316.1125
1359.41078	3755.2125
1362.89183	4097.9125
1366.37053	3925.2125
1369.84688	3382.7125
1373.32088	2902.6125
1376.79254	2647.8125
1380.26186	2472.2125
1383.72883	2335.2125
1387.19347	2204.4125
1390.65578	2131.9125
1394.11575	2066.0125
1397.57339	2051.8125
1401.0287	2066.8125
1404.48168	2083.6125
1407.93234	2134.4125
1411.38068	2213.5125
1414.82669	2311.5125
1418.27039	2398.9125
1421.71177	2457.3125
1425.15083	2447.3125
1428.58758	2404.2125
1432.02203	2370.7125
1435.45416	2321.0125
1438.88399	2250.7125
1442.31151	2189.4125
1445.73673	2143.2125
1449.15965	2123.0125
1452.58027	2117.9125
1455.9986	2098.8125
1459.41463	2100.1125
1462.82837	2103.2125
1466.23982	2129.0125
1469.64898	2122.6125
1473.05586	2121.8125
1476.46045	2083.3125
1479.86276	2078.1125
1483.26279	2063.9125
1486.66054	2077.9125
1490.05602	2120.4125
1493.44922	2200.5125
1496.84016	2361.2125
1500.22882	2615.4125
1503.61521	2978.8125
1506.99934	3343.8125
1510.38121	3567.4125
1513.76081	3531.9125
1517.13816	3195.7125
1520.51324	2788.6125
1523.88607	2441.7125
1527.25665	2244.8125
1530.62498	2143.1125
1533.99105	2084.2125
1537.35488	2049.6125
1540.71647	2016.1125
1544.07581	2021.6125
1547.4329	2042.4125
1550.78776	2049.2125
1554.14038	2070.8125
1557.49077	2097.4125
1560.83892	2128.9125
1564.18484	2185.1125
1567.52853	2263.8125
1570.86999	2346.8125
1574.20922	2383.1125
1577.54624	2353.6125
1580.88103	2235.6125
1584.2136	2106.2125
1587.54395	2030.0125
1590.87208	2024.7125
1594.19801	2049.2125
1597.52172	2090.7125
1600.84321	2090.2125
1604.16251	2064.9125
1607.47959	2007.5125
1610.79447	1944.2125
1614.10715	1890.2125
1617.41763	1840.8125
1620.7259	1817.6125
1624.03199	1789.5125
1627.33587	1791.5125
1630.63757	1813.6125
1633.93707	1840.7125
1637.23439	1911.1125
1640.52951	2022.0125
1643.82246	2210.2125
1647.11321	2448.8125
1650.40179	2592.1125
1653.68819	2546.6125
1656.97241	2334.7125
1660.25446	2116.3125
1663.53433	1988.8125
1666.81203	1915.2125
1670.08756	1897.1125
1673.36092	1901.9125
1676.63211	1900.0125
1679.90115	1907.2125
1683.16801	1885.3125
1686.43272	1854.5125
1689.69527	1836.2125
1692.95567	1804.5125
1696.2139	1790.8125
1699.46999	1755.9125
1702.72392	1729.6125
1705.97571	1691.8125
1709.22535	1683.3125
1712.47284	1664.8125
1715.71819	1658.1125
1718.96139	1646.6125
1722.20246	1643.5125
1725.44139	1642.4125
1728.67818	1672.9125
1731.91284	1672.1125
1735.14537	1703.2125
1738.37576	1730.5125
1741.60403	1783.8125
1744.83017	1844.4125
1748.05418	1952.4125
1751.27607	2037.1125
1754.49584	2116.6125
1757.71349	2121.2125
1760.92903	2088.0125
1764.14244	1998.9125
1767.35375	1891.3125
1770.56294	1780.5125
1773.77002	1697.2125
1776.97499	1624.6125
1780.17785	1576.1125
1783.37861	1524.1125
1786.57727	1489.6125
1789.77382	1461.4125
1792.96828	1418.3125
1796.16064	1390.0125
1799.3509	1373.3125
1802.53907	1348.4125
1805.72514	1329.2125
1808.90913	1320.5125
1812.09102	1304.5125
1815.27083	1298.0125
1818.44856	1296.3125
1821.6242	1281.4125
1824.79776	1278.8125
1827.96924	1273.6125
1831.13864	1253.1125
1834.30597	1259.9125
1837.47122	1253.3125
1840.6344	1261.8125
1843.7955	1248.9125
1846.95454	1242.7125
1850.11151	1239.4125
1853.26642	1242.9125
1856.41926	1235.3125
1859.57004	1222.9125
1862.71876	1220.8125
1865.86542	1220.9125
1869.01003	1219.0125
1872.15258	1218.4125
1875.29308	1220.8125
1878.43152	1220.7125
1881.56792	1217.2125
1884.70227	1219.9125
1887.83457	1211.1125
1890.96482	1212.0125
1894.09304	1204.2125
1897.21921	1200.3125
1900.34335	1201.2125
1903.46544	1205.2125
1906.58551	1206.6125
1909.70353	1193.9125
1912.81953	1194.2125
1915.93349	1197.7125
1919.04543	1192.1125
1922.15534	1191.1125
1925.26322	1192.4125
1928.36908	1187.9125
1931.47292	1185.2125
1934.57473	1182.8125
1937.67453	1182.3125
1940.77232	1162.2125
1943.86808	1168.8125
1946.96184	1170.4125
1950.05358	1163.7125
1953.14331	1149.5125
1956.23103	1147.0125
1959.31675	1156.2125
1962.40046	1145.0125
1965.48217	1144.3125
1968.56188	1137.7125
1971.63959	1138.4125
1974.7153	1139.3125
1977.78901	1127.8125
1980.86073	1126.6125
1983.93046	1118.9125
1986.99819	1116.5125
1990.06394	1121.3125
1993.1277	1103.6125
1996.18947	1099.2125
1999.24925	1106.0125
2002.30706	1095.5125
2005.36288	1086.2125
2008.41672	1098.7125
2011.46859	1085.8125
2014.51848	1085.6125
2017.56639	1087.1125
2020.61233	1083.9125
2023.6563	1075.0125
2026.6983	1065.8125
2029.73833	1070.5125
2032.7764	1067.1125
2035.8125	1069.2125
2038.84664	1063.2125
2041.87881	1053.9125
2044.90903	1057.2125
2047.93729	1048.9125
2050.96359	1052.8125
2053.98794	1049.1125
2057.01034	1056.2125
2060.03078	1046.2125
2063.04927	1041.0125
2066.06582	1046.2125
2069.08042	1044.2125
2072.09307	1045.8125
2075.10378	1041.1125
2078.11255	1047.5125
2081.11938	1040.7125
2084.12426	1048.2125
2087.12722	1033.7125
2090.12824	1046.4125
2093.12732	1059.5125
2096.12447	1056.2125
2099.11969	1060.0125
2102.11299	1062.3125
2105.10435	1071.4125
2108.09379	1069.9125
2111.08131	1070.3125
2114.0669	1069.3125
2117.05057	1065.9125
2120.03233	1059.3125
2123.01216	1060.0125
2125.99008	1062.0125
2128.96609	1051.0125
2131.94018	1045.6125
2134.91236	1057.5125
2137.88263	1045.2125
2140.851	1041.5125
2143.81746	1040.4125
2146.78201	1035.1125
2149.74466	1040.5125
2152.7054	1040.7125
2155.66425	1038.5125
2158.6212	1039.5125
2161.57625	1036.5125
2164.52941	1032.4125
2167.48067	1035.4125
2170.43004	1031.5125
2173.37752	1026.7125
2176.32311	1027.0125
2179.26681	1029.7125
2182.20863	1027.6125
2185.14856	1025.3125
2188.08661	1027.4125
2191.02278	1021.6125
2193.95707	1019.8125
2196.88948	1019.9125
2199.82001	1019.5125
2202.74867	1008.2125
2205.67545	1017.1125
2208.60037	1017.2125
2211.52341	1011.0125
2214.44458	1007.7125
2217.36388	1001.6125
2220.28132	1005.5125
2223.1969	992.5125
2226.11061	996.3125
2229.02246	989.8125
2231.93245	987.4125
2234.84058	984.0125
2237.74686	979.9125
2240.65128	975.9125
2243.55385	985.2125
2246.45456	987.3125
2249.35343	983.9125
2252.25044	980.5125
2255.14561	979.2125
2258.03893	981.5125
2260.93041	976.7125
2263.82004	977.9125
2266.70783	969.0125
2269.59378	953.1125
2272.4779	960.8125
2275.36017	960.3125
2278.24061	954.1125
2281.11922	954.5125
2283.996	954.8125
2286.87094	955.5125
2289.74405	947.2125
2292.61534	947.1125
2295.4848	945.4125
2298.35243	946.0125
2301.21824	940.7125
2304.08223	942.5125
2306.94439	942.9125
2309.80474	931.7125
2312.66327	936.7125
2315.51999	933.2125
2318.37489	930.6125
2321.22797	927.8125
2324.07925	928.3125
2326.92871	926.2125
2329.77637	937.6125
2332.62222	931.2125
2335.46626	929.3125
2338.3085	927.5125
2341.14893	924.1125
2343.98756	927.1125
2346.8244	924.6125
2349.65943	907.6125
2352.49267	917.1125
2355.32411	918.5125
2358.15376	927.0125
2360.98161	922.1125
2363.80768	913.5125
2366.63195	919.8125
2369.45444	917.1125
2372.27514	919.7125
2375.09405	920.1125
2377.91118	917.7125
2380.72652	916.7125
2383.54009	917.3125
2386.35187	914.5125
2389.16188	906.4125
2391.97011	908.5125
2394.77657	898.0125
2397.58125	902.5125
2400.38416	893.3125
2403.18529	894.5125
2405.98466	887.2125
2408.78226	891.5125
2411.57809	896.1125
2414.37216	889.2125
2417.16446	886.4125
2419.955	890.4125
2422.74378	889.2125
2425.5308	880.7125
2428.31606	883.5125
2431.09956	880.4125
2433.88131	881.1125
2436.6613	880.4125
2439.43954	876.6125
2442.21603	874.4125
2444.99077	882.6125
2447.76377	882.2125
2450.53501	880.8125
2453.30451	878.1125
2456.07226	874.2125
2458.83827	868.7125
2461.60254	870.3125
2464.36507	875.3125
2467.12586	868.5125
2469.88492	864.5125
2472.64224	875.2125
2475.39782	865.8125
2478.15167	871.0125
2480.90379	866.5125
2483.65417	871.9125
2486.40283	872.3125
2489.14976	869.8125
2491.89497	868.5125
2494.63845	873.2125
2497.3802	868.0125
2500.12024	859.3125
2502.85855	861.4125
2505.59514	865.4125
2508.33002	857.0125
2511.06318	848.7125
2513.79462	841.8125
2516.52435	843.7125
2519.25237	842.8125
2521.97867	832.5125
2524.70327	840.6125
2527.42616	838.3125
2530.14734	836.3125
2532.86681	829.9125
2535.58458	837.5125
2538.30065	838.2125
2541.01501	842.0125
2543.72768	835.2125
2546.43864	834.7125
2549.14791	828.0125
2551.85548	832.4125
2554.56136	829.4125
2557.26554	831.0125
2559.96803	823.5125
2562.66883	818.9125
2565.36794	819.3125
2568.06536	821.3125
2570.7611	811.7125
2573.45514	815.3125
2576.14751	815.5125
2578.83819	809.0125
2581.52719	813.9125
2584.21451	816.2125
2586.90015	813.2125
2589.58411	805.4125
2592.2664	802.2125
2594.94701	799.6125
2597.62594	812.0125
2600.30321	801.0125
2602.9788	794.9125
2605.65273	797.2125
2608.32498	796.3125
2610.99557	795.9125
2613.66449	795.2125
2616.33175	789.0125
2618.99734	793.8125
2621.66128	786.5125
2624.32355	786.3125
2626.98416	791.4125
2629.64311	789.1125
2632.30041	789.4125
2634.95605	783.3125
2637.61004	785.0125
2640.26238	778.5125
2642.91306	784.9125
2645.56209	786.9125
2648.20948	786.0125
2650.85521	781.8125
2653.4993	784.0125
2656.14175	776.5125
2658.78255	782.7125
2661.42171	779.8125
2664.05923	787.2125
2666.6951	789.0125
2669.32934	784.4125
2671.96194	788.8125
2674.59291	787.6125
2677.22224	786.6125
2679.84993	787.4125
2682.476	785.0125
2685.10043	787.8125
2687.72324	785.5125
2690.34441	777.9125
2692.96396	782.4125
2695.58188	787.2125
2698.19818	784.6125
2700.81285	787.0125
2703.4259	784.8125
2706.03733	778.5125
2708.64714	780.8125
2711.25533	784.9125
2713.86191	788.1125
2716.46687	786.6125
2719.07021	788.6125
2721.67194	787.6125
2724.27206	795.7125
2726.87057	797.3125
2729.46747	790.1125
2732.06276	789.1125
2734.65644	785.2125
2737.24852	782.5125
2739.83899	789.6125
2742.42786	789.1125
2745.01513	781.0125
2747.60079	782.0125
2750.18486	784.3125
2752.76733	783.3125
2755.3482	778.3125
2757.92747	774.0125
2760.50515	776.7125
2763.08123	779.3125
2765.65573	780.1125
2768.22863	775.8125
2770.79994	778.9125
2773.36967	778.9125
2775.9378	774.7125
2778.50435	776.8125
2781.06932	783.1125
2783.6327	784.1125
2786.1945	778.3125
2788.75471	786.8125
2791.31335	794.4125
2793.87041	798.8125
2796.42589	794.1125
2798.97979	798.0125
2801.53212	804.9125
2804.08288	807.0125
2806.63206	817.3125
2809.17967	816.2125
2811.72571	815.6125
2814.27018	823.8125
2816.81308	830.6125
2819.35442	832.2125
2821.89419	832.8125
2824.43239	835.6125
2826.96904	834.7125
2829.50412	837.0125
2832.03763	841.1125
2834.56959	843.4125
2837.1	848.1125
2839.62884	841.0125
2842.15613	851.4125
2844.68186	847.2125
2847.20604	859.9125
2849.72867	858.1125
2852.24974	862.0125
2854.76927	857.7125
2857.28724	871.4125
2859.80367	872.0125
2862.31855	868.4125
2864.83189	869.2125
2867.34368	881.0125
2869.85393	892.4125
2872.36264	901.9125
2874.8698	908.3125
2877.37543	926.0125
2879.87952	936.5125
2882.38207	950.3125
2884.88308	954.6125
2887.38256	974.7125
2889.88051	986.8125
2892.37692	996.8125
2894.8718	1010.1125
2897.36515	1031.5125
2899.85698	1042.5125
2902.34727	1064.2125
2904.83604	1072.2125
2907.32328	1093.8125
2909.809	1120.4125
2912.29319	1119.3125
2914.77587	1148.2125
2917.25702	1162.2125
2919.73665	1184.5125
2922.21476	1193.6125
2924.69136	1213.6125
2927.16644	1224.0125
2929.64	1241.8125
2932.11205	1256.9125
2934.58258	1261.4125
2937.05161	1271.1125
2939.51912	1275.2125
2941.98513	1284.4125
2944.44962	1296.9125
2946.91261	1297.4125
2949.37409	1309.3125
2951.83407	1304.3125
2954.29254	1296.8125
2956.74951	1281.3125
2959.20498	1252.2125
2961.65895	1220.3125
2964.11142	1197.4125
2966.56239	1159.6125
2969.01186	1138.2125
2971.45984	1113.9125
2973.90632	1086.1125
2976.35131	1063.2125
2978.7948	1052.2125
2981.23681	1039.0125
2983.67732	1026.5125
2986.11635	1020.4125
2988.55388	1015.6125
2990.98993	1006.0125
2993.4245	996.3125
2995.85758	1000.8125
2998.28917	996.3125
3000.71928	1004.4125
3003.14791	1002.4125
3005.57506	1007.9125
3008.00073	1000.9125
3010.42493	1045.7125
3012.84764	1011.3125
3015.26888	1009.6125
3017.68865	1002.2125
3020.10694	993.9125
3022.52376	987.5125
3024.9391	985.1125
3027.35298	971.6125
3029.76539	971.2125
3032.17632	963.0125
3034.5858	951.2125
3036.9938	941.7125
3039.40034	947.0125
3041.80542	936.8125
3044.20903	929.4125
3046.61118	930.0125
3049.01187	917.5125
3051.4111	920.3125
3053.80888	919.0125
3056.20519	912.3125
3058.60005	922.1125
3060.99345	917.2125
3063.3854	918.4125
3065.7759	913.2125
3068.16494	921.1125
3070.55254	915.9125
3072.93868	913.5125
3075.32338	915.8125
3077.70662	913.9125
3080.08842	926.7125
3082.46878	934.9125
3084.84769	940.3125
3087.22515	945.9125
3089.60118	942.2125
3091.97576	955.2125
3094.3489	955.8125
3096.72061	964.6125
3099.09087	968.3125
3101.4597	985.6125
3103.82709	991.8125
3106.19305	995.0125
3108.55757	1003.5125
3110.92066	1010.9125
3113.28232	1013.6125
3115.64255	1019.3125
3118.00134	1033.0125
3120.35871	1033.1125
3122.71466	1050.8125
3125.06917	1048.2125
3127.42226	1058.2125
3129.77393	1069.4125
3132.12417	1062.8125
3134.47299	1080.9125
3136.82039	1088.5125
3139.16636	1092.7125
3141.51092	1105.8125
3143.85406	1119.7125
3146.19579	1125.5125
3148.53609	1134.6125
3150.87499	1148.6125
3153.21246	1156.0125
3155.54853	1161.8125
3157.88318	1174.7125
3160.21642	1195.4125
3162.54826	1210.1125
