Data from AgNPs_UA_20uM_CRN_500uM_AS_RamanShift__17__14-43-21-517.txt Node

Date: Wed Aug 17 14:43:21 BST 2022
User: TCL
Spectrometer: QEP01345
Trigger mode: 4
Integration Time (sec): 7.000000E0
Scans to average: 10
Electric dark correction enabled: true
Nonlinearity correction enabled: false
Boxcar width: 0
XAxis mode: Raman Shifts
Number of Pixels in Spectrum: 1044
>>>>>Begin Spectral Data<<<<<
46.04893	-0.225
50.45542	-0.425
54.85868	-1.825
59.25871	0.775
63.6555	34.175
68.04907	31.675
72.43941	36.275
76.82654	41.275
81.21044	43.075
85.59113	39.975
89.96862	42.975
94.34289	51.375
98.71396	51.675
103.08183	51.975
107.4465	49.675
111.80798	52.275
116.16626	51.075
120.52136	49.175
124.87327	50.575
129.222	50.675
133.56755	50.975
137.90993	54.175
142.24913	57.575
146.58517	60.175
150.91804	60.075
155.24774	66.175
159.57429	71.675
163.89768	80.075
168.21792	100.875
172.53501	126.575
176.84895	166.175
181.15975	226.575
185.46741	302.575
189.77193	418.575
194.07331	550.575
198.37157	700.875
202.6667	868.175
206.9587	1032.075
211.24758	1208.975
215.53334	1376.175
219.81599	1573.075
224.09553	1777.875
228.37195	2009.375
232.64527	2246.375
236.91549	2497.975
241.18261	2717.775
245.44663	2905.675
249.70755	3036.875
253.96539	3156.475
258.22014	3232.275
262.4718	3288.675
266.72039	3333.975
270.96589	3334.075
275.20832	3281.675
279.44768	3207.875
283.68397	3129.275
287.91719	3063.475
292.14735	3040.775
296.37445	3059.275
300.59849	3136.075
304.81948	3243.675
309.03742	3299.875
313.25231	3291.075
317.46415	3186.375
321.67296	3019.675
325.87872	2888.575
330.08145	2840.175
334.28114	2847.875
338.47781	2902.975
342.67145	2961.575
346.86207	3038.675
351.04966	3169.875
355.23424	3332.775
359.4158	3458.475
363.59435	3533.675
367.76989	3582.075
371.94243	3587.875
376.11196	3574.675
380.27849	3574.175
384.44203	3554.375
388.60257	3525.575
392.76012	3503.975
396.91468	3537.175
401.06626	3568.675
405.21485	3607.775
409.36047	3536.075
413.50311	3407.075
417.64277	3273.875
421.77947	3204.275
425.9132	3184.075
430.04396	3186.375
434.17176	3200.375
438.2966	3229.975
442.41849	3301.975
446.53742	3375.675
450.6534	3427.975
454.76644	3457.575
458.87653	3479.575
462.98368	3448.975
467.08789	3415.675
471.18916	3376.475
475.2875	3334.475
479.38291	3294.575
483.4754	3269.375
487.56496	3241.975
491.6516	3232.075
495.73531	3244.275
499.81612	3260.875
503.89401	3286.175
507.96899	3316.375
512.04106	3372.175
516.11023	3384.075
520.1765	3444.375
524.23987	3412.475
528.30034	3407.275
532.35792	3364.375
536.41261	3340.675
540.46441	3302.375
544.51333	3269.875
548.55936	3266.975
552.60252	3308.575
556.64279	3340.375
560.6802	3374.275
564.71473	3395.175
568.7464	3475.675
572.7752	3507.475
576.80114	3412.475
580.82422	3334.075
584.84444	3311.275
588.86181	3334.875
592.87633	3372.275
596.888	3442.075
600.89682	3564.575
604.9028	3944.575
608.90594	4848.275
612.90624	5834.875
616.90371	5393.475
620.89834	4084.675
624.89015	3498.775
628.87913	3424.575
632.86528	3475.175
636.84862	3540.675
640.82913	3520.375
644.80683	3423.175
648.78172	3362.075
652.75379	3371.075
656.72306	3457.975
660.68952	3563.075
664.65319	3516.575
668.61405	3404.075
672.57211	3380.075
676.52738	3431.975
680.47986	3460.975
684.42955	3423.275
688.37646	3375.675
692.32058	3364.875
696.26192	3351.975
700.20048	3361.075
704.13626	3380.375
708.06928	3346.075
711.99952	3329.875
715.927	3322.975
719.85171	3330.975
723.77365	3343.375
727.69284	3336.975
731.60928	3335.875
735.52295	3335.575
739.43388	3343.875
743.34206	3341.975
747.24749	3327.175
751.15017	3347.075
755.05012	3374.775
758.94733	3481.675
762.8418	3778.875
766.73354	4293.675
770.62254	4812.675
774.50882	5071.775
778.39237	4885.175
782.27321	4336.275
786.15132	3828.775
790.02671	3527.075
793.89938	3376.975
797.76935	3318.175
801.6366	3297.075
805.50115	3280.575
809.36299	3243.075
813.22213	3236.775
817.07857	3218.375
820.93231	3216.775
824.78336	3222.575
828.63172	3214.975
832.47738	3219.575
836.32036	3205.375
840.16066	3195.475
843.99827	3185.175
847.8332	3186.975
851.66546	3190.575
855.49504	3200.075
859.32195	3202.775
863.1462	3217.275
866.96777	3221.475
870.78668	3226.475
874.60293	3228.075
878.41652	3233.175
882.22745	3255.975
886.03573	3257.975
889.84136	3254.775
893.64433	3252.975
897.44466	3238.075
901.24235	3216.675
905.0374	3205.175
908.8298	3189.875
912.61957	3164.775
916.40671	3167.975
920.19121	3167.975
923.97308	3189.675
927.75233	3223.175
931.52895	3243.975
935.30295	3230.775
939.07433	3165.975
942.84309	3125.175
946.60924	3075.275
950.37278	3059.575
954.13371	3033.975
957.89203	3051.175
961.64774	3025.375
965.40086	3026.375
969.15137	3012.975
972.89929	2993.875
976.64461	2987.275
980.38733	2998.275
984.12747	2995.175
987.86502	3013.775
991.59999	3031.875
995.33237	3034.075
999.06217	3060.475
1002.78939	3104.875
1006.51404	3127.475
1010.23611	3176.475
1013.95561	3188.575
1017.67255	3195.975
1021.38692	3169.075
1025.09872	3147.475
1028.80796	3103.075
1032.51465	3113.075
1036.21877	3135.075
1039.92035	3137.575
1043.61937	3159.275
1047.31584	3163.275
1051.00976	3160.375
1054.70114	3174.675
1058.38998	3157.375
1062.07627	3156.275
1065.76003	3144.675
1069.44126	3155.975
1073.11995	3172.775
1076.79611	3199.275
1080.46974	3254.175
1084.14085	3321.175
1087.80943	3386.075
1091.47549	3409.675
1095.13903	3368.775
1098.80005	3301.175
1102.45857	3245.575
1106.11456	3233.875
1109.76805	3263.875
1113.41903	3330.675
1117.06751	3421.275
1120.71348	3530.375
1124.35696	3654.975
1127.99793	3776.275
1131.63641	3764.075
1135.2724	3588.475
1138.90589	3463.275
1142.5369	3380.675
1146.16542	3311.575
1149.79145	3259.775
1153.415	3226.375
1157.03607	3244.975
1160.65467	3276.775
1164.27079	3367.675
1167.88443	3514.975
1171.49561	3692.975
1175.10432	4023.575
1178.71056	4503.275
1182.31434	4916.775
1185.91565	5038.275
1189.51451	4861.275
1193.11091	4578.975
1196.70485	4297.875
1200.29634	4085.375
1203.88538	3917.675
1207.47197	3719.475
1211.05612	3518.275
1214.63782	3412.075
1218.21708	3327.375
1221.79391	3340.075
1225.36829	3345.375
1228.94024	3328.775
1232.50976	3315.975
1236.07685	3326.675
1239.6415	3304.175
1243.20374	3322.975
1246.76355	3339.575
1250.32093	3370.575
1253.8759	3401.275
1257.42845	3463.375
1260.97859	3545.575
1264.52631	3629.675
1268.07163	3703.975
1271.61453	3805.575
1275.15503	3878.975
1278.69312	3878.675
1282.22882	3913.375
1285.76211	3985.075
1289.29301	4078.075
1292.82151	4210.575
1296.34761	4364.175
1299.87133	4590.775
1303.39266	4990.275
1306.9116	5544.775
1310.42815	6045.575
1313.94233	6189.275
1317.45412	5846.975
1320.96354	5312.975
1324.47058	4845.675
1327.97525	4479.475
1331.47754	4244.575
1334.97747	4143.375
1338.47502	4126.075
1341.97022	4266.175
1345.46305	4514.575
1348.95352	4916.075
1352.44163	5406.675
1355.92738	6036.975
1359.41078	6943.575
1362.89183	7748.775
1366.37053	7462.875
1369.84688	6242.475
1373.32088	5141.475
1376.79254	4494.875
1380.26186	4144.175
1383.72883	3918.775
1387.19347	3734.675
1390.65578	3578.075
1394.11575	3461.875
1397.57339	3368.175
1401.0287	3326.175
1404.48168	3304.075
1407.93234	3305.775
1411.38068	3322.175
1414.82669	3341.275
1418.27039	3373.075
1421.71177	3370.575
1425.15083	3332.575
1428.58758	3309.675
1432.02203	3320.075
1435.45416	3351.475
1438.88399	3337.075
1442.31151	3330.475
1445.73673	3332.775
1449.15965	3340.275
1452.58027	3338.475
1455.9986	3322.275
1459.41463	3336.875
1462.82837	3357.775
1466.23982	3436.875
1469.64898	3502.575
1473.05586	3549.675
1476.46045	3566.275
1479.86276	3595.075
1483.26279	3660.975
1486.66054	3743.975
1490.05602	3886.375
1493.44922	4102.075
1496.84016	4445.075
1500.22882	5025.775
1503.61521	5808.175
1506.99934	6670.875
1510.38121	7181.975
1513.76081	7092.875
1517.13816	6372.475
1520.51324	5466.075
1523.88607	4689.275
1527.25665	4237.475
1530.62498	3986.575
1533.99105	3829.475
1537.35488	3748.675
1540.71647	3661.875
1544.07581	3637.475
1547.4329	3614.375
1550.78776	3650.975
1554.14038	3671.575
1557.49077	3712.275
1560.83892	3780.775
1564.18484	3905.675
1567.52853	4073.275
1570.86999	4227.175
1574.20922	4329.975
1577.54624	4282.475
1580.88103	4032.575
1584.2136	3732.175
1587.54395	3531.875
1590.87208	3495.975
1594.19801	3582.475
1597.52172	3764.675
1600.84321	3801.375
1604.16251	3698.775
1607.47959	3592.275
1610.79447	3433.375
1614.10715	3299.075
1617.41763	3153.075
1620.7259	3066.775
1624.03199	3019.975
1627.33587	3015.675
1630.63757	3062.075
1633.93707	3162.875
1637.23439	3333.175
1640.52951	3629.675
1643.82246	4086.175
1647.11321	4617.075
1650.40179	4953.275
1653.68819	4811.075
1656.97241	4260.175
1660.25446	3685.075
1663.53433	3269.475
1666.81203	3024.575
1670.08756	2883.175
1673.36092	2796.375
1676.63211	2745.775
1679.90115	2684.075
1683.16801	2649.275
1686.43272	2631.375
1689.69527	2614.675
1692.95567	2599.175
1696.2139	2586.775
1699.46999	2576.075
1702.72392	2565.475
1705.97571	2547.375
1709.22535	2540.475
1712.47284	2531.475
1715.71819	2519.075
1718.96139	2503.875
1722.20246	2499.775
1725.44139	2476.175
1728.67818	2460.475
1731.91284	2442.675
1735.14537	2438.875
1738.37576	2432.375
1741.60403	2417.275
1744.83017	2420.875
1748.05418	2415.475
1751.27607	2437.275
1754.49584	2435.775
1757.71349	2427.975
1760.92903	2421.575
1764.14244	2413.475
1767.35375	2399.375
1770.56294	2382.375
1773.77002	2353.975
1776.97499	2331.975
1780.17785	2327.475
1783.37861	2321.375
1786.57727	2308.875
1789.77382	2294.075
1792.96828	2296.475
1796.16064	2276.975
1799.3509	2264.575
1802.53907	2265.175
1805.72514	2254.775
1808.90913	2245.575
1812.09102	2230.475
1815.27083	2218.975
1818.44856	2222.075
1821.6242	2214.675
1824.79776	2215.275
1827.96924	2207.375
1831.13864	2197.075
1834.30597	2200.775
1837.47122	2189.075
1840.6344	2181.575
1843.7955	2187.875
1846.95454	2177.775
1850.11151	2177.775
1853.26642	2174.075
1856.41926	2171.975
1859.57004	2167.975
1862.71876	2167.475
1865.86542	2164.875
1869.01003	2161.175
1872.15258	2158.875
1875.29308	2159.275
1878.43152	2151.475
1881.56792	2154.975
1884.70227	2146.175
1887.83457	2164.075
1890.96482	2132.075
1894.09304	2136.275
1897.21921	2136.275
1900.34335	2121.275
1903.46544	2129.675
1906.58551	2121.775
1909.70353	2120.175
1912.81953	2116.175
1915.93349	2113.775
1919.04543	2115.975
1922.15534	2104.775
1925.26322	2109.175
1928.36908	2101.975
1931.47292	2099.475
1934.57473	2084.475
1937.67453	2092.575
1940.77232	2074.875
1943.86808	2063.975
1946.96184	2061.075
1950.05358	2061.575
1953.14331	2044.975
1956.23103	2040.975
1959.31675	2045.575
1962.40046	2026.675
1965.48217	2020.175
1968.56188	2027.275
1971.63959	2010.975
1974.7153	2005.775
1977.78901	2001.275
1980.86073	2000.275
1983.93046	2003.775
1986.99819	1978.075
1990.06394	1977.275
1993.1277	1963.075
1996.18947	1961.075
1999.24925	1965.375
2002.30706	1940.175
2005.36288	1932.175
2008.41672	1930.275
2011.46859	1929.175
2014.51848	1916.275
2017.56639	1927.075
2020.61233	1921.475
2023.6563	1907.775
2026.6983	1900.275
2029.73833	1906.575
2032.7764	1890.275
2035.8125	1883.875
2038.84664	1879.275
2041.87881	1874.575
2044.90903	1870.475
2047.93729	1870.375
2050.96359	1871.775
2053.98794	1872.475
2057.01034	1863.575
2060.03078	1860.475
2063.04927	1851.875
2066.06582	1860.075
2069.08042	1856.575
2072.09307	1846.375
2075.10378	1856.775
2078.11255	1850.675
2081.11938	1848.575
2084.12426	1859.475
2087.12722	1842.475
2090.12824	1855.175
2093.12732	1852.675
2096.12447	1856.675
2099.11969	1854.275
2102.11299	1846.175
2105.10435	1850.175
2108.09379	1847.875
2111.08131	1846.875
2114.0669	1847.975
2117.05057	1849.275
2120.03233	1857.475
2123.01216	1857.175
2125.99008	1862.775
2128.96609	1856.275
2131.94018	1857.675
2134.91236	1854.275
2137.88263	1856.975
2140.851	1860.275
2143.81746	1866.375
2146.78201	1865.875
2149.74466	1859.375
2152.7054	1851.075
2155.66425	1853.375
2158.6212	1851.075
2161.57625	1841.275
2164.52941	1850.375
2167.48067	1846.975
2170.43004	1841.875
2173.37752	1834.575
2176.32311	1847.175
2179.26681	1832.375
2182.20863	1848.475
2185.14856	1835.275
2188.08661	1847.375
2191.02278	1849.875
2193.95707	1837.175
2196.88948	1834.175
2199.82001	1830.075
2202.74867	1830.975
2205.67545	1848.075
2208.60037	1832.575
2211.52341	1828.275
2214.44458	1816.475
2217.36388	1810.175
2220.28132	1810.075
2223.1969	1796.775
2226.11061	1801.275
2229.02246	1803.975
2231.93245	1794.975
2234.84058	1790.475
2237.74686	1784.975
2240.65128	1793.275
2243.55385	1787.775
2246.45456	1787.375
2249.35343	1784.875
2252.25044	1782.075
2255.14561	1776.875
2258.03893	1792.275
2260.93041	1777.975
2263.82004	1784.675
2266.70783	1779.475
2269.59378	1768.275
2272.4779	1760.675
2275.36017	1767.475
2278.24061	1755.375
2281.11922	1744.875
2283.996	1741.875
2286.87094	1737.775
2289.74405	1736.475
2292.61534	1741.375
2295.4848	1734.175
2298.35243	1735.375
2301.21824	1719.175
2304.08223	1726.575
2306.94439	1725.575
2309.80474	1724.575
2312.66327	1717.475
2315.51999	1714.375
2318.37489	1724.775
2321.22797	1702.575
2324.07925	1717.675
2326.92871	1710.675
2329.77637	1714.075
2332.62222	1707.975
2335.46626	1708.175
2338.3085	1697.575
2341.14893	1698.275
2343.98756	1696.975
2346.8244	1684.675
2349.65943	1699.575
2352.49267	1695.175
2355.32411	1695.075
2358.15376	1702.975
2360.98161	1701.275
2363.80768	1700.475
2366.63195	1696.975
2369.45444	1701.075
2372.27514	1701.175
2375.09405	1697.175
2377.91118	1692.875
2380.72652	1687.275
2383.54009	1682.675
2386.35187	1677.575
2389.16188	1677.375
2391.97011	1662.675
2394.77657	1656.675
2397.58125	1650.275
2400.38416	1643.575
2403.18529	1652.075
2405.98466	1640.375
2408.78226	1635.675
2411.57809	1632.375
2414.37216	1631.975
2417.16446	1631.475
2419.955	1626.875
2422.74378	1627.175
2425.5308	1626.475
2428.31606	1632.075
2431.09956	1628.375
2433.88131	1624.275
2436.6613	1632.375
2439.43954	1623.475
2442.21603	1620.775
2444.99077	1625.175
2447.76377	1624.875
2450.53501	1613.375
2453.30451	1614.075
2456.07226	1619.175
2458.83827	1619.675
2461.60254	1622.675
2464.36507	1619.975
2467.12586	1611.175
2469.88492	1609.475
2472.64224	1613.675
2475.39782	1618.075
2478.15167	1608.375
2480.90379	1605.475
2483.65417	1623.275
2486.40283	1616.975
2489.14976	1616.875
2491.89497	1624.575
2494.63845	1618.575
2497.3802	1620.975
2500.12024	1618.175
2502.85855	1623.975
2505.59514	1614.575
2508.33002	1601.275
2511.06318	1596.675
2513.79462	1595.775
2516.52435	1591.475
2519.25237	1586.275
2521.97867	1582.475
2524.70327	1568.575
2527.42616	1567.175
2530.14734	1574.575
2532.86681	1567.375
2535.58458	1572.075
2538.30065	1562.175
2541.01501	1577.175
2543.72768	1566.175
2546.43864	1569.375
2549.14791	1564.275
2551.85548	1562.075
2554.56136	1559.775
2557.26554	1555.775
2559.96803	1555.475
2562.66883	1548.975
2565.36794	1553.175
2568.06536	1545.375
2570.7611	1539.375
2573.45514	1537.975
2576.14751	1536.375
2578.83819	1532.375
2581.52719	1530.275
2584.21451	1524.275
2586.90015	1523.975
2589.58411	1521.175
2592.2664	1533.075
2594.94701	1510.075
2597.62594	1519.075
2600.30321	1504.775
2602.9788	1514.375
2605.65273	1504.375
2608.32498	1511.175
2610.99557	1507.975
2613.66449	1502.575
2616.33175	1505.875
2618.99734	1504.475
2621.66128	1501.175
2624.32355	1496.275
2626.98416	1496.975
2629.64311	1483.975
2632.30041	1490.975
2634.95605	1485.075
2637.61004	1488.775
2640.26238	1476.775
2642.91306	1473.075
2645.56209	1472.975
2648.20948	1477.375
2650.85521	1472.875
2653.4993	1466.375
2656.14175	1478.675
2658.78255	1477.175
2661.42171	1476.175
2664.05923	1481.075
2666.6951	1481.975
2669.32934	1486.775
2671.96194	1481.175
2674.59291	1482.475
2677.22224	1478.175
2679.84993	1479.675
2682.476	1484.375
2685.10043	1486.075
2687.72324	1470.775
2690.34441	1482.975
2692.96396	1481.275
2695.58188	1470.775
2698.19818	1472.075
2700.81285	1474.975
2703.4259	1483.375
2706.03733	1477.875
2708.64714	1475.475
2711.25533	1470.775
2713.86191	1479.075
2716.46687	1466.575
2719.07021	1482.575
2721.67194	1480.675
2724.27206	1477.775
2726.87057	1481.475
2729.46747	1480.075
2732.06276	1486.175
2734.65644	1470.075
2737.24852	1471.675
2739.83899	1471.975
2742.42786	1471.875
2745.01513	1468.275
2747.60079	1459.675
2750.18486	1466.875
2752.76733	1460.175
2755.3482	1458.275
2757.92747	1452.775
2760.50515	1448.875
2763.08123	1451.175
2765.65573	1455.875
2768.22863	1448.375
2770.79994	1439.175
2773.36967	1451.175
2775.9378	1434.475
2778.50435	1447.975
2781.06932	1446.375
2783.6327	1448.275
2786.1945	1443.575
2788.75471	1446.575
2791.31335	1442.375
2793.87041	1434.375
2796.42589	1436.275
2798.97979	1428.175
2801.53212	1434.575
2804.08288	1423.275
2806.63206	1430.575
2809.17967	1434.375
2811.72571	1427.475
2814.27018	1430.975
2816.81308	1431.675
2819.35442	1434.475
2821.89419	1429.175
2824.43239	1429.575
2826.96904	1436.875
2829.50412	1431.175
2832.03763	1427.175
2834.56959	1420.375
2837.1	1430.775
2839.62884	1426.375
2842.15613	1432.275
2844.68186	1429.975
2847.20604	1444.675
2849.72867	1435.375
2852.24974	1443.375
2854.76927	1431.775
2857.28724	1447.475
2859.80367	1444.375
2862.31855	1459.575
2864.83189	1455.575
2867.34368	1471.475
2869.85393	1472.175
2872.36264	1464.575
2874.8698	1477.475
2877.37543	1474.575
2879.87952	1470.375
2882.38207	1473.575
2884.88308	1478.975
2887.38256	1486.875
2889.88051	1484.975
2892.37692	1492.175
2894.8718	1494.175
2897.36515	1498.675
2899.85698	1508.375
2902.34727	1523.175
2904.83604	1517.875
2907.32328	1528.575
2909.809	1533.175
2912.29319	1530.875
2914.77587	1536.175
2917.25702	1541.975
2919.73665	1552.975
2922.21476	1557.375
2924.69136	1554.975
2927.16644	1560.175
2929.64	1553.775
2932.11205	1553.075
2934.58258	1551.575
2937.05161	1556.075
2939.51912	1555.575
2941.98513	1559.275
2944.44962	1553.175
2946.91261	1555.075
2949.37409	1547.975
2951.83407	1541.075
2954.29254	1533.575
2956.74951	1532.175
2959.20498	1527.075
2961.65895	1512.975
2964.11142	1503.575
2966.56239	1499.075
2969.01186	1497.175
2971.45984	1488.475
2973.90632	1481.775
2976.35131	1480.175
2978.7948	1479.375
2981.23681	1473.175
2983.67732	1475.975
2986.11635	1464.075
2988.55388	1457.675
2990.98993	1450.175
2993.4245	1454.475
2995.85758	1454.975
2998.28917	1446.175
3000.71928	1444.775
3003.14791	1437.975
3005.57506	1441.375
3008.00073	1435.275
3010.42493	1401.775
3012.84764	1438.575
3015.26888	1428.875
3017.68865	1435.675
3020.10694	1438.775
3022.52376	1434.475
3024.9391	1421.975
3027.35298	1427.175
3029.76539	1425.375
3032.17632	1419.675
3034.5858	1414.075
3036.9938	1429.275
3039.40034	1425.575
3041.80542	1424.075
3044.20903	1427.175
3046.61118	1422.075
3049.01187	1425.575
3051.4111	1424.275
3053.80888	1419.775
3056.20519	1426.175
3058.60005	1431.475
3060.99345	1433.075
3063.3854	1434.475
3065.7759	1433.775
3068.16494	1422.575
3070.55254	1414.675
3072.93868	1427.475
3075.32338	1422.275
3077.70662	1418.575
3080.08842	1422.875
3082.46878	1427.075
3084.84769	1441.075
3087.22515	1429.275
3089.60118	1448.475
3091.97576	1442.175
3094.3489	1453.375
3096.72061	1455.675
3099.09087	1460.975
3101.4597	1466.575
3103.82709	1470.675
3106.19305	1479.475
3108.55757	1483.275
3110.92066	1482.975
3113.28232	1496.575
3115.64255	1494.775
3118.00134	1499.575
3120.35871	1505.275
3122.71466	1495.575
3125.06917	1504.375
3127.42226	1508.775
3129.77393	1519.475
3132.12417	1532.975
3134.47299	1529.575
3136.82039	1532.075
3139.16636	1528.675
3141.51092	1547.475
3143.85406	1547.175
3146.19579	1566.375
3148.53609	1570.975
3150.87499	1579.275
3153.21246	1589.675
3155.54853	1593.675
3157.88318	1603.175
3160.21642	1612.775
3162.54826	1607.375
3164.87868	1616.875
3167.2077	1630.675
3169.5353	1634.975
3171.86151	1645.475
3174.18631	1652.275
3176.5097	1659.575
3178.83169	1656.175
3181.15228	1666.175
3183.47147	1660.175
3185.78926	1668.775
3188.10565	1667.975
3190.42065	1669.975
3192.73424	1682.675
3195.04645	1687.075
3197.35725	1687.075
3199.66667	1694.875
3201.97469	1697.975
3204.28132	1701.275
3206.58656	1719.275
3208.8904	1718.175
3211.19287	1724.675
3213.49394	1734.575
3215.79363	1735.375
3218.09193	1744.375
3220.38884	1751.175
3222.68438	1756.675
3224.97853	1759.475
3227.2713	1754.475
3229.56269	1757.875
3231.8527	1771.475
3234.14133	1754.575
3236.42858	1763.775
3238.71446	1757.775
3240.99896	1753.575
