Data from AgNPs_UA_5uM_CRN_500uM_AS_RamanShift__3__13-01-03-821.txt Node

Date: Wed Aug 17 13:01:03 BST 2022
User: TCL
Spectrometer: QEP01345
Trigger mode: 4
Integration Time (sec): 7.000000E0
Scans to average: 10
Electric dark correction enabled: true
Nonlinearity correction enabled: false
Boxcar width: 0
XAxis mode: Raman Shifts
Number of Pixels in Spectrum: 1044
>>>>>Begin Spectral Data<<<<<
46.04893	0.85
50.45542	0.05
54.85868	-0.45
59.25871	-1.15
63.6555	39.95
68.04907	48.65
72.43941	53.15
76.82654	55.55
81.21044	62.75
85.59113	62.85
89.96862	68.55
94.34289	69.75
98.71396	70.25
103.08183	73.85
107.4465	72.75
111.80798	73.45
116.16626	75.45
120.52136	75.95
124.87327	72.65
129.222	75.25
133.56755	73.55
137.90993	75.75
142.24913	77.55
146.58517	77.35
150.91804	78.35
155.24774	85.65
159.57429	99.05
163.89768	112.55
168.21792	130.35
172.53501	157.75
176.84895	208.45
181.15975	274.15
185.46741	361.75
189.77193	496.95
194.07331	675.45
198.37157	888.95
202.6667	1116.45
206.9587	1374.75
211.24758	1626.45
215.53334	1886.85
219.81599	2146.15
224.09553	2410.65
228.37195	2651.45
232.64527	2909.35
236.91549	3146.95
241.18261	3363.15
245.44663	3565.35
249.70755	3712.55
253.96539	3805.25
258.22014	3828.05
262.4718	3779.65
266.72039	3684.65
270.96589	3550.75
275.20832	3386.95
279.44768	3201.25
283.68397	3015.75
287.91719	2852.25
292.14735	2699.15
296.37445	2551.25
300.59849	2421.95
304.81948	2322.25
309.03742	2231.15
313.25231	2161.75
317.46415	2096.05
321.67296	2027.85
325.87872	1988.25
330.08145	1960.05
334.28114	1943.55
338.47781	1935.75
342.67145	1952.25
346.86207	1967.05
351.04966	1973.25
355.23424	1973.65
359.4158	1955.75
363.59435	1971.25
367.76989	1944.95
371.94243	1928.25
376.11196	1910.25
380.27849	1916.65
384.44203	1915.45
388.60257	1908.95
392.76012	1902.25
396.91468	1915.05
401.06626	1921.55
405.21485	1927.55
409.36047	1935.55
413.50311	1945.05
417.64277	1936.95
421.77947	1946.75
425.9132	1964.75
430.04396	1969.95
434.17176	1989.45
438.2966	2003.45
442.41849	2033.65
446.53742	2052.35
450.6534	2072.35
454.76644	2088.15
458.87653	2108.15
462.98368	2123.25
467.08789	2131.85
471.18916	2115.15
475.2875	2106.45
479.38291	2117.55
483.4754	2115.35
487.56496	2104.85
491.6516	2102.75
495.73531	2123.65
499.81612	2125.45
503.89401	2124.05
507.96899	2131.45
512.04106	2108.65
516.11023	2096.25
520.1765	2079.05
524.23987	2083.35
528.30034	2074.25
532.35792	2068.15
536.41261	2077.15
540.46441	2075.05
544.51333	2082.65
548.55936	2079.35
552.60252	2084.45
556.64279	2099.35
560.6802	2115.45
564.71473	2132.95
568.7464	2163.75
572.7752	2198.95
576.80114	2228.75
580.82422	2227.65
584.84444	2200.25
588.86181	2218.75
592.87633	2230.75
596.888	2263.55
600.89682	2291.65
604.9028	2346.65
608.90594	2401.65
612.90624	2475.65
616.90371	2482.35
620.89834	2416.25
624.89015	2372.65
628.87913	2354.15
632.86528	2343.95
636.84862	2338.55
640.82913	2380.75
644.80683	2415.55
648.78172	2436.15
652.75379	2461.95
656.72306	2437.85
660.68952	2450.65
664.65319	2507.05
668.61405	2645.65
672.57211	2906.55
676.52738	3301.75
680.47986	3645.65
684.42955	3782.05
688.37646	3646.65
692.32058	3368.65
696.26192	3109.75
700.20048	2930.15
704.13626	2838.45
708.06928	2729.85
711.99952	2643.45
715.927	2573.65
719.85171	2534.05
723.77365	2530.45
727.69284	2559.75
731.60928	2565.55
735.52295	2531.35
739.43388	2489.75
743.34206	2465.85
747.24749	2474.15
751.15017	2502.85
755.05012	2537.45
758.94733	2573.85
762.8418	2577.65
766.73354	2551.55
770.62254	2517.35
774.50882	2479.95
778.39237	2434.75
782.27321	2403.15
786.15132	2381.35
790.02671	2347.75
793.89938	2356.35
797.76935	2361.75
801.6366	2361.45
805.50115	2370.65
809.36299	2362.85
813.22213	2344.35
817.07857	2329.75
820.93231	2324.85
824.78336	2325.25
828.63172	2325.65
832.47738	2328.75
836.32036	2329.65
840.16066	2324.45
843.99827	2340.45
847.8332	2338.55
851.66546	2341.35
855.49504	2369.95
859.32195	2382.15
863.1462	2411.65
866.96777	2450.15
870.78668	2462.65
874.60293	2472.35
878.41652	2475.15
882.22745	2483.65
886.03573	2468.95
889.84136	2463.55
893.64433	2462.85
897.44466	2472.95
901.24235	2483.75
905.0374	2489.35
908.8298	2509.65
912.61957	2515.55
916.40671	2525.55
920.19121	2546.45
923.97308	2578.55
927.75233	2585.45
931.52895	2589.35
935.30295	2585.35
939.07433	2568.95
942.84309	2526.15
946.60924	2485.85
950.37278	2463.75
954.13371	2429.15
957.89203	2430.25
961.64774	2427.35
965.40086	2426.05
969.15137	2415.85
972.89929	2392.05
976.64461	2372.95
980.38733	2355.85
984.12747	2346.85
987.86502	2335.45
991.59999	2333.85
995.33237	2331.95
999.06217	2329.85
1002.78939	2337.55
1006.51404	2320.65
1010.23611	2338.55
1013.95561	2350.45
1017.67255	2352.15
1021.38692	2370.95
1025.09872	2363.65
1028.80796	2369.55
1032.51465	2375.65
1036.21877	2426.55
1039.92035	2454.95
1043.61937	2492.95
1047.31584	2548.75
1051.00976	2549.85
1054.70114	2574.25
1058.38998	2558.55
1062.07627	2521.45
1065.76003	2470.75
1069.44126	2422.75
1073.11995	2395.85
1076.79611	2366.25
1080.46974	2352.15
1084.14085	2334.05
1087.80943	2338.05
1091.47549	2332.55
1095.13903	2326.95
1098.80005	2322.95
1102.45857	2323.85
1106.11456	2318.95
1109.76805	2325.95
1113.41903	2321.75
1117.06751	2333.65
1120.71348	2351.35
1124.35696	2374.85
1127.99793	2380.65
1131.63641	2383.85
1135.2724	2394.05
1138.90589	2392.95
1142.5369	2403.65
1146.16542	2391.35
1149.79145	2391.85
1153.415	2377.85
1157.03607	2386.15
1160.65467	2374.15
1164.27079	2393.75
1167.88443	2403.75
1171.49561	2411.25
1175.10432	2423.05
1178.71056	2451.25
1182.31434	2456.95
1185.91565	2472.65
1189.51451	2465.15
1193.11091	2452.15
1196.70485	2436.35
1200.29634	2426.15
1203.88538	2419.05
1207.47197	2396.35
1211.05612	2391.45
1214.63782	2398.95
1218.21708	2381.15
1221.79391	2410.75
1225.36829	2414.95
1228.94024	2434.05
1232.50976	2449.55
1236.07685	2475.15
1239.6415	2504.35
1243.20374	2534.75
1246.76355	2558.55
1250.32093	2577.35
1253.8759	2598.65
1257.42845	2607.25
1260.97859	2607.85
1264.52631	2599.15
1268.07163	2577.35
1271.61453	2578.85
1275.15503	2554.35
1278.69312	2569.65
1282.22882	2569.45
1285.76211	2566.75
1289.29301	2577.45
1292.82151	2581.75
1296.34761	2596.55
1299.87133	2594.45
1303.39266	2617.15
1306.9116	2631.75
1310.42815	2655.65
1313.94233	2664.35
1317.45412	2656.55
1320.96354	2645.15
1324.47058	2633.25
1327.97525	2616.65
1331.47754	2633.75
1334.97747	2650.35
1338.47502	2659.85
1341.97022	2694.65
1345.46305	2731.45
1348.95352	2782.05
1352.44163	2842.85
1355.92738	2894.45
1359.41078	2935.05
1362.89183	2982.95
1366.37053	2967.25
1369.84688	2922.35
1373.32088	2837.15
1376.79254	2773.95
1380.26186	2725.05
1383.72883	2677.85
1387.19347	2637.95
1390.65578	2604.95
1394.11575	2575.85
1397.57339	2570.45
1401.0287	2581.75
1404.48168	2594.35
1407.93234	2645.55
1411.38068	2702.35
1414.82669	2751.25
1418.27039	2785.65
1421.71177	2812.15
1425.15083	2779.35
1428.58758	2724.25
1432.02203	2673.05
1435.45416	2630.25
1438.88399	2587.55
1442.31151	2569.85
1445.73673	2569.35
1449.15965	2567.25
1452.58027	2575.05
1455.9986	2573.75
1459.41463	2587.95
1462.82837	2583.65
1466.23982	2587.85
1469.64898	2575.45
1473.05586	2561.35
1476.46045	2524.95
1479.86276	2490.95
1483.26279	2453.65
1486.66054	2429.95
1490.05602	2436.55
1493.44922	2422.75
1496.84016	2421.55
1500.22882	2426.25
1503.61521	2467.45
1506.99934	2491.65
1510.38121	2514.15
1513.76081	2526.55
1517.13816	2507.25
1520.51324	2494.45
1523.88607	2454.25
1527.25665	2449.35
1530.62498	2455.35
1533.99105	2450.65
1537.35488	2462.65
1540.71647	2469.15
1544.07581	2455.55
1547.4329	2485.75
1550.78776	2492.45
1554.14038	2500.05
1557.49077	2498.65
1560.83892	2506.85
1564.18484	2511.85
1567.52853	2516.75
1570.86999	2516.85
1574.20922	2530.25
1577.54624	2508.95
1580.88103	2507.85
1584.2136	2497.95
1587.54395	2486.35
1590.87208	2494.55
1594.19801	2489.35
1597.52172	2513.55
1600.84321	2512.95
1604.16251	2504.05
1607.47959	2482.35
1610.79447	2472.25
1614.10715	2448.25
1617.41763	2410.15
1620.7259	2403.35
1624.03199	2406.85
1627.33587	2380.25
1630.63757	2378.75
1633.93707	2383.25
1637.23439	2388.55
1640.52951	2396.55
1643.82246	2433.25
1647.11321	2453.15
1650.40179	2467.35
1653.68819	2475.95
1656.97241	2463.45
1660.25446	2449.15
1663.53433	2458.55
1666.81203	2481.95
1670.08756	2548.05
1673.36092	2514.95
1676.63211	2523.25
1679.90115	2516.35
1683.16801	2540.05
1686.43272	2515.25
1689.69527	2506.15
1692.95567	2495.45
1696.2139	2495.75
1699.46999	2475.35
1702.72392	2454.25
1705.97571	2441.55
1709.22535	2400.95
1712.47284	2410.55
1715.71819	2397.75
1718.96139	2393.55
1722.20246	2383.65
1725.44139	2410.65
1728.67818	2423.35
1731.91284	2443.05
1735.14537	2477.05
1738.37576	2512.85
1741.60403	2567.75
1744.83017	2639.25
1748.05418	2751.35
1751.27607	2912.35
1754.49584	3049.65
1757.71349	3151.65
1760.92903	3170.05
1764.14244	3113.05
1767.35375	3029.35
1770.56294	2910.95
1773.77002	2815.75
1776.97499	2756.55
1780.17785	2717.25
1783.37861	2673.75
1786.57727	2649.95
1789.77382	2617.75
1792.96828	2565.25
1796.16064	2513.65
1799.3509	2504.25
1802.53907	2449.35
1805.72514	2419.15
1808.90913	2379.55
1812.09102	2348.65
1815.27083	2311.35
1818.44856	2281.05
1821.6242	2243.65
1824.79776	2219.45
1827.96924	2183.35
1831.13864	2153.45
1834.30597	2128.55
1837.47122	2107.75
1840.6344	2084.65
1843.7955	2063.35
1846.95454	2048.15
1850.11151	2029.25
1853.26642	2022.35
1856.41926	2013.65
1859.57004	2008.55
1862.71876	1991.75
1865.86542	1998.15
1869.01003	1996.95
1872.15258	1999.65
1875.29308	1997.55
1878.43152	2007.65
1881.56792	1993.05
1884.70227	2003.15
1887.83457	2021.45
1890.96482	2011.45
1894.09304	2013.65
1897.21921	2012.85
1900.34335	2029.75
1903.46544	2028.85
1906.58551	2037.45
1909.70353	2041.65
1912.81953	2051.85
1915.93349	2063.55
1919.04543	2062.05
1922.15534	2078.55
1925.26322	2090.15
1928.36908	2076.25
1931.47292	2091.65
1934.57473	2096.55
1937.67453	2104.55
1940.77232	2091.85
1943.86808	2098.95
1946.96184	2089.35
1950.05358	2083.45
1953.14331	2070.05
1956.23103	2065.85
1959.31675	2055.35
1962.40046	2054.25
1965.48217	2029.25
1968.56188	2018.65
1971.63959	2018.15
1974.7153	1990.95
1977.78901	1978.35
1980.86073	1965.45
1983.93046	1956.65
1986.99819	1934.45
1990.06394	1924.45
1993.1277	1906.35
1996.18947	1908.55
1999.24925	1893.85
2002.30706	1893.25
2005.36288	1864.55
2008.41672	1854.25
2011.46859	1850.55
2014.51848	1854.75
2017.56639	1839.05
2020.61233	1827.75
2023.6563	1829.55
2026.6983	1810.15
2029.73833	1812.65
2032.7764	1808.05
2035.8125	1800.85
2038.84664	1780.85
2041.87881	1786.85
2044.90903	1789.65
2047.93729	1777.95
2050.96359	1785.45
2053.98794	1772.05
2057.01034	1786.85
2060.03078	1781.25
2063.04927	1788.95
2066.06582	1791.85
2069.08042	1779.75
2072.09307	1781.75
2075.10378	1789.15
2078.11255	1805.45
2081.11938	1805.85
2084.12426	1814.55
2087.12722	1809.95
2090.12824	1818.65
2093.12732	1829.55
2096.12447	1832.85
2099.11969	1848.85
2102.11299	1841.95
2105.10435	1848.65
2108.09379	1855.35
2111.08131	1860.85
2114.0669	1863.65
2117.05057	1848.65
2120.03233	1857.85
2123.01216	1852.35
2125.99008	1848.85
2128.96609	1843.65
2131.94018	1843.75
2134.91236	1844.05
2137.88263	1839.65
2140.851	1831.65
2143.81746	1824.65
2146.78201	1817.25
2149.74466	1809.35
2152.7054	1805.75
2155.66425	1793.45
2158.6212	1796.65
2161.57625	1792.75
2164.52941	1791.65
2167.48067	1780.95
2170.43004	1774.75
2173.37752	1766.75
2176.32311	1766.35
2179.26681	1756.15
2182.20863	1760.45
2185.14856	1770.95
2188.08661	1775.75
2191.02278	1757.55
2193.95707	1762.25
2196.88948	1757.15
2199.82001	1759.15
2202.74867	1754.15
2205.67545	1746.95
2208.60037	1741.15
2211.52341	1744.45
2214.44458	1747.35
2217.36388	1749.25
2220.28132	1739.65
2223.1969	1728.55
2226.11061	1722.15
2229.02246	1725.75
2231.93245	1722.75
2234.84058	1716.05
2237.74686	1711.35
2240.65128	1716.05
2243.55385	1707.95
2246.45456	1706.05
2249.35343	1705.55
2252.25044	1709.95
2255.14561	1697.95
2258.03893	1702.35
2260.93041	1698.75
2263.82004	1702.15
2266.70783	1687.95
2269.59378	1679.65
2272.4779	1679.65
2275.36017	1676.55
2278.24061	1658.35
2281.11922	1669.05
2283.996	1671.55
2286.87094	1668.35
2289.74405	1658.05
2292.61534	1652.85
2295.4848	1652.25
2298.35243	1658.35
2301.21824	1646.35
2304.08223	1653.45
2306.94439	1644.55
2309.80474	1648.25
2312.66327	1653.15
2315.51999	1644.95
2318.37489	1650.15
2321.22797	1633.15
2324.07925	1645.15
2326.92871	1635.15
2329.77637	1639.25
2332.62222	1635.25
2335.46626	1634.25
2338.3085	1625.55
2341.14893	1634.85
2343.98756	1632.05
2346.8244	1628.55
2349.65943	1619.55
2352.49267	1620.25
2355.32411	1616.25
2358.15376	1630.55
2360.98161	1616.95
2363.80768	1620.35
2366.63195	1619.45
2369.45444	1617.25
2372.27514	1621.75
2375.09405	1620.45
2377.91118	1608.95
2380.72652	1615.95
2383.54009	1609.65
2386.35187	1611.35
2389.16188	1600.45
2391.97011	1604.75
2394.77657	1591.55
2397.58125	1590.85
2400.38416	1598.65
2403.18529	1593.75
2405.98466	1579.35
2408.78226	1594.45
2411.57809	1590.95
2414.37216	1593.95
2417.16446	1587.05
2419.955	1585.95
2422.74378	1581.85
2425.5308	1575.75
2428.31606	1575.75
2431.09956	1575.35
2433.88131	1575.95
2436.6613	1578.75
2439.43954	1573.25
2442.21603	1564.15
2444.99077	1573.45
2447.76377	1562.65
2450.53501	1565.35
2453.30451	1552.35
2456.07226	1563.55
2458.83827	1559.95
2461.60254	1560.15
2464.36507	1550.75
2467.12586	1553.25
2469.88492	1553.15
2472.64224	1552.15
2475.39782	1550.35
2478.15167	1551.95
2480.90379	1541.45
2483.65417	1554.85
2486.40283	1557.15
2489.14976	1548.95
2491.89497	1547.65
2494.63845	1544.95
2497.3802	1546.95
2500.12024	1541.05
2502.85855	1542.75
2505.59514	1542.45
2508.33002	1538.05
2511.06318	1534.05
2513.79462	1529.95
2516.52435	1523.05
2519.25237	1529.85
2521.97867	1529.35
2524.70327	1524.85
2527.42616	1524.15
2530.14734	1528.15
2532.86681	1510.25
2535.58458	1514.75
2538.30065	1517.85
2541.01501	1516.25
2543.72768	1514.65
2546.43864	1520.15
2549.14791	1507.25
2551.85548	1507.15
2554.56136	1504.65
2557.26554	1498.95
2559.96803	1501.45
2562.66883	1499.05
2565.36794	1496.65
2568.06536	1495.75
2570.7611	1492.85
2573.45514	1484.75
2576.14751	1487.05
2578.83819	1479.65
2581.52719	1480.05
2584.21451	1482.65
2586.90015	1485.65
2589.58411	1479.35
2592.2664	1478.45
2594.94701	1478.45
2597.62594	1475.45
2600.30321	1470.05
2602.9788	1463.05
2605.65273	1462.15
2608.32498	1469.25
2610.99557	1466.35
2613.66449	1464.75
2616.33175	1459.45
2618.99734	1452.75
2621.66128	1453.65
2624.32355	1454.25
2626.98416	1446.55
2629.64311	1441.25
2632.30041	1456.75
2634.95605	1446.25
2637.61004	1458.15
2640.26238	1448.15
2642.91306	1451.15
2645.56209	1444.35
2648.20948	1444.25
2650.85521	1449.65
2653.4993	1446.45
2656.14175	1444.25
2658.78255	1440.95
2661.42171	1440.95
2664.05923	1439.85
2666.6951	1446.65
2669.32934	1446.85
2671.96194	1449.85
2674.59291	1443.95
2677.22224	1452.55
2679.84993	1442.95
2682.476	1449.05
2685.10043	1460.45
2687.72324	1450.65
2690.34441	1434.65
2692.96396	1453.65
2695.58188	1446.95
2698.19818	1451.75
2700.81285	1460.95
2703.4259	1447.55
2706.03733	1449.25
2708.64714	1452.65
2711.25533	1451.45
2713.86191	1441.45
2716.46687	1460.85
2719.07021	1450.35
2721.67194	1460.85
2724.27206	1461.95
2726.87057	1460.25
2729.46747	1451.45
2732.06276	1449.65
2734.65644	1459.15
2737.24852	1449.05
2739.83899	1453.95
2742.42786	1451.55
2745.01513	1445.45
2747.60079	1443.05
2750.18486	1447.15
2752.76733	1439.95
2755.3482	1447.45
2757.92747	1441.65
2760.50515	1443.05
2763.08123	1442.65
2765.65573	1439.45
2768.22863	1430.05
2770.79994	1435.95
2773.36967	1440.65
2775.9378	1427.75
2778.50435	1427.65
2781.06932	1432.45
2783.6327	1434.15
2786.1945	1437.35
2788.75471	1442.85
2791.31335	1436.65
2793.87041	1445.25
2796.42589	1435.95
2798.97979	1439.65
2801.53212	1433.55
2804.08288	1434.75
2806.63206	1431.55
2809.17967	1443.75
2811.72571	1436.85
2814.27018	1448.45
2816.81308	1433.75
2819.35442	1454.85
2821.89419	1442.15
2824.43239	1440.95
2826.96904	1433.85
2829.50412	1447.65
2832.03763	1443.25
2834.56959	1433.45
2837.1	1443.35
2839.62884	1448.75
2842.15613	1443.45
2844.68186	1449.95
2847.20604	1454.85
2849.72867	1460.55
2852.24974	1459.05
2854.76927	1457.25
2857.28724	1444.25
2859.80367	1453.05
2862.31855	1450.65
2864.83189	1444.65
2867.34368	1460.65
2869.85393	1464.35
2872.36264	1466.55
2874.8698	1466.75
2877.37543	1477.15
2879.87952	1477.75
2882.38207	1497.35
2884.88308	1502.85
2887.38256	1518.55
2889.88051	1520.55
2892.37692	1543.15
2894.8718	1543.65
2897.36515	1559.25
2899.85698	1575.45
2902.34727	1585.55
2904.83604	1598.25
2907.32328	1609.75
2909.809	1629.25
2912.29319	1636.55
2914.77587	1650.15
2917.25702	1672.45
2919.73665	1675.75
2922.21476	1686.65
2924.69136	1713.85
2927.16644	1718.45
2929.64	1737.05
2932.11205	1739.35
2934.58258	1745.05
2937.05161	1750.15
2939.51912	1767.65
2941.98513	1795.85
2944.44962	1799.25
2946.91261	1811.45
2949.37409	1825.95
2951.83407	1828.55
2954.29254	1826.75
2956.74951	1818.35
2959.20498	1800.15
2961.65895	1780.25
2964.11142	1755.35
2966.56239	1726.95
2969.01186	1703.65
2971.45984	1666.35
2973.90632	1653.05
2976.35131	1636.85
2978.7948	1612.15
2981.23681	1616.65
2983.67732	1610.95
2986.11635	1586.45
2988.55388	1591.85
2990.98993	1587.45
2993.4245	1573.75
2995.85758	1570.65
2998.28917	1583.45
3000.71928	1585.05
3003.14791	1573.55
3005.57506	1583.45
3008.00073	1574.85
3010.42493	1582.05
3012.84764	1585.95
3015.26888	1579.75
3017.68865	1571.65
3020.10694	1577.35
3022.52376	1565.25
3024.9391	1555.45
3027.35298	1556.95
3029.76539	1554.95
3032.17632	1553.65
3034.5858	1545.25
3036.9938	1536.05
3039.40034	1534.95
3041.80542	1528.65
3044.20903	1530.65
3046.61118	1524.05
3049.01187	1526.55
3051.4111	1518.65
3053.80888	1512.35
3056.20519	1519.05
3058.60005	1518.25
3060.99345	1512.85
3063.3854	1507.75
3065.7759	1509.95
3068.16494	1516.85
3070.55254	1506.15
3072.93868	1509.45
3075.32338	1509.05
3077.70662	1517.05
3080.08842	1512.95
3082.46878	1524.75
3084.84769	1523.55
3087.22515	1534.95
3089.60118	1541.65
3091.97576	1546.75
3094.3489	1553.45
3096.72061	1556.25
3099.09087	1570.75
3101.4597	1585.05
3103.82709	1588.55
3106.19305	1595.35
3108.55757	1602.45
3110.92066	1602.25
3113.28232	1619.25
3115.64255	1619.35
3118.00134	1618.95
3120.35871	1643.65
3122.71466	1628.55
3125.06917	1640.85
3127.42226	1644.25
3129.77393	1654.65
3132.12417	1653.15
3134.47299	1665.55
3136.82039	1669.75
3139.16636	1687.65
3141.51092	1697.75
3143.85406	1706.55
3146.19579	1708.35
3148.53609	1724.55
3150.87499	1732.75
3153.21246	1752.95
3155.54853	1762.55
3157.88318	1768.45
3160.21642	1782.15
3162.54826	1793.85
3164.87868	1796.65
3167.2077	1818.15
3169.5353	1818.85
3171.86151	1835.85
3174.18631	1832.45
3176.5097	1846.35
3178.83169	1863.85
3181.15228	1862.35
3183.47147	1854.85
3185.78926	1880.55
3188.10565	1882.15
3190.42065	1884.45
3192.73424	1894.25
3195.04645	1901.35
3197.35725	1910.75
3199.66667	1916.65
3201.97469	1925.45
3204.28132	1919.35
3206.58656	1937.75
3208.8904	1954.55
3211.19287	1956.65
3213.49394	1968.15
3215.79363	1968.15
3218.09193	1959.55
3220.38884	1984.25
3222.68438	1993.65
3224.97853	1993.55
3227.2713	2000.25
3229.56269	2009.55
3231.8527	2010.25
3234.14133	2000.55
3236.42858	2003.55
3238.71446	2005.25
3240.99896	2000.65
3243.28209	2002.75
3245.56384	2004.85
3247.84423	1999.95
3250.12324	2006.85
3252.40088	2006.95
3254.67715	2018.15
3256.95205	1999.35
3259.22558	2018.65
3261.49775	2009.15
3263.76855	2009.75
3266.03799	2024.35
3268.30606	2022.25
3270.57277	2028.15
3272.83812	2025.65
3275.10211	2014.45
3277.36474	2008.15
3279.62601	2018.05
3281.88593	2011.75
3284.14448	2012.75
3286.40168	2010.05
3288.65753	2015.85
3290.91202	2017.35
3293.16516	2011.95
3295.41695	2008.45
3297.66738	2012.25
3299.91647	2000.05
3302.16421	1986.75
3304.4106	1979.75
3306.65564	1963.55
3308.89933	1948.95
3311.14169	1940.85
3313.38269	1926.65
3315.62236	1911.55
3317.86068	1903.75
3320.09766	1882.35
3322.3333	1868.15
3324.5676	1862.35
3326.80056	1846.75
3329.03219	1833.65
3331.26248	0.35
3333.49143	0.15
3335.71905	-0.25
