Data from AgNPs_UA_5uM_CRN_500uM_AS_RamanShift__7__13-05-43-826.txt Node

Date: Wed Aug 17 13:05:43 BST 2022
User: TCL
Spectrometer: QEP01345
Trigger mode: 4
Integration Time (sec): 7.000000E0
Scans to average: 10
Electric dark correction enabled: true
Nonlinearity correction enabled: false
Boxcar width: 0
XAxis mode: Raman Shifts
Number of Pixels in Spectrum: 1044
>>>>>Begin Spectral Data<<<<<
46.04893	0.8875
50.45542	0.0875
54.85868	0.3875
59.25871	-1.0125
63.6555	42.3875
68.04907	45.4875
72.43941	50.0875
76.82654	53.5875
81.21044	56.1875
85.59113	59.5875
89.96862	63.3875
94.34289	62.5875
98.71396	65.0875
103.08183	68.0875
107.4465	67.2875
111.80798	69.2875
116.16626	69.9875
120.52136	74.6875
124.87327	69.1875
129.222	71.6875
133.56755	72.2875
137.90993	72.3875
142.24913	73.7875
146.58517	73.1875
150.91804	73.4875
155.24774	81.3875
159.57429	91.4875
163.89768	101.3875
168.21792	116.7875
172.53501	146.4875
176.84895	187.0875
181.15975	244.4875
185.46741	327.2875
189.77193	449.3875
194.07331	612.2875
198.37157	807.0875
202.6667	1021.0875
206.9587	1248.9875
211.24758	1490.1875
215.53334	1732.9875
219.81599	1971.2875
224.09553	2197.5875
228.37195	2406.8875
232.64527	2614.9875
236.91549	2811.9875
241.18261	2977.4875
245.44663	3134.9875
249.70755	3261.6875
253.96539	3347.0875
258.22014	3367.5875
262.4718	3365.2875
266.72039	3302.2875
270.96589	3189.6875
275.20832	3052.4875
279.44768	2889.5875
283.68397	2710.8875
287.91719	2576.0875
292.14735	2429.4875
296.37445	2312.1875
300.59849	2193.0875
304.81948	2098.3875
309.03742	2029.2875
313.25231	1959.2875
317.46415	1907.5875
321.67296	1862.7875
325.87872	1822.4875
330.08145	1788.7875
334.28114	1786.8875
338.47781	1785.1875
342.67145	1814.4875
346.86207	1817.2875
351.04966	1830.7875
355.23424	1825.3875
359.4158	1803.0875
363.59435	1796.1875
367.76989	1781.3875
371.94243	1767.8875
376.11196	1758.5875
380.27849	1751.5875
384.44203	1748.3875
388.60257	1738.7875
392.76012	1752.3875
396.91468	1759.6875
401.06626	1773.5875
405.21485	1772.1875
409.36047	1783.0875
413.50311	1769.7875
417.64277	1781.9875
421.77947	1788.0875
425.9132	1796.3875
430.04396	1806.8875
434.17176	1820.1875
438.2966	1842.9875
442.41849	1867.3875
446.53742	1874.6875
450.6534	1890.5875
454.76644	1899.9875
458.87653	1926.9875
462.98368	1943.2875
467.08789	1940.1875
471.18916	1937.8875
475.2875	1931.1875
479.38291	1943.9875
483.4754	1944.5875
487.56496	1951.7875
491.6516	1945.1875
495.73531	1944.8875
499.81612	1961.8875
503.89401	1959.8875
507.96899	1967.4875
512.04106	1954.6875
516.11023	1941.0875
520.1765	1924.1875
524.23987	1909.4875
528.30034	1913.9875
532.35792	1899.1875
536.41261	1915.7875
540.46441	1907.2875
544.51333	1916.5875
548.55936	1922.1875
552.60252	1917.5875
556.64279	1924.3875
560.6802	1925.9875
564.71473	1956.6875
568.7464	1986.6875
572.7752	2026.3875
576.80114	2046.0875
580.82422	2039.4875
584.84444	2022.7875
588.86181	2012.7875
592.87633	2028.7875
596.888	2043.3875
600.89682	2075.6875
604.9028	2110.0875
608.90594	2153.1875
612.90624	2209.6875
616.90371	2193.5875
620.89834	2155.8875
624.89015	2126.5875
628.87913	2122.0875
632.86528	2116.3875
636.84862	2130.6875
640.82913	2159.0875
644.80683	2198.1875
648.78172	2240.6875
652.75379	2270.3875
656.72306	2262.7875
660.68952	2292.3875
664.65319	2337.0875
668.61405	2490.0875
672.57211	2776.6875
676.52738	3168.8875
680.47986	3540.2875
684.42955	3679.2875
688.37646	3512.1875
692.32058	3227.5875
696.26192	2952.3875
700.20048	2765.0875
704.13626	2657.5875
708.06928	2556.2875
711.99952	2458.3875
715.927	2389.5875
719.85171	2348.1875
723.77365	2358.1875
727.69284	2375.5875
731.60928	2384.6875
735.52295	2371.0875
739.43388	2326.6875
743.34206	2302.3875
747.24749	2301.6875
751.15017	2322.1875
755.05012	2367.8875
758.94733	2412.0875
762.8418	2414.8875
766.73354	2396.9875
770.62254	2338.6875
774.50882	2282.9875
778.39237	2236.8875
782.27321	2190.1875
786.15132	2177.4875
790.02671	2168.7875
793.89938	2158.7875
797.76935	2161.7875
801.6366	2171.5875
805.50115	2170.4875
809.36299	2162.5875
813.22213	2134.8875
817.07857	2126.2875
820.93231	2109.6875
824.78336	2115.3875
828.63172	2122.4875
832.47738	2117.8875
836.32036	2112.5875
840.16066	2123.5875
843.99827	2111.3875
847.8332	2126.0875
851.66546	2111.4875
855.49504	2128.5875
859.32195	2153.6875
863.1462	2156.1875
866.96777	2191.4875
870.78668	2212.8875
874.60293	2228.9875
878.41652	2248.6875
882.22745	2229.5875
886.03573	2227.7875
889.84136	2222.7875
893.64433	2221.9875
897.44466	2210.7875
901.24235	2232.6875
905.0374	2234.7875
908.8298	2233.2875
912.61957	2241.7875
916.40671	2246.5875
920.19121	2260.9875
923.97308	2272.2875
927.75233	2291.5875
931.52895	2304.4875
935.30295	2283.8875
939.07433	2274.6875
942.84309	2257.8875
946.60924	2229.4875
950.37278	2203.4875
954.13371	2180.9875
957.89203	2182.5875
961.64774	2182.0875
965.40086	2188.8875
969.15137	2177.3875
972.89929	2163.9875
976.64461	2140.9875
980.38733	2117.8875
984.12747	2118.1875
987.86502	2125.9875
991.59999	2094.4875
995.33237	2099.9875
999.06217	2104.6875
1002.78939	2106.4875
1006.51404	2111.5875
1010.23611	2114.9875
1013.95561	2127.4875
1017.67255	2119.9875
1021.38692	2131.4875
1025.09872	2141.4875
1028.80796	2147.1875
1032.51465	2158.6875
1036.21877	2180.7875
1039.92035	2209.9875
1043.61937	2263.6875
1047.31584	2287.8875
1051.00976	2319.8875
1054.70114	2325.1875
1058.38998	2308.3875
1062.07627	2266.3875
1065.76003	2230.8875
1069.44126	2191.6875
1073.11995	2156.7875
1076.79611	2133.4875
1080.46974	2118.0875
1084.14085	2106.7875
1087.80943	2104.4875
1091.47549	2103.0875
1095.13903	2109.3875
1098.80005	2088.1875
1102.45857	2087.6875
1106.11456	2082.6875
1109.76805	2093.8875
1113.41903	2101.5875
1117.06751	2097.6875
1120.71348	2108.0875
1124.35696	2116.4875
1127.99793	2143.2875
1131.63641	2146.3875
1135.2724	2149.9875
1138.90589	2133.8875
1142.5369	2143.0875
1146.16542	2149.5875
1149.79145	2154.5875
1153.415	2139.9875
1157.03607	2144.0875
1160.65467	2139.6875
1164.27079	2151.7875
1167.88443	2143.0875
1171.49561	2152.1875
1175.10432	2155.4875
1178.71056	2175.0875
1182.31434	2178.8875
1185.91565	2181.7875
1189.51451	2181.6875
1193.11091	2181.1875
1196.70485	2171.3875
1200.29634	2161.6875
1203.88538	2149.4875
1207.47197	2150.7875
1211.05612	2139.2875
1214.63782	2126.9875
1218.21708	2147.2875
1221.79391	2147.5875
1225.36829	2161.9875
1228.94024	2174.7875
1232.50976	2196.6875
1236.07685	2219.8875
1239.6415	2256.2875
1243.20374	2285.8875
1246.76355	2305.7875
1250.32093	2335.6875
1253.8759	2356.0875
1257.42845	2362.8875
1260.97859	2354.4875
1264.52631	2349.1875
1268.07163	2324.7875
1271.61453	2295.3875
1275.15503	2287.0875
1278.69312	2267.9875
1282.22882	2258.0875
1285.76211	2265.3875
1289.29301	2272.3875
1292.82151	2272.7875
1296.34761	2281.8875
1299.87133	2293.5875
1303.39266	2297.6875
1306.9116	2311.4875
1310.42815	2331.1875
1313.94233	2337.9875
1317.45412	2332.8875
1320.96354	2345.0875
1324.47058	2340.0875
1327.97525	2332.7875
1331.47754	2341.2875
1334.97747	2353.4875
1338.47502	2373.6875
1341.97022	2396.4875
1345.46305	2444.8875
1348.95352	2486.5875
1352.44163	2525.1875
1355.92738	2553.4875
1359.41078	2597.3875
1362.89183	2624.7875
1366.37053	2621.8875
1369.84688	2596.3875
1373.32088	2540.1875
1376.79254	2493.9875
1380.26186	2448.1875
1383.72883	2417.9875
1387.19347	2385.0875
1390.65578	2368.1875
1394.11575	2340.1875
1397.57339	2343.0875
1401.0287	2353.5875
1404.48168	2399.5875
1407.93234	2438.1875
1411.38068	2484.6875
1414.82669	2513.6875
1418.27039	2554.1875
1421.71177	2554.6875
1425.15083	2505.6875
1428.58758	2446.5875
1432.02203	2377.9875
1435.45416	2341.9875
1438.88399	2322.9875
1442.31151	2305.7875
1445.73673	2301.6875
1449.15965	2337.4875
1452.58027	2344.6875
1455.9986	2349.5875
1459.41463	2365.8875
1462.82837	2357.9875
1466.23982	2357.7875
1469.64898	2354.6875
1473.05586	2312.6875
1476.46045	2296.8875
1479.86276	2258.4875
1483.26279	2201.9875
1486.66054	2181.2875
1490.05602	2171.4875
1493.44922	2163.1875
1496.84016	2164.9875
1500.22882	2175.8875
1503.61521	2183.8875
1506.99934	2198.9875
1510.38121	2236.1875
1513.76081	2215.3875
1517.13816	2207.8875
1520.51324	2212.9875
1523.88607	2191.9875
1527.25665	2189.0875
1530.62498	2181.9875
1533.99105	2184.9875
1537.35488	2197.7875
1540.71647	2205.3875
1544.07581	2206.9875
1547.4329	2227.4875
1550.78776	2225.1875
1554.14038	2236.9875
1557.49077	2241.1875
1560.83892	2255.6875
1564.18484	2264.9875
1567.52853	2249.2875
1570.86999	2254.7875
1574.20922	2256.9875
1577.54624	2259.0875
1580.88103	2249.7875
1584.2136	2245.8875
1587.54395	2234.0875
1590.87208	2239.5875
1594.19801	2246.8875
1597.52172	2245.8875
1600.84321	2245.7875
1604.16251	2232.0875
1607.47959	2230.7875
1610.79447	2212.1875
1614.10715	2181.3875
1617.41763	2166.3875
1620.7259	2145.8875
1624.03199	2127.9875
1627.33587	2112.3875
1630.63757	2106.2875
1633.93707	2115.4875
1637.23439	2113.2875
1640.52951	2113.7875
1643.82246	2132.6875
1647.11321	2151.4875
1650.40179	2174.5875
1653.68819	2163.7875
1656.97241	2170.9875
1660.25446	2163.9875
1663.53433	2173.3875
1666.81203	2181.1875
1670.08756	2195.0875
1673.36092	2212.0875
1676.63211	2214.3875
1679.90115	2227.1875
1683.16801	2230.3875
1686.43272	2230.1875
1689.69527	2219.3875
1692.95567	2217.6875
1696.2139	2212.1875
1699.46999	2209.7875
1702.72392	2193.3875
1705.97571	2174.5875
1709.22535	2150.6875
1712.47284	2138.1875
1715.71819	2139.0875
1718.96139	2125.4875
1722.20246	2115.5875
1725.44139	2118.8875
1728.67818	2143.1875
1731.91284	2158.4875
1735.14537	2183.9875
1738.37576	2202.4875
1741.60403	2258.4875
1744.83017	2324.0875
1748.05418	2433.2875
1751.27607	2577.1875
1754.49584	2739.0875
1757.71349	2870.0875
1760.92903	2928.3875
1764.14244	2901.3875
1767.35375	2817.4875
1770.56294	2705.9875
1773.77002	2587.2875
1776.97499	2493.7875
1780.17785	2427.5875
1783.37861	2387.3875
1786.57727	2340.5875
1789.77382	2268.6875
1792.96828	2211.8875
1796.16064	2159.1875
1799.3509	2120.0875
1802.53907	2069.6875
1805.72514	2037.4875
1808.90913	2005.6875
1812.09102	1958.4875
1815.27083	1940.2875
1818.44856	1918.6875
1821.6242	1881.1875
1824.79776	1854.6875
1827.96924	1833.9875
1831.13864	1800.2875
1834.30597	1793.0875
1837.47122	1772.8875
1840.6344	1753.0875
1843.7955	1736.4875
1846.95454	1726.9875
1850.11151	1720.3875
1853.26642	1714.0875
1856.41926	1697.3875
1859.57004	1706.8875
1862.71876	1699.2875
1865.86542	1676.7875
1869.01003	1688.6875
1872.15258	1692.1875
1875.29308	1698.9875
1878.43152	1693.6875
1881.56792	1693.9875
1884.70227	1685.3875
1887.83457	1704.9875
1890.96482	1696.5875
1894.09304	1691.8875
1897.21921	1694.4875
1900.34335	1707.0875
1903.46544	1708.2875
1906.58551	1694.9875
1909.70353	1712.5875
1912.81953	1713.0875
1915.93349	1716.2875
1919.04543	1737.2875
1922.15534	1731.0875
1925.26322	1737.4875
1928.36908	1731.0875
1931.47292	1734.2875
1934.57473	1741.9875
1937.67453	1731.7875
1940.77232	1728.8875
1943.86808	1731.2875
1946.96184	1729.2875
1950.05358	1717.1875
1953.14331	1717.7875
1956.23103	1709.2875
1959.31675	1704.4875
1962.40046	1699.6875
1965.48217	1683.8875
1968.56188	1677.3875
1971.63959	1666.0875
1974.7153	1655.4875
1977.78901	1648.7875
1980.86073	1639.8875
1983.93046	1622.6875
1986.99819	1623.4875
1990.06394	1613.6875
1993.1277	1598.1875
1996.18947	1595.8875
1999.24925	1582.3875
2002.30706	1567.2875
2005.36288	1559.6875
2008.41672	1568.5875
2011.46859	1557.8875
2014.51848	1545.0875
2017.56639	1546.6875
2020.61233	1545.2875
2023.6563	1534.5875
2026.6983	1521.0875
2029.73833	1512.8875
2032.7764	1511.9875
2035.8125	1514.5875
2038.84664	1502.7875
2041.87881	1504.0875
2044.90903	1495.2875
2047.93729	1496.7875
2050.96359	1496.9875
2053.98794	1498.4875
2057.01034	1486.1875
2060.03078	1486.7875
2063.04927	1499.5875
2066.06582	1501.8875
2069.08042	1496.1875
2072.09307	1503.2875
2075.10378	1502.6875
2078.11255	1502.4875
2081.11938	1507.1875
2084.12426	1511.0875
2087.12722	1507.1875
2090.12824	1518.0875
2093.12732	1522.9875
2096.12447	1526.3875
2099.11969	1525.1875
2102.11299	1542.0875
2105.10435	1527.0875
2108.09379	1539.7875
2111.08131	1545.3875
2114.0669	1539.0875
2117.05057	1549.2875
2120.03233	1541.2875
2123.01216	1548.9875
2125.99008	1547.9875
2128.96609	1549.7875
2131.94018	1561.2875
2134.91236	1559.7875
2137.88263	1558.8875
2140.851	1556.7875
2143.81746	1552.1875
2146.78201	1544.5875
2149.74466	1541.5875
2152.7054	1531.5875
2155.66425	1529.3875
2158.6212	1532.2875
2161.57625	1513.3875
2164.52941	1515.9875
2167.48067	1508.8875
2170.43004	1493.8875
2173.37752	1495.3875
2176.32311	1496.5875
2179.26681	1500.2875
2182.20863	1491.5875
2185.14856	1494.4875
2188.08661	1477.1875
2191.02278	1479.7875
2193.95707	1477.9875
2196.88948	1479.9875
2199.82001	1475.0875
2202.74867	1474.7875
2205.67545	1477.5875
2208.60037	1465.4875
2211.52341	1470.6875
2214.44458	1455.1875
2217.36388	1455.8875
2220.28132	1460.7875
2223.1969	1441.5875
2226.11061	1437.9875
2229.02246	1441.8875
2231.93245	1444.1875
2234.84058	1433.3875
2237.74686	1431.3875
2240.65128	1431.4875
2243.55385	1433.0875
2246.45456	1430.8875
2249.35343	1436.3875
2252.25044	1424.7875
2255.14561	1416.2875
2258.03893	1416.0875
2260.93041	1418.4875
2263.82004	1417.7875
2266.70783	1411.3875
2269.59378	1409.2875
2272.4779	1404.0875
2275.36017	1400.7875
2278.24061	1391.6875
2281.11922	1402.1875
2283.996	1392.2875
2286.87094	1391.0875
2289.74405	1383.6875
2292.61534	1380.4875
2295.4848	1388.7875
2298.35243	1377.1875
2301.21824	1379.7875
2304.08223	1372.1875
2306.94439	1383.5875
2309.80474	1373.5875
2312.66327	1377.2875
2315.51999	1376.3875
2318.37489	1368.0875
2321.22797	1363.4875
2324.07925	1369.4875
2326.92871	1361.9875
2329.77637	1365.5875
2332.62222	1357.2875
2335.46626	1348.8875
2338.3085	1354.8875
2341.14893	1355.6875
2343.98756	1357.5875
2346.8244	1347.8875
2349.65943	1335.5875
2352.49267	1342.1875
2355.32411	1344.1875
2358.15376	1342.3875
2360.98161	1347.5875
2363.80768	1341.1875
2366.63195	1348.6875
2369.45444	1338.2875
2372.27514	1343.7875
2375.09405	1341.6875
2377.91118	1345.1875
2380.72652	1340.9875
2383.54009	1331.0875
2386.35187	1334.6875
2389.16188	1334.9875
2391.97011	1333.1875
2394.77657	1327.0875
2397.58125	1324.4875
2400.38416	1330.4875
2403.18529	1314.5875
2405.98466	1317.5875
2408.78226	1317.2875
2411.57809	1320.1875
2414.37216	1305.0875
2417.16446	1305.7875
2419.955	1310.8875
2422.74378	1312.9875
2425.5308	1305.5875
2428.31606	1305.6875
2431.09956	1304.5875
2433.88131	1301.6875
2436.6613	1308.1875
2439.43954	1299.1875
2442.21603	1297.8875
2444.99077	1292.0875
2447.76377	1306.2875
2450.53501	1296.9875
2453.30451	1283.6875
2456.07226	1294.6875
2458.83827	1293.5875
2461.60254	1293.2875
2464.36507	1280.5875
2467.12586	1287.5875
2469.88492	1284.4875
2472.64224	1284.4875
2475.39782	1286.6875
2478.15167	1280.4875
2480.90379	1279.3875
2483.65417	1283.7875
2486.40283	1273.2875
2489.14976	1292.3875
2491.89497	1278.9875
2494.63845	1275.1875
2497.3802	1277.2875
2500.12024	1276.0875
2502.85855	1272.2875
2505.59514	1270.6875
2508.33002	1268.1875
2511.06318	1266.0875
2513.79462	1263.3875
2516.52435	1260.0875
2519.25237	1256.3875
2521.97867	1262.4875
2524.70327	1264.3875
2527.42616	1265.9875
2530.14734	1259.0875
2532.86681	1251.8875
2535.58458	1257.1875
2538.30065	1255.0875
2541.01501	1258.2875
2543.72768	1250.5875
2546.43864	1252.7875
2549.14791	1238.5875
2551.85548	1246.4875
2554.56136	1231.7875
2557.26554	1242.4875
2559.96803	1234.7875
2562.66883	1230.9875
2565.36794	1230.6875
2568.06536	1226.2875
2570.7611	1228.6875
2573.45514	1218.3875
2576.14751	1224.8875
2578.83819	1225.3875
2581.52719	1219.9875
2584.21451	1216.2875
2586.90015	1216.1875
2589.58411	1209.2875
2592.2664	1211.5875
2594.94701	1209.2875
2597.62594	1204.4875
2600.30321	1207.1875
2602.9788	1203.6875
2605.65273	1200.8875
2608.32498	1200.1875
2610.99557	1202.5875
2613.66449	1203.4875
2616.33175	1196.3875
2618.99734	1194.6875
2621.66128	1200.1875
2624.32355	1189.2875
2626.98416	1189.8875
2629.64311	1188.2875
2632.30041	1187.4875
2634.95605	1188.4875
2637.61004	1188.3875
2640.26238	1185.1875
2642.91306	1189.8875
2645.56209	1177.0875
2648.20948	1184.4875
2650.85521	1183.6875
2653.4993	1192.3875
2656.14175	1184.2875
2658.78255	1180.1875
2661.42171	1188.5875
2664.05923	1181.0875
2666.6951	1186.0875
2669.32934	1192.7875
2671.96194	1187.3875
2674.59291	1185.0875
2677.22224	1183.0875
2679.84993	1185.7875
2682.476	1191.0875
2685.10043	1186.4875
2687.72324	1183.5875
2690.34441	1181.5875
2692.96396	1186.9875
2695.58188	1187.1875
2698.19818	1197.2875
2700.81285	1195.3875
2703.4259	1185.3875
2706.03733	1185.1875
2708.64714	1191.8875
2711.25533	1191.4875
2713.86191	1193.6875
2716.46687	1197.5875
2719.07021	1199.5875
2721.67194	1199.8875
2724.27206	1200.7875
2726.87057	1193.4875
2729.46747	1195.1875
2732.06276	1193.4875
2734.65644	1194.5875
2737.24852	1187.9875
2739.83899	1196.1875
2742.42786	1195.6875
2745.01513	1197.0875
2747.60079	1185.9875
2750.18486	1183.8875
2752.76733	1186.0875
2755.3482	1179.9875
2757.92747	1178.7875
2760.50515	1185.0875
2763.08123	1178.8875
2765.65573	1181.7875
2768.22863	1175.1875
2770.79994	1180.7875
2773.36967	1179.1875
2775.9378	1177.2875
2778.50435	1174.6875
2781.06932	1177.3875
2783.6327	1174.2875
2786.1945	1176.6875
2788.75471	1179.8875
2791.31335	1183.2875
2793.87041	1185.4875
2796.42589	1178.8875
2798.97979	1190.2875
2801.53212	1184.7875
2804.08288	1187.9875
2806.63206	1188.7875
2809.17967	1182.5875
2811.72571	1188.2875
2814.27018	1190.6875
2816.81308	1191.2875
2819.35442	1184.4875
2821.89419	1189.0875
2824.43239	1187.0875
2826.96904	1183.9875
2829.50412	1194.1875
2832.03763	1186.3875
2834.56959	1189.5875
2837.1	1194.6875
2839.62884	1185.3875
2842.15613	1191.8875
2844.68186	1193.4875
2847.20604	1191.9875
2849.72867	1200.4875
2852.24974	1205.4875
2854.76927	1205.7875
2857.28724	1204.8875
2859.80367	1201.9875
2862.31855	1198.2875
2864.83189	1206.8875
2867.34368	1211.1875
2869.85393	1213.2875
2872.36264	1211.0875
2874.8698	1227.6875
2877.37543	1222.6875
2879.87952	1233.6875
2882.38207	1244.4875
2884.88308	1251.7875
2887.38256	1254.2875
2889.88051	1268.3875
2892.37692	1269.0875
2894.8718	1285.8875
2897.36515	1300.1875
2899.85698	1311.2875
2902.34727	1331.0875
2904.83604	1331.3875
2907.32328	1345.8875
2909.809	1351.9875
2912.29319	1369.3875
2914.77587	1383.6875
2917.25702	1401.4875
2919.73665	1406.3875
2922.21476	1422.0875
2924.69136	1436.8875
2927.16644	1458.1875
2929.64	1464.8875
2932.11205	1486.9875
2934.58258	1501.3875
2937.05161	1515.3875
2939.51912	1525.9875
2941.98513	1547.6875
2944.44962	1559.7875
2946.91261	1586.7875
2949.37409	1595.5875
2951.83407	1603.3875
2954.29254	1607.9875
2956.74951	1608.7875
2959.20498	1583.7875
2961.65895	1551.2875
2964.11142	1530.9875
2966.56239	1498.0875
2969.01186	1468.6875
2971.45984	1443.7875
2973.90632	1414.5875
2976.35131	1399.2875
2978.7948	1377.6875
2981.23681	1368.7875
2983.67732	1361.0875
2986.11635	1355.1875
2988.55388	1340.5875
2990.98993	1342.7875
2993.4245	1326.7875
2995.85758	1330.2875
2998.28917	1315.6875
3000.71928	1330.0875
3003.14791	1330.7875
3005.57506	1323.3875
3008.00073	1334.2875
3010.42493	1340.3875
3012.84764	1343.9875
3015.26888	1341.0875
3017.68865	1332.9875
3020.10694	1335.5875
3022.52376	1332.4875
3024.9391	1324.6875
3027.35298	1335.6875
3029.76539	1314.6875
3032.17632	1305.8875
3034.5858	1299.2875
3036.9938	1293.7875
3039.40034	1288.6875
3041.80542	1297.9875
3044.20903	1284.8875
3046.61118	1296.5875
3049.01187	1281.7875
3051.4111	1274.8875
3053.80888	1274.8875
3056.20519	1263.9875
3058.60005	1276.0875
3060.99345	1269.4875
3063.3854	1271.0875
3065.7759	1274.0875
3068.16494	1267.6875
3070.55254	1259.7875
3072.93868	1263.3875
3075.32338	1272.1875
3077.70662	1283.9875
3080.08842	1280.0875
3082.46878	1288.9875
3084.84769	1273.5875
3087.22515	1304.2875
3089.60118	1300.2875
3091.97576	1305.3875
3094.3489	1314.1875
3096.72061	1322.2875
3099.09087	1322.8875
3101.4597	1340.5875
3103.82709	1351.4875
3106.19305	1349.0875
3108.55757	1366.4875
3110.92066	1371.0875
3113.28232	1383.8875
3115.64255	1374.4875
3118.00134	1383.3875
3120.35871	1397.6875
3122.71466	1397.2875
3125.06917	1416.8875
3127.42226	1410.9875
3129.77393	1417.8875
