Data from AgNPs_UA_5uM_CRN_500uM_AS_RamanShift__23__13-24-23-846.txt Node

Date: Wed Aug 17 13:24:23 BST 2022
User: TCL
Spectrometer: QEP01345
Trigger mode: 4
Integration Time (sec): 7.000000E0
Scans to average: 10
Electric dark correction enabled: true
Nonlinearity correction enabled: false
Boxcar width: 0
XAxis mode: Raman Shifts
Number of Pixels in Spectrum: 1044
>>>>>Begin Spectral Data<<<<<
46.04893	0.3125
50.45542	0.7125
54.85868	-0.9875
59.25871	0.3125
63.6555	45.8125
68.04907	49.6125
72.43941	55.3125
76.82654	58.9125
81.21044	61.9125
85.59113	61.6125
89.96862	67.1125
94.34289	69.4125
98.71396	72.6125
103.08183	76.2125
107.4465	79.3125
111.80798	76.7125
116.16626	76.2125
120.52136	80.1125
124.87327	81.7125
129.222	85.0125
133.56755	86.9125
137.90993	89.5125
142.24913	94.5125
146.58517	96.2125
150.91804	103.6125
155.24774	118.3125
159.57429	143.9125
163.89768	178.1125
168.21792	216.9125
172.53501	282.0125
176.84895	372.4125
181.15975	503.3125
185.46741	693.7125
189.77193	968.2125
194.07331	1313.4125
198.37157	1731.8125
202.6667	2189.2125
206.9587	2686.7125
211.24758	3218.7125
215.53334	3829.0125
219.81599	4490.5125
224.09553	5262.5125
228.37195	6049.5125
232.64527	6785.6125
236.91549	7424.7125
241.18261	7862.3125
245.44663	7999.1125
249.70755	7989.8125
253.96539	7971.5125
258.22014	7885.0125
262.4718	7765.4125
266.72039	7562.6125
270.96589	7219.2125
275.20832	6818.3125
279.44768	6380.2125
283.68397	6031.4125
287.91719	5836.8125
292.14735	5878.6125
296.37445	6160.2125
300.59849	6734.8125
304.81948	7493.3125
309.03742	8139.2125
313.25231	8367.8125
317.46415	7855.8125
321.67296	6866.7125
325.87872	5992.6125
330.08145	5578.4125
334.28114	5574.4125
338.47781	5744.0125
342.67145	5992.6125
346.86207	6446.9125
351.04966	7166.2125
355.23424	8029.4125
359.4158	8609.7125
363.59435	8767.1125
367.76989	8589.9125
371.94243	8188.2125
376.11196	7850.2125
380.27849	7558.0125
384.44203	7278.9125
388.60257	7005.5125
392.76012	6817.3125
396.91468	6847.7125
401.06626	7015.8125
405.21485	7090.6125
409.36047	6715.7125
413.50311	6025.8125
417.64277	5364.9125
421.77947	4970.5125
425.9132	4804.9125
430.04396	4726.7125
434.17176	4745.8125
438.2966	4867.6125
442.41849	5054.8125
446.53742	5243.2125
450.6534	5386.5125
454.76644	5404.2125
458.87653	5341.6125
462.98368	5223.1125
467.08789	5122.4125
471.18916	4919.5125
475.2875	4717.7125
479.38291	4535.7125
483.4754	4408.4125
487.56496	4340.9125
491.6516	4301.3125
495.73531	4302.2125
499.81612	4354.7125
503.89401	4465.7125
507.96899	4603.1125
512.04106	4776.4125
516.11023	4957.9125
520.1765	5093.0125
524.23987	5084.0125
528.30034	4982.8125
532.35792	4876.9125
536.41261	4731.5125
540.46441	4558.4125
544.51333	4433.0125
548.55936	4473.6125
552.60252	4619.1125
556.64279	4844.1125
560.6802	5079.3125
564.71473	5598.3125
568.7464	6294.1125
572.7752	6332.4125
576.80114	5517.2125
580.82422	4758.9125
584.84444	4427.8125
588.86181	4306.3125
592.87633	4343.7125
596.888	4553.8125
600.89682	5173.6125
604.9028	6986.1125
608.90594	11311.9125
612.90624	16456.4125
616.90371	14801.9125
620.89834	8437.4125
624.89015	5612.1125
628.87913	5145.3125
632.86528	5415.1125
636.84862	5771.5125
640.82913	5587.8125
644.80683	5054.1125
648.78172	4704.9125
652.75379	4784.5125
656.72306	5248.4125
660.68952	5728.1125
664.65319	5424.3125
668.61405	4874.2125
672.57211	4855.7125
676.52738	5148.9125
680.47986	5376.3125
684.42955	5340.7125
688.37646	5147.1125
692.32058	4964.3125
696.26192	4919.4125
700.20048	4969.4125
704.13626	4966.1125
708.06928	4786.9125
711.99952	4541.9125
715.927	4411.7125
719.85171	4415.9125
723.77365	4473.2125
727.69284	4446.2125
731.60928	4394.8125
735.52295	4361.6125
739.43388	4338.3125
743.34206	4373.6125
747.24749	4378.1125
751.15017	4414.5125
755.05012	4638.0125
758.94733	5318.8125
762.8418	6911.1125
766.73354	9222.1125
770.62254	10946.9125
774.50882	11465.9125
778.39237	10803.8125
782.27321	8700.5125
786.15132	6390.6125
790.02671	5035.7125
793.89938	4445.1125
797.76935	4242.8125
801.6366	4157.9125
805.50115	4113.5125
809.36299	4083.8125
813.22213	4030.6125
817.07857	3998.4125
820.93231	3993.1125
824.78336	4030.5125
828.63172	4080.8125
832.47738	4109.5125
836.32036	4040.5125
840.16066	3947.2125
843.99827	3901.7125
847.8332	3919.3125
851.66546	3975.8125
855.49504	4107.8125
859.32195	4286.1125
863.1462	4422.4125
866.96777	4439.8125
870.78668	4281.3125
874.60293	4141.4125
878.41652	4079.1125
882.22745	4101.9125
886.03573	4123.7125
889.84136	4074.9125
893.64433	4024.4125
897.44466	4009.7125
901.24235	4013.2125
905.0374	3955.1125
908.8298	3873.6125
912.61957	3824.8125
916.40671	3858.4125
920.19121	4003.0125
923.97308	4251.5125
927.75233	4634.1125
931.52895	4961.1125
935.30295	4867.7125
939.07433	4483.3125
942.84309	4088.5125
946.60924	3772.7125
950.37278	3619.0125
954.13371	3529.6125
957.89203	3511.5125
961.64774	3492.8125
965.40086	3466.4125
969.15137	3437.7125
972.89929	3423.2125
976.64461	3424.0125
980.38733	3414.9125
984.12747	3416.4125
987.86502	3428.0125
991.59999	3440.7125
995.33237	3475.7125
999.06217	3537.3125
1002.78939	3675.1125
1006.51404	3825.1125
1010.23611	3903.0125
1013.95561	3885.1125
1017.67255	3811.4125
1021.38692	3735.0125
1025.09872	3652.4125
1028.80796	3622.7125
1032.51465	3662.4125
1036.21877	3716.5125
1039.92035	3807.5125
1043.61937	3893.4125
1047.31584	3961.4125
1051.00976	3953.0125
1054.70114	3893.8125
1058.38998	3832.6125
1062.07627	3795.0125
1065.76003	3748.8125
1069.44126	3730.3125
1073.11995	3783.1125
1076.79611	3936.3125
1080.46974	4240.4125
1084.14085	4617.1125
1087.80943	4915.1125
1091.47549	4941.6125
1095.13903	4698.6125
1098.80005	4356.6125
1102.45857	4151.2125
1106.11456	4162.7125
1109.76805	4353.4125
1113.41903	4707.5125
1117.06751	5289.8125
1120.71348	6106.0125
1124.35696	7076.2125
1127.99793	7551.5125
1131.63641	6964.5125
1135.2724	5971.6125
1138.90589	5249.7125
1142.5369	4819.9125
1146.16542	4519.6125
1149.79145	4358.6125
1153.415	4260.8125
1157.03607	4279.7125
1160.65467	4417.1125
1164.27079	4674.4125
1167.88443	5109.8125
1171.49561	5830.2125
1175.10432	7118.8125
1178.71056	8846.0125
1182.31434	10122.5125
1185.91565	10154.6125
1189.51451	9261.3125
1193.11091	8064.9125
1196.70485	7132.2125
1200.29634	6635.7125
1203.88538	6153.8125
1207.47197	5488.5125
1211.05612	4857.5125
1214.63782	4473.7125
1218.21708	4281.6125
1221.79391	4210.8125
1225.36829	4183.3125
1228.94024	4135.2125
1232.50976	4100.4125
1236.07685	4094.8125
1239.6415	4159.7125
1243.20374	4245.6125
1246.76355	4324.1125
1250.32093	4413.0125
1253.8759	4577.7125
1257.42845	4799.5125
1260.97859	5119.5125
1264.52631	5466.1125
1268.07163	5798.0125
1271.61453	6029.9125
1275.15503	6085.0125
1278.69312	6074.8125
1282.22882	6221.5125
1285.76211	6596.8125
1289.29301	7090.6125
1292.82151	7489.7125
1296.34761	7956.2125
1299.87133	8915.3125
1303.39266	10741.7125
1306.9116	13514.0125
1310.42815	16070.2125
1313.94233	16174.6125
1317.45412	13824.9125
1320.96354	11015.4125
1324.47058	8714.8125
1327.97525	7242.2125
1331.47754	6466.3125
1334.97747	6312.6125
1338.47502	6591.3125
1341.97022	7419.1125
1345.46305	8860.9125
1348.95352	10677.1125
1352.44163	12795.5125
1355.92738	15850.8125
1359.41078	20487.8125
1362.89183	23872.9125
1366.37053	21242.1125
1369.84688	15220.7125
1373.32088	10978.1125
1376.79254	8932.0125
1380.26186	7730.9125
1383.72883	6740.2125
1387.19347	5920.7125
1390.65578	5314.5125
1394.11575	5001.5125
1397.57339	4841.4125
1401.0287	4804.7125
1404.48168	4828.4125
1407.93234	4936.6125
1411.38068	5169.5125
1414.82669	5528.9125
1418.27039	5885.9125
1421.71177	6115.5125
1425.15083	6174.5125
1428.58758	6284.9125
1432.02203	6467.8125
1435.45416	6372.9125
1438.88399	5999.2125
1442.31151	5580.3125
1445.73673	5395.3125
1449.15965	5290.7125
1452.58027	5207.9125
1455.9986	5038.1125
1459.41463	5000.3125
1462.82837	5100.7125
1466.23982	5285.2125
1469.64898	5390.0125
1473.05586	5402.8125
1476.46045	5361.4125
1479.86276	5415.5125
1483.26279	5614.5125
1486.66054	6031.8125
1490.05602	6708.6125
1493.44922	7772.2125
1496.84016	9572.0125
1500.22882	12418.1125
1503.61521	16432.3125
1506.99934	20701.2125
1510.38121	23413.4125
1513.76081	23056.5125
1517.13816	19411.3125
1520.51324	14738.6125
1523.88607	10947.6125
1527.25665	8618.1125
1530.62498	7349.6125
1533.99105	6592.1125
1537.35488	6110.4125
1540.71647	5888.8125
1544.07581	5845.6125
1547.4329	5953.9125
1550.78776	6150.8125
1554.14038	6323.4125
1557.49077	6528.4125
1560.83892	6910.9125
1564.18484	7587.8125
1567.52853	8454.0125
1570.86999	9071.9125
1574.20922	9315.2125
1577.54624	8840.9125
1580.88103	7599.0125
1584.2136	6267.0125
1587.54395	5504.4125
1590.87208	5345.6125
1594.19801	5656.2125
1597.52172	6077.0125
1600.84321	6103.3125
1604.16251	5662.8125
1607.47959	5192.0125
1610.79447	4797.0125
1614.10715	4465.9125
1617.41763	4209.7125
1620.7259	4086.7125
1624.03199	4123.3125
1627.33587	4237.9125
1630.63757	4495.5125
1633.93707	4926.6125
1637.23439	5674.8125
1640.52951	7005.9125
1643.82246	9137.5125
1647.11321	11654.8125
1650.40179	13184.3125
1653.68819	12359.2125
1656.97241	9847.7125
1660.25446	7416.9125
1663.53433	5786.7125
1666.81203	4883.3125
1670.08756	4390.3125
1673.36092	4107.7125
1676.63211	3923.6125
1679.90115	3783.4125
1683.16801	3676.8125
1686.43272	3598.5125
1689.69527	3490.5125
1692.95567	3408.7125
1696.2139	3359.0125
1699.46999	3299.8125
1702.72392	3276.3125
1705.97571	3264.4125
1709.22535	3252.7125
1712.47284	3269.8125
1715.71819	3247.9125
1718.96139	3237.2125
1722.20246	3208.0125
1725.44139	3178.5125
1728.67818	3151.5125
1731.91284	3122.3125
1735.14537	3109.9125
1738.37576	3111.9125
1741.60403	3127.8125
1744.83017	3180.7125
1748.05418	3240.3125
1751.27607	3270.4125
1754.49584	3246.8125
1757.71349	3176.5125
1760.92903	3059.3125
1764.14244	2929.7125
1767.35375	2791.3125
1770.56294	2690.9125
1773.77002	2609.4125
1776.97499	2539.2125
1780.17785	2476.5125
1783.37861	2427.2125
1786.57727	2401.0125
1789.77382	2359.4125
1792.96828	2338.2125
1796.16064	2315.7125
1799.3509	2296.1125
1802.53907	2273.2125
1805.72514	2240.3125
1808.90913	2241.5125
1812.09102	2213.0125
1815.27083	2200.2125
1818.44856	2188.7125
1821.6242	2189.6125
1824.79776	2171.1125
1827.96924	2165.2125
1831.13864	2148.8125
1834.30597	2144.1125
1837.47122	2121.0125
1840.6344	2117.6125
1843.7955	2102.8125
1846.95454	2096.1125
1850.11151	2093.4125
1853.26642	2078.8125
1856.41926	2084.8125
1859.57004	2083.5125
1862.71876	2076.0125
1865.86542	2069.1125
1869.01003	2083.0125
1872.15258	2083.8125
1875.29308	2091.9125
1878.43152	2081.5125
1881.56792	2074.8125
1884.70227	2071.3125
1887.83457	2067.6125
1890.96482	2054.4125
1894.09304	2052.6125
1897.21921	2043.6125
1900.34335	2045.3125
1903.46544	2048.0125
1906.58551	2043.2125
1909.70353	2043.3125
1912.81953	2040.5125
1915.93349	2041.2125
1919.04543	2034.6125
1922.15534	2031.4125
1925.26322	2024.5125
1928.36908	1997.7125
1931.47292	1991.0125
1934.57473	1972.4125
1937.67453	1965.6125
1940.77232	1950.9125
1943.86808	1928.2125
1946.96184	1923.1125
1950.05358	1922.9125
1953.14331	1905.8125
1956.23103	1909.7125
1959.31675	1909.8125
1962.40046	1911.2125
1965.48217	1916.0125
1968.56188	1914.1125
1971.63959	1915.8125
1974.7153	1902.7125
1977.78901	1894.6125
1980.86073	1868.6125
1983.93046	1859.1125
1986.99819	1839.9125
1990.06394	1839.5125
1993.1277	1820.2125
1996.18947	1810.8125
1999.24925	1804.2125
2002.30706	1811.0125
2005.36288	1777.8125
2008.41672	1773.4125
2011.46859	1775.6125
2014.51848	1770.3125
2017.56639	1760.1125
2020.61233	1760.5125
2023.6563	1743.8125
2026.6983	1743.6125
2029.73833	1738.8125
2032.7764	1725.8125
2035.8125	1717.7125
2038.84664	1718.9125
2041.87881	1708.5125
2044.90903	1708.6125
2047.93729	1711.7125
2050.96359	1707.8125
2053.98794	1701.1125
2057.01034	1694.4125
2060.03078	1687.1125
2063.04927	1688.2125
2066.06582	1683.7125
2069.08042	1674.8125
2072.09307	1682.7125
2075.10378	1679.9125
2078.11255	1695.7125
2081.11938	1700.4125
2084.12426	1719.6125
2087.12722	1709.7125
2090.12824	1729.5125
2093.12732	1735.2125
2096.12447	1752.5125
2099.11969	1772.7125
2102.11299	1781.6125
2105.10435	1790.0125
2108.09379	1804.6125
2111.08131	1790.2125
2114.0669	1791.2125
2117.05057	1763.3125
2120.03233	1755.7125
2123.01216	1736.9125
2125.99008	1737.5125
2128.96609	1712.9125
2131.94018	1703.4125
2134.91236	1687.4125
2137.88263	1687.3125
2140.851	1672.0125
2143.81746	1671.8125
2146.78201	1655.4125
2149.74466	1641.2125
2152.7054	1641.0125
2155.66425	1629.8125
2158.6212	1627.9125
2161.57625	1629.8125
2164.52941	1614.1125
2167.48067	1619.8125
2170.43004	1614.0125
2173.37752	1614.0125
2176.32311	1612.6125
2179.26681	1619.7125
2182.20863	1614.5125
2185.14856	1615.3125
2188.08661	1613.4125
2191.02278	1606.8125
2193.95707	1603.8125
2196.88948	1596.8125
2199.82001	1585.4125
2202.74867	1582.7125
2205.67545	1579.9125
2208.60037	1591.4125
2211.52341	1585.5125
2214.44458	1577.7125
2217.36388	1565.7125
2220.28132	1562.8125
2223.1969	1553.5125
2226.11061	1545.1125
2229.02246	1544.5125
2231.93245	1535.6125
2234.84058	1525.2125
2237.74686	1534.2125
2240.65128	1529.8125
2243.55385	1527.4125
2246.45456	1534.5125
2249.35343	1545.8125
2252.25044	1550.7125
2255.14561	1545.1125
2258.03893	1557.4125
2260.93041	1566.6125
2263.82004	1569.3125
2266.70783	1563.3125
2269.59378	1552.6125
2272.4779	1548.7125
2275.36017	1546.0125
2278.24061	1539.0125
2281.11922	1538.5125
2283.996	1528.1125
2286.87094	1525.1125
2289.74405	1512.0125
2292.61534	1493.4125
2295.4848	1485.7125
2298.35243	1482.4125
2301.21824	1473.9125
2304.08223	1473.2125
2306.94439	1478.0125
2309.80474	1484.9125
2312.66327	1480.3125
2315.51999	1480.8125
2318.37489	1470.0125
2321.22797	1466.1125
2324.07925	1455.4125
2326.92871	1464.1125
2329.77637	1464.0125
2332.62222	1461.7125
2335.46626	1459.5125
2338.3085	1459.3125
2341.14893	1453.6125
2343.98756	1465.3125
2346.8244	1466.5125
2349.65943	1470.7125
2352.49267	1474.7125
2355.32411	1486.8125
2358.15376	1497.6125
2360.98161	1501.2125
2363.80768	1512.3125
2366.63195	1519.8125
2369.45444	1521.7125
2372.27514	1527.3125
2375.09405	1527.3125
2377.91118	1517.1125
2380.72652	1513.1125
2383.54009	1509.9125
2386.35187	1488.6125
2389.16188	1477.3125
2391.97011	1460.0125
2394.77657	1444.8125
2397.58125	1441.5125
2400.38416	1437.0125
2403.18529	1423.3125
2405.98466	1416.3125
2408.78226	1413.6125
2411.57809	1417.1125
2414.37216	1405.7125
2417.16446	1399.9125
2419.955	1400.7125
2422.74378	1407.7125
2425.5308	1410.7125
2428.31606	1404.0125
2431.09956	1409.9125
2433.88131	1417.2125
2436.6613	1413.4125
2439.43954	1420.2125
2442.21603	1421.2125
2444.99077	1418.9125
2447.76377	1416.7125
2450.53501	1423.0125
2453.30451	1421.9125
2456.07226	1415.5125
2458.83827	1424.5125
2461.60254	1422.0125
2464.36507	1419.0125
2467.12586	1420.6125
2469.88492	1418.8125
2472.64224	1424.0125
2475.39782	1433.0125
2478.15167	1442.8125
2480.90379	1456.8125
2483.65417	1460.0125
2486.40283	1469.5125
2489.14976	1477.4125
2491.89497	1477.8125
2494.63845	1492.0125
2497.3802	1477.0125
2500.12024	1464.7125
2502.85855	1446.1125
2505.59514	1437.9125
2508.33002	1419.9125
2511.06318	1400.6125
2513.79462	1380.3125
2516.52435	1362.6125
2519.25237	1349.7125
2521.97867	1329.4125
2524.70327	1331.4125
2527.42616	1323.8125
2530.14734	1317.9125
2532.86681	1320.8125
2535.58458	1312.5125
2538.30065	1325.2125
2541.01501	1313.3125
2543.72768	1319.9125
2546.43864	1326.7125
2549.14791	1324.3125
2551.85548	1330.0125
2554.56136	1323.4125
2557.26554	1327.7125
2559.96803	1332.5125
2562.66883	1328.0125
2565.36794	1317.4125
2568.06536	1320.4125
2570.7611	1315.1125
2573.45514	1308.2125
2576.14751	1312.4125
2578.83819	1304.2125
2581.52719	1298.6125
2584.21451	1298.7125
2586.90015	1292.7125
2589.58411	1274.9125
2592.2664	1282.1125
2594.94701	1274.5125
2597.62594	1279.2125
2600.30321	1284.4125
2602.9788	1275.6125
2605.65273	1280.6125
2608.32498	1283.0125
2610.99557	1283.3125
2613.66449	1292.2125
2616.33175	1283.6125
2618.99734	1276.6125
2621.66128	1273.2125
2624.32355	1277.3125
2626.98416	1274.4125
2629.64311	1269.1125
2632.30041	1266.1125
2634.95605	1253.1125
2637.61004	1243.4125
2640.26238	1246.1125
2642.91306	1243.9125
2645.56209	1243.7125
2648.20948	1241.7125
2650.85521	1243.2125
2653.4993	1244.0125
2656.14175	1246.2125
2658.78255	1254.5125
2661.42171	1256.3125
2664.05923	1269.1125
2666.6951	1272.4125
2669.32934	1278.9125
2671.96194	1286.2125
2674.59291	1281.9125
2677.22224	1276.8125
2679.84993	1269.4125
2682.476	1266.0125
2685.10043	1279.3125
2687.72324	1268.5125
2690.34441	1258.6125
2692.96396	1268.7125
2695.58188	1271.8125
2698.19818	1263.1125
2700.81285	1259.0125
2703.4259	1252.7125
2706.03733	1253.6125
2708.64714	1260.9125
2711.25533	1261.4125
2713.86191	1255.8125
2716.46687	1276.7125
2719.07021	1276.6125
2721.67194	1272.5125
2724.27206	1281.9125
2726.87057	1273.1125
2729.46747	1277.3125
2732.06276	1280.4125
2734.65644	1279.8125
2737.24852	1260.6125
2739.83899	1259.8125
2742.42786	1253.1125
2745.01513	1247.8125
2747.60079	1248.9125
2750.18486	1239.2125
2752.76733	1247.6125
2755.3482	1242.0125
2757.92747	1242.1125
2760.50515	1236.9125
2763.08123	1236.3125
2765.65573	1244.8125
2768.22863	1241.7125
2770.79994	1241.2125
2773.36967	1242.6125
2775.9378	1255.8125
2778.50435	1253.2125
2781.06932	1267.5125
2783.6327	1272.9125
2786.1945	1272.5125
2788.75471	1289.9125
2791.31335	1302.7125
2793.87041	1314.8125
2796.42589	1336.0125
2798.97979	1347.6125
2801.53212	1366.8125
2804.08288	1382.5125
2806.63206	1409.6125
2809.17967	1442.8125
2811.72571	1461.1125
2814.27018	1480.2125
2816.81308	1504.2125
2819.35442	1532.8125
2821.89419	1541.2125
2824.43239	1549.1125
2826.96904	1561.2125
2829.50412	1569.3125
2832.03763	1573.5125
2834.56959	1572.8125
2837.1	1579.7125
2839.62884	1592.6125
2842.15613	1605.0125
2844.68186	1618.7125
2847.20604	1638.4125
2849.72867	1635.0125
2852.24974	1658.0125
2854.76927	1669.7125
2857.28724	1677.2125
2859.80367	1700.6125
2862.31855	1722.5125
2864.83189	1757.4125
2867.34368	1787.7125
2869.85393	1828.3125
2872.36264	1866.8125
2874.8698	1897.6125
2877.37543	1936.4125
2879.87952	1984.6125
2882.38207	2032.7125
2884.88308	2060.8125
2887.38256	2096.4125
2889.88051	2136.1125
2892.37692	2168.0125
2894.8718	2203.0125
2897.36515	2249.9125
2899.85698	2283.9125
2902.34727	2307.7125
2904.83604	2344.8125
2907.32328	2374.8125
2909.809	2397.4125
2912.29319	2426.3125
2914.77587	2450.6125
2917.25702	2490.8125
2919.73665	2491.8125
2922.21476	2498.9125
2924.69136	2504.5125
2927.16644	2513.1125
2929.64	2492.8125
2932.11205	2492.4125
2934.58258	2464.3125
2937.05161	2440.6125
2939.51912	2422.6125
2941.98513	2391.7125
2944.44962	2346.0125
2946.91261	2316.2125
2949.37409	2288.8125
2951.83407	2234.0125
2954.29254	2191.9125
2956.74951	2133.7125
2959.20498	2085.0125
2961.65895	2028.5125
2964.11142	1972.5125
2966.56239	1929.1125
2969.01186	1870.1125
2971.45984	1828.5125
2973.90632	1794.9125
2976.35131	1759.0125
2978.7948	1712.3125
2981.23681	1693.9125
2983.67732	1679.3125
2986.11635	1662.7125
2988.55388	1634.9125
2990.98993	1628.1125
2993.4245	1621.3125
2995.85758	1621.5125
2998.28917	1613.2125
3000.71928	1616.4125
3003.14791	1608.9125
3005.57506	1616.8125
3008.00073	1596.7125
3010.42493	1625.8125
3012.84764	1588.7125
3015.26888	1576.5125
3017.68865	1560.1125
3020.10694	1540.6125
3022.52376	1522.3125
3024.9391	1516.1125
3027.35298	1498.4125
3029.76539	1472.3125
3032.17632	1452.9125
3034.5858	1430.2125
3036.9938	1408.8125
3039.40034	1401.3125
3041.80542	1390.8125
3044.20903	1377.0125
3046.61118	1375.7125
3049.01187	1353.4125
3051.4111	1351.9125
3053.80888	1340.2125
3056.20519	1342.5125
3058.60005	1326.2125
3060.99345	1324.7125
3063.3854	1325.9125
3065.7759	1309.5125
3068.16494	1310.2125
3070.55254	1304.1125
3072.93868	1295.7125
3075.32338	1289.3125
3077.70662	1287.9125
3080.08842	1297.9125
3082.46878	1298.4125
3084.84769	1297.7125
3087.22515	1303.2125
3089.60118	1311.0125
3091.97576	1305.5125
3094.3489	1308.4125
3096.72061	1320.7125
3099.09087	1315.1125
3101.4597	1334.9125
3103.82709	1337.5125
3106.19305	1345.0125
3108.55757	1348.7125
3110.92066	1357.0125
3113.28232	1362.2125
3115.64255	1365.9125
3118.00134	1373.5125
3120.35871	1381.7125
3122.71466	1379.5125
3125.06917	1381.5125
