Data from AgNPs_UA_20uM_CRN_500uM_AS_RamanShift__12__14-37-31-511.txt Node

Date: Wed Aug 17 14:37:31 BST 2022
User: TCL
Spectrometer: QEP01345
Trigger mode: 4
Integration Time (sec): 7.000000E0
Scans to average: 10
Electric dark correction enabled: true
Nonlinearity correction enabled: false
Boxcar width: 0
XAxis mode: Raman Shifts
Number of Pixels in Spectrum: 1044
>>>>>Begin Spectral Data<<<<<
46.04893	-0.4875
50.45542	1.0125
54.85868	-1.8875
59.25871	0.0125
63.6555	37.9125
68.04907	38.9125
72.43941	42.4125
76.82654	47.9125
81.21044	50.2125
85.59113	49.8125
89.96862	53.1125
94.34289	58.8125
98.71396	62.7125
103.08183	61.7125
107.4465	63.5125
111.80798	60.7125
116.16626	63.3125
120.52136	57.6125
124.87327	60.3125
129.222	59.7125
133.56755	62.6125
137.90993	61.5125
142.24913	68.0125
146.58517	67.0125
150.91804	68.4125
155.24774	69.7125
159.57429	74.6125
163.89768	84.4125
168.21792	98.8125
172.53501	124.1125
176.84895	152.5125
181.15975	208.4125
185.46741	270.8125
189.77193	375.6125
194.07331	484.1125
198.37157	615.7125
202.6667	755.0125
206.9587	897.1125
211.24758	1031.9125
215.53334	1172.7125
219.81599	1318.7125
224.09553	1462.2125
228.37195	1632.7125
232.64527	1816.4125
236.91549	2027.5125
241.18261	2209.8125
245.44663	2390.0125
249.70755	2564.2125
253.96539	2700.0125
258.22014	2790.0125
262.4718	2875.0125
266.72039	2899.3125
270.96589	2906.1125
275.20832	2861.5125
279.44768	2804.2125
283.68397	2733.0125
287.91719	2682.3125
292.14735	2640.9125
296.37445	2602.3125
300.59849	2589.8125
304.81948	2597.6125
309.03742	2600.4125
313.25231	2599.4125
317.46415	2575.9125
321.67296	2535.1125
325.87872	2500.9125
330.08145	2487.4125
334.28114	2503.5125
338.47781	2520.6125
342.67145	2541.5125
346.86207	2583.2125
351.04966	2641.9125
355.23424	2681.8125
359.4158	2733.9125
363.59435	2771.8125
367.76989	2785.6125
371.94243	2800.8125
376.11196	2803.1125
380.27849	2802.2125
384.44203	2834.2125
388.60257	2855.0125
392.76012	2866.1125
396.91468	2902.3125
401.06626	2940.2125
405.21485	2978.1125
409.36047	2949.5125
413.50311	2927.6125
417.64277	2886.3125
421.77947	2888.3125
425.9132	2884.5125
430.04396	2897.9125
434.17176	2948.9125
438.2966	2954.8125
442.41849	3001.0125
446.53742	3041.3125
450.6534	3081.2125
454.76644	3116.9125
458.87653	3128.6125
462.98368	3115.5125
467.08789	3101.9125
471.18916	3076.9125
475.2875	3047.8125
479.38291	3046.7125
483.4754	3018.2125
487.56496	2998.6125
491.6516	3007.0125
495.73531	3004.3125
499.81612	3000.2125
503.89401	3022.4125
507.96899	3024.2125
512.04106	3040.9125
516.11023	3030.6125
520.1765	3049.7125
524.23987	3043.6125
528.30034	3025.4125
532.35792	3036.4125
536.41261	3022.2125
540.46441	3008.1125
544.51333	3003.4125
548.55936	3017.4125
552.60252	3035.8125
556.64279	3061.4125
560.6802	3087.5125
564.71473	3081.0125
568.7464	3095.5125
572.7752	3112.8125
576.80114	3115.6125
580.82422	3146.3125
584.84444	3160.5125
588.86181	3200.4125
592.87633	3273.7125
596.888	3342.5125
600.89682	3377.9125
604.9028	3473.3125
608.90594	3728.4125
612.90624	4029.1125
616.90371	3842.7125
620.89834	3374.2125
624.89015	3162.8125
628.87913	3129.6125
632.86528	3165.5125
636.84862	3188.3125
640.82913	3177.1125
644.80683	3136.3125
648.78172	3102.2125
652.75379	3123.3125
656.72306	3148.0125
660.68952	3203.4125
664.65319	3172.5125
668.61405	3161.5125
672.57211	3153.0125
676.52738	3199.0125
680.47986	3226.5125
684.42955	3242.0125
688.37646	3245.5125
692.32058	3231.5125
696.26192	3227.6125
700.20048	3222.0125
704.13626	3208.7125
708.06928	3209.7125
711.99952	3170.3125
715.927	3164.9125
719.85171	3175.8125
723.77365	3173.1125
727.69284	3159.1125
731.60928	3154.4125
735.52295	3156.1125
739.43388	3174.1125
743.34206	3163.2125
747.24749	3177.7125
751.15017	3189.6125
755.05012	3214.6125
758.94733	3259.3125
762.8418	3375.7125
766.73354	3597.6125
770.62254	3804.5125
774.50882	3863.7125
778.39237	3738.4125
782.27321	3522.5125
786.15132	3353.7125
790.02671	3237.0125
793.89938	3193.5125
797.76935	3153.9125
801.6366	3136.8125
805.50115	3131.7125
809.36299	3117.7125
813.22213	3111.1125
817.07857	3108.2125
820.93231	3104.6125
824.78336	3107.8125
828.63172	3105.1125
832.47738	3107.7125
836.32036	3101.3125
840.16066	3094.3125
843.99827	3101.3125
847.8332	3087.8125
851.66546	3092.5125
855.49504	3106.6125
859.32195	3109.4125
863.1462	3093.7125
866.96777	3101.8125
870.78668	3103.2125
874.60293	3123.5125
878.41652	3125.2125
882.22745	3132.9125
886.03573	3141.5125
889.84136	3132.1125
893.64433	3123.6125
897.44466	3121.4125
901.24235	3121.5125
905.0374	3113.1125
908.8298	3116.6125
912.61957	3112.9125
916.40671	3114.8125
920.19121	3125.6125
923.97308	3148.1125
927.75233	3135.9125
931.52895	3136.1125
935.30295	3115.0125
939.07433	3084.6125
942.84309	3053.0125
946.60924	3045.9125
950.37278	3031.2125
954.13371	3021.6125
957.89203	3008.5125
961.64774	3022.1125
965.40086	3008.8125
969.15137	2996.8125
972.89929	2998.4125
976.64461	2983.3125
980.38733	2977.2125
984.12747	2986.0125
987.86502	2981.9125
991.59999	2996.4125
995.33237	2994.7125
999.06217	3014.6125
1002.78939	3037.7125
1006.51404	3056.2125
1010.23611	3102.4125
1013.95561	3110.3125
1017.67255	3098.4125
1021.38692	3096.5125
1025.09872	3080.3125
1028.80796	3042.6125
1032.51465	3055.8125
1036.21877	3052.3125
1039.92035	3056.1125
1043.61937	3075.7125
1047.31584	3078.2125
1051.00976	3080.4125
1054.70114	3091.0125
1058.38998	3092.1125
1062.07627	3098.9125
1065.76003	3104.2125
1069.44126	3109.0125
1073.11995	3124.9125
1076.79611	3143.8125
1080.46974	3172.9125
1084.14085	3181.2125
1087.80943	3199.5125
1091.47549	3209.8125
1095.13903	3201.2125
1098.80005	3159.1125
1102.45857	3135.4125
1106.11456	3115.1125
1109.76805	3113.9125
1113.41903	3130.6125
1117.06751	3153.2125
1120.71348	3191.1125
1124.35696	3235.3125
1127.99793	3274.6125
1131.63641	3269.0125
1135.2724	3234.3125
1138.90589	3202.7125
1142.5369	3191.0125
1146.16542	3159.8125
1149.79145	3152.2125
1153.415	3152.7125
1157.03607	3159.5125
1160.65467	3189.7125
1164.27079	3231.2125
1167.88443	3304.6125
1171.49561	3412.0125
1175.10432	3554.2125
1178.71056	3766.6125
1182.31434	3951.8125
1185.91565	4018.0125
1189.51451	4010.8125
1193.11091	3941.4125
1196.70485	3854.9125
1200.29634	3740.6125
1203.88538	3623.6125
1207.47197	3514.2125
1211.05612	3404.5125
1214.63782	3320.8125
1218.21708	3295.7125
1221.79391	3286.7125
1225.36829	3304.6125
1228.94024	3312.9125
1232.50976	3294.2125
1236.07685	3289.5125
1239.6415	3270.5125
1243.20374	3275.4125
1246.76355	3284.3125
1250.32093	3279.9125
1253.8759	3289.2125
1257.42845	3341.6125
1260.97859	3394.5125
1264.52631	3443.8125
1268.07163	3485.2125
1271.61453	3507.0125
1275.15503	3545.3125
1278.69312	3576.1125
1282.22882	3597.8125
1285.76211	3629.7125
1289.29301	3682.8125
1292.82151	3753.7125
1296.34761	3819.5125
1299.87133	3910.2125
1303.39266	4071.6125
1306.9116	4244.2125
1310.42815	4427.6125
1313.94233	4538.4125
1317.45412	4486.3125
1320.96354	4360.6125
1324.47058	4202.1125
1327.97525	4043.5125
1331.47754	3950.3125
1334.97747	3899.8125
1338.47502	3901.2125
1341.97022	3960.2125
1345.46305	4058.1125
1348.95352	4200.1125
1352.44163	4380.0125
1355.92738	4576.5125
1359.41078	4850.4125
1362.89183	5075.9125
1366.37053	5024.9125
1369.84688	4664.2125
1373.32088	4195.6125
1376.79254	3873.9125
1380.26186	3682.2125
1383.72883	3608.3125
1387.19347	3519.2125
1390.65578	3429.4125
1394.11575	3361.6125
1397.57339	3301.4125
1401.0287	3301.6125
1404.48168	3260.9125
1407.93234	3272.2125
1411.38068	3260.9125
1414.82669	3270.4125
1418.27039	3276.1125
1421.71177	3255.3125
1425.15083	3193.0125
1428.58758	3176.5125
1432.02203	3163.1125
1435.45416	3158.5125
1438.88399	3181.1125
1442.31151	3177.2125
1445.73673	3186.4125
1449.15965	3182.0125
1452.58027	3176.2125
1455.9986	3173.0125
1459.41463	3183.6125
1462.82837	3200.2125
1466.23982	3240.6125
1469.64898	3294.7125
1473.05586	3335.7125
1476.46045	3371.5125
1479.86276	3385.0125
1483.26279	3410.8125
1486.66054	3477.7125
1490.05602	3532.7125
1493.44922	3636.1125
1496.84016	3779.8125
1500.22882	3973.5125
1503.61521	4228.7125
1506.99934	4455.7125
1510.38121	4570.5125
1513.76081	4549.4125
1517.13816	4319.4125
1520.51324	4057.4125
1523.88607	3838.8125
1527.25665	3676.0125
1530.62498	3611.2125
1533.99105	3566.4125
1537.35488	3524.5125
1540.71647	3464.5125
1544.07581	3416.5125
1547.4329	3357.8125
1550.78776	3336.8125
1554.14038	3327.4125
1557.49077	3345.7125
1560.83892	3369.0125
1564.18484	3418.3125
1567.52853	3454.1125
1570.86999	3509.5125
1574.20922	3551.1125
1577.54624	3528.3125
1580.88103	3458.4125
1584.2136	3345.6125
1587.54395	3300.3125
1590.87208	3295.0125
1594.19801	3377.9125
1597.52172	3477.3125
1600.84321	3517.7125
1604.16251	3476.6125
1607.47959	3404.7125
1610.79447	3313.2125
1614.10715	3212.2125
1617.41763	3106.9125
1620.7259	3047.9125
1624.03199	2985.8125
1627.33587	2961.2125
1630.63757	2982.1125
1633.93707	3041.3125
1637.23439	3130.8125
1640.52951	3312.7125
1643.82246	3537.2125
1647.11321	3759.9125
1650.40179	3871.3125
1653.68819	3778.8125
1656.97241	3529.8125
1660.25446	3246.2125
1663.53433	3026.5125
1666.81203	2889.2125
1670.08756	2799.6125
1673.36092	2740.1125
1676.63211	2696.7125
1679.90115	2670.7125
1683.16801	2648.2125
1686.43272	2628.6125
1689.69527	2611.3125
1692.95567	2593.1125
1696.2139	2596.5125
1699.46999	2588.6125
1702.72392	2578.4125
1705.97571	2564.0125
1709.22535	2568.5125
1712.47284	2561.9125
1715.71819	2553.4125
1718.96139	2548.3125
1722.20246	2523.0125
1725.44139	2519.7125
1728.67818	2518.0125
1731.91284	2486.0125
1735.14537	2486.8125
1738.37576	2472.7125
1741.60403	2465.3125
1744.83017	2456.7125
1748.05418	2468.2125
1751.27607	2453.4125
1754.49584	2465.6125
1757.71349	2467.8125
1760.92903	2464.3125
1764.14244	2459.6125
1767.35375	2459.1125
1770.56294	2443.7125
1773.77002	2425.7125
1776.97499	2416.7125
1780.17785	2399.3125
1783.37861	2390.6125
1786.57727	2381.5125
1789.77382	2358.8125
1792.96828	2364.5125
1796.16064	2346.8125
1799.3509	2330.2125
1802.53907	2324.6125
1805.72514	2323.2125
1808.90913	2316.4125
1812.09102	2307.6125
1815.27083	2292.5125
1818.44856	2288.5125
1821.6242	2290.0125
1824.79776	2284.9125
1827.96924	2280.9125
1831.13864	2275.5125
1834.30597	2276.2125
1837.47122	2267.0125
1840.6344	2263.1125
1843.7955	2265.5125
1846.95454	2276.0125
1850.11151	2261.6125
1853.26642	2246.6125
1856.41926	2253.0125
1859.57004	2252.4125
1862.71876	2247.3125
1865.86542	2233.5125
1869.01003	2239.7125
1872.15258	2236.8125
1875.29308	2235.7125
1878.43152	2234.3125
1881.56792	2230.7125
1884.70227	2236.7125
1887.83457	2214.6125
1890.96482	2213.0125
1894.09304	2208.6125
1897.21921	2192.2125
1900.34335	2202.6125
1903.46544	2204.4125
1906.58551	2193.0125
1909.70353	2194.2125
1912.81953	2186.6125
1915.93349	2193.8125
1919.04543	2183.9125
1922.15534	2172.7125
1925.26322	2166.8125
1928.36908	2171.8125
1931.47292	2174.6125
1934.57473	2155.2125
1937.67453	2150.0125
1940.77232	2146.8125
1943.86808	2146.9125
1946.96184	2131.2125
1950.05358	2121.8125
1953.14331	2119.5125
1956.23103	2109.5125
1959.31675	2107.8125
1962.40046	2100.9125
1965.48217	2087.1125
1968.56188	2080.8125
1971.63959	2082.3125
1974.7153	2064.9125
1977.78901	2062.8125
1980.86073	2062.6125
1983.93046	2048.5125
1986.99819	2057.3125
1990.06394	2039.9125
1993.1277	2029.0125
1996.18947	2016.5125
1999.24925	2021.5125
2002.30706	2011.4125
2005.36288	2001.6125
2008.41672	1990.6125
2011.46859	1987.3125
2014.51848	1987.1125
2017.56639	1982.8125
2020.61233	1985.7125
2023.6563	1974.4125
2026.6983	1963.8125
2029.73833	1972.9125
2032.7764	1956.7125
2035.8125	1950.2125
2038.84664	1941.3125
2041.87881	1938.8125
2044.90903	1934.7125
2047.93729	1919.4125
2050.96359	1928.5125
2053.98794	1931.5125
2057.01034	1923.6125
2060.03078	1917.9125
2063.04927	1908.1125
2066.06582	1917.7125
2069.08042	1919.4125
2072.09307	1906.0125
2075.10378	1912.8125
2078.11255	1905.5125
2081.11938	1908.2125
2084.12426	1895.5125
2087.12722	1901.2125
2090.12824	1908.3125
2093.12732	1918.7125
2096.12447	1915.0125
2099.11969	1909.2125
2102.11299	1903.9125
2105.10435	1899.1125
2108.09379	1903.1125
2111.08131	1895.6125
2114.0669	1898.8125
2117.05057	1908.7125
2120.03233	1901.8125
2123.01216	1911.6125
2125.99008	1901.7125
2128.96609	1913.1125
2131.94018	1905.9125
2134.91236	1910.8125
2137.88263	1929.9125
2140.851	1905.3125
2143.81746	1907.9125
2146.78201	1914.7125
2149.74466	1925.9125
2152.7054	1917.5125
2155.66425	1903.9125
2158.6212	1908.4125
2161.57625	1914.2125
2164.52941	1907.3125
2167.48067	1909.5125
2170.43004	1902.1125
2173.37752	1884.7125
2176.32311	1894.0125
2179.26681	1891.2125
2182.20863	1897.8125
2185.14856	1879.1125
2188.08661	1902.7125
2191.02278	1891.7125
2193.95707	1894.8125
2196.88948	1890.2125
2199.82001	1888.0125
2202.74867	1885.3125
2205.67545	1887.8125
2208.60037	1875.9125
2211.52341	1866.9125
2214.44458	1872.8125
2217.36388	1859.0125
2220.28132	1850.9125
2223.1969	1853.5125
2226.11061	1857.0125
2229.02246	1847.4125
2231.93245	1844.4125
2234.84058	1833.1125
2237.74686	1833.2125
2240.65128	1844.7125
2243.55385	1845.6125
2246.45456	1837.5125
2249.35343	1823.3125
2252.25044	1823.5125
2255.14561	1823.6125
2258.03893	1810.7125
2260.93041	1820.6125
2263.82004	1817.6125
2266.70783	1807.6125
2269.59378	1798.6125
2272.4779	1786.4125
2275.36017	1789.5125
2278.24061	1786.1125
2281.11922	1779.2125
2283.996	1772.4125
2286.87094	1773.6125
2289.74405	1777.7125
2292.61534	1769.8125
2295.4848	1767.0125
2298.35243	1760.6125
2301.21824	1756.4125
2304.08223	1763.2125
2306.94439	1751.9125
2309.80474	1753.6125
2312.66327	1758.9125
2315.51999	1744.1125
2318.37489	1741.6125
2321.22797	1724.6125
2324.07925	1736.8125
2326.92871	1738.6125
2329.77637	1733.1125
2332.62222	1728.0125
2335.46626	1736.2125
2338.3085	1725.7125
2341.14893	1724.9125
2343.98756	1719.2125
2346.8244	1715.9125
2349.65943	1718.5125
2352.49267	1711.4125
2355.32411	1715.3125
2358.15376	1708.3125
2360.98161	1720.6125
2363.80768	1711.7125
2366.63195	1711.0125
2369.45444	1702.0125
2372.27514	1704.0125
2375.09405	1696.7125
2377.91118	1697.6125
2380.72652	1690.4125
2383.54009	1699.7125
2386.35187	1690.4125
2389.16188	1669.6125
2391.97011	1670.1125
2394.77657	1678.3125
2397.58125	1671.2125
2400.38416	1673.5125
2403.18529	1669.1125
2405.98466	1667.4125
2408.78226	1660.9125
2411.57809	1657.3125
2414.37216	1654.5125
2417.16446	1644.2125
2419.955	1653.5125
2422.74378	1647.0125
2425.5308	1643.2125
2428.31606	1650.5125
2431.09956	1642.6125
2433.88131	1641.7125
2436.6613	1636.1125
2439.43954	1627.9125
2442.21603	1638.0125
2444.99077	1637.0125
2447.76377	1623.0125
2450.53501	1617.5125
2453.30451	1632.0125
2456.07226	1622.8125
2458.83827	1621.4125
2461.60254	1625.7125
2464.36507	1614.4125
2467.12586	1620.1125
2469.88492	1619.7125
2472.64224	1612.1125
2475.39782	1614.1125
2478.15167	1602.7125
2480.90379	1602.8125
2483.65417	1611.9125
2486.40283	1606.9125
2489.14976	1596.7125
2491.89497	1609.5125
2494.63845	1596.0125
2497.3802	1601.2125
2500.12024	1610.4125
2502.85855	1601.1125
2505.59514	1600.3125
2508.33002	1598.8125
2511.06318	1590.9125
2513.79462	1586.3125
2516.52435	1587.4125
2519.25237	1586.6125
2521.97867	1580.9125
2524.70327	1579.4125
2527.42616	1566.8125
2530.14734	1567.5125
2532.86681	1566.2125
2535.58458	1559.9125
2538.30065	1572.6125
2541.01501	1573.3125
2543.72768	1555.8125
2546.43864	1560.1125
2549.14791	1558.5125
2551.85548	1548.6125
2554.56136	1554.1125
2557.26554	1550.5125
2559.96803	1540.8125
2562.66883	1530.8125
2565.36794	1531.3125
2568.06536	1530.5125
2570.7611	1531.1125
2573.45514	1525.1125
2576.14751	1524.7125
2578.83819	1520.2125
2581.52719	1504.5125
2584.21451	1521.4125
2586.90015	1511.1125
2589.58411	1518.0125
2592.2664	1509.5125
2594.94701	1503.1125
2597.62594	1503.5125
2600.30321	1502.2125
2602.9788	1505.8125
2605.65273	1488.7125
2608.32498	1508.2125
2610.99557	1491.4125
2613.66449	1488.0125
2616.33175	1481.6125
2618.99734	1492.5125
2621.66128	1478.0125
2624.32355	1473.2125
2626.98416	1482.1125
2629.64311	1474.1125
2632.30041	1470.1125
2634.95605	1477.2125
2637.61004	1477.9125
2640.26238	1468.4125
2642.91306	1473.1125
2645.56209	1463.5125
2648.20948	1454.6125
2650.85521	1454.8125
2653.4993	1459.8125
2656.14175	1455.0125
2658.78255	1455.5125
2661.42171	1465.6125
2664.05923	1454.1125
2666.6951	1468.1125
2669.32934	1454.0125
2671.96194	1460.9125
2674.59291	1462.0125
2677.22224	1462.4125
2679.84993	1459.5125
2682.476	1457.5125
2685.10043	1458.3125
2687.72324	1449.3125
2690.34441	1446.9125
2692.96396	1446.0125
2695.58188	1455.6125
2698.19818	1450.6125
2700.81285	1444.0125
2703.4259	1448.8125
2706.03733	1453.1125
2708.64714	1454.8125
2711.25533	1446.1125
2713.86191	1444.7125
2716.46687	1445.3125
2719.07021	1445.4125
2721.67194	1455.4125
2724.27206	1446.4125
2726.87057	1446.2125
2729.46747	1451.0125
2732.06276	1454.2125
2734.65644	1450.0125
2737.24852	1446.5125
2739.83899	1445.9125
2742.42786	1443.4125
2745.01513	1438.8125
2747.60079	1435.2125
2750.18486	1428.4125
2752.76733	1431.8125
2755.3482	1426.8125
2757.92747	1429.5125
2760.50515	1433.1125
2763.08123	1424.3125
2765.65573	1415.0125
2768.22863	1417.2125
2770.79994	1418.9125
2773.36967	1420.0125
2775.9378	1408.3125
2778.50435	1411.9125
2781.06932	1416.4125
2783.6327	1413.6125
2786.1945	1413.1125
2788.75471	1410.8125
2791.31335	1405.2125
2793.87041	1401.1125
2796.42589	1411.9125
2798.97979	1404.2125
2801.53212	1396.3125
2804.08288	1387.7125
2806.63206	1390.2125
2809.17967	1396.0125
2811.72571	1387.7125
2814.27018	1376.5125
2816.81308	1382.2125
2819.35442	1386.0125
2821.89419	1377.3125
2824.43239	1374.9125
2826.96904	1381.5125
2829.50412	1379.9125
2832.03763	1381.0125
2834.56959	1372.6125
2837.1	1368.2125
2839.62884	1371.1125
2842.15613	1368.5125
2844.68186	1379.6125
2847.20604	1378.6125
2849.72867	1381.7125
2852.24974	1382.3125
2854.76927	1377.6125
2857.28724	1378.5125
2859.80367	1381.5125
2862.31855	1372.8125
2864.83189	1381.9125
2867.34368	1386.6125
2869.85393	1389.5125
2872.36264	1386.1125
2874.8698	1394.5125
2877.37543	1392.3125
2879.87952	1387.0125
2882.38207	1388.9125
2884.88308	1388.9125
2887.38256	1390.9125
2889.88051	1380.6125
2892.37692	1402.7125
2894.8718	1398.8125
2897.36515	1408.3125
2899.85698	1410.3125
2902.34727	1406.3125
2904.83604	1415.5125
2907.32328	1415.5125
2909.809	1423.9125
2912.29319	1425.1125
2914.77587	1430.0125
2917.25702	1431.9125
2919.73665	1450.1125
2922.21476	1431.8125
2924.69136	1453.2125
2927.16644	1448.1125
2929.64	1452.8125
2932.11205	1447.6125
2934.58258	1447.6125
2937.05161	1450.1125
2939.51912	1438.6125
2941.98513	1458.7125
2944.44962	1440.6125
2946.91261	1453.2125
2949.37409	1447.9125
2951.83407	1451.5125
2954.29254	1444.0125
2956.74951	1436.5125
2959.20498	1433.3125
2961.65895	1425.0125
2964.11142	1421.9125
2966.56239	1421.1125
2969.01186	1419.9125
2971.45984	1401.9125
2973.90632	1415.5125
2976.35131	1405.4125
2978.7948	1402.7125
2981.23681	1402.8125
2983.67732	1400.5125
2986.11635	1384.2125
2988.55388	1376.0125
2990.98993	1383.8125
2993.4245	1379.4125
2995.85758	1368.6125
2998.28917	1374.6125
3000.71928	1375.1125
3003.14791	1367.1125
3005.57506	1365.1125
3008.00073	1366.6125
3010.42493	1327.6125
3012.84764	1368.7125
3015.26888	1367.8125
3017.68865	1349.3125
3020.10694	1360.5125
3022.52376	1364.7125
3024.9391	1356.0125
3027.35298	1347.7125
3029.76539	1357.9125
3032.17632	1358.1125
3034.5858	1361.2125
3036.9938	1356.3125
3039.40034	1361.2125
3041.80542	1354.1125
3044.20903	1363.0125
3046.61118	1366.3125
3049.01187	1360.1125
3051.4111	1365.8125
3053.80888	1369.2125
3056.20519	1369.5125
3058.60005	1378.2125
3060.99345	1372.2125
3063.3854	1369.7125
3065.7759	1372.8125
3068.16494	1373.3125
3070.55254	1371.0125
3072.93868	1367.2125
3075.32338	1362.0125
3077.70662	1365.0125
3080.08842	1370.5125
3082.46878	1378.6125
3084.84769	1381.2125
3087.22515	1376.7125
3089.60118	1387.1125
3091.97576	1387.2125
3094.3489	1388.8125
3096.72061	1396.3125
3099.09087	1405.2125
3101.4597	1409.3125
3103.82709	1415.4125
3106.19305	1420.8125
3108.55757	1436.9125
3110.92066	1431.6125
3113.28232	1434.9125
3115.64255	1439.7125
3118.00134	1443.6125
3120.35871	1455.3125
3122.71466	1454.5125
3125.06917	1453.7125
3127.42226	1460.0125
3129.77393	1470.2125
