Data from AgNPs_UA_5uM_CRN_500uM_AS_RamanShift__20__13-20-53-843.txt Node

Date: Wed Aug 17 13:20:53 BST 2022
User: TCL
Spectrometer: QEP01345
Trigger mode: 4
Integration Time (sec): 7.000000E0
Scans to average: 10
Electric dark correction enabled: true
Nonlinearity correction enabled: false
Boxcar width: 0
XAxis mode: Raman Shifts
Number of Pixels in Spectrum: 1044
>>>>>Begin Spectral Data<<<<<
46.04893	-0.675
50.45542	0.725
54.85868	-0.675
59.25871	0.725
63.6555	40.525
68.04907	49.025
72.43941	53.125
76.82654	54.225
81.21044	59.625
85.59113	59.525
89.96862	65.325
94.34289	67.625
98.71396	68.425
103.08183	73.225
107.4465	69.325
111.80798	70.825
116.16626	72.425
120.52136	72.625
124.87327	69.925
129.222	72.625
133.56755	74.225
137.90993	73.725
142.24913	77.325
146.58517	79.925
150.91804	81.725
155.24774	91.225
159.57429	100.925
163.89768	116.125
168.21792	135.125
172.53501	167.325
176.84895	219.625
181.15975	289.425
185.46741	388.425
189.77193	533.025
194.07331	719.625
198.37157	953.625
202.6667	1218.825
206.9587	1496.625
211.24758	1797.125
215.53334	2108.825
219.81599	2428.125
224.09553	2764.825
228.37195	3095.125
232.64527	3402.725
236.91549	3676.825
241.18261	3847.425
245.44663	3931.325
249.70755	3934.925
253.96539	3939.525
258.22014	3867.025
262.4718	3790.325
266.72039	3705.125
270.96589	3557.725
275.20832	3385.325
279.44768	3204.225
283.68397	3054.825
287.91719	2944.625
292.14735	2917.325
296.37445	2982.225
300.59849	3131.225
304.81948	3323.625
309.03742	3498.825
313.25231	3547.925
317.46415	3369.525
321.67296	3053.225
325.87872	2779.125
330.08145	2667.625
334.28114	2661.925
338.47781	2724.425
342.67145	2812.125
346.86207	2956.725
351.04966	3186.925
355.23424	3452.425
359.4158	3639.325
363.59435	3699.325
367.76989	3664.725
371.94243	3557.325
376.11196	3471.625
380.27849	3406.625
384.44203	3318.225
388.60257	3226.025
392.76012	3191.225
396.91468	3184.125
401.06626	3243.025
405.21485	3279.025
409.36047	3165.825
413.50311	2968.825
417.64277	2770.425
421.77947	2656.025
425.9132	2617.525
430.04396	2615.325
434.17176	2646.525
438.2966	2704.125
442.41849	2783.025
446.53742	2868.425
450.6534	2938.225
454.76644	2969.025
458.87653	2966.225
462.98368	2940.225
467.08789	2888.625
471.18916	2808.625
475.2875	2727.625
479.38291	2663.125
483.4754	2617.425
487.56496	2577.025
491.6516	2569.525
495.73531	2555.825
499.81612	2586.925
503.89401	2619.425
507.96899	2656.025
512.04106	2696.125
516.11023	2742.925
520.1765	2783.125
524.23987	2769.625
528.30034	2738.925
532.35792	2691.025
536.41261	2640.725
540.46441	2583.625
544.51333	2561.925
548.55936	2578.525
552.60252	2627.625
556.64279	2693.725
560.6802	2760.825
564.71473	2910.425
568.7464	3150.525
572.7752	3205.025
576.80114	2983.225
580.82422	2754.225
584.84444	2637.625
588.86181	2588.425
592.87633	2590.525
596.888	2657.725
600.89682	2865.325
604.9028	3432.725
608.90594	4776.425
612.90624	6339.425
616.90371	5848.025
620.89834	3894.825
624.89015	3048.625
628.87913	2934.525
632.86528	3017.225
636.84862	3139.025
640.82913	3153.625
644.80683	3044.425
648.78172	2996.225
652.75379	3011.225
656.72306	3136.325
660.68952	3274.725
664.65319	3210.525
668.61405	3130.025
672.57211	3302.625
676.52738	3611.225
680.47986	3856.225
684.42955	3854.225
688.37646	3631.725
692.32058	3398.825
696.26192	3296.325
700.20048	3238.425
704.13626	3195.525
708.06928	3087.725
711.99952	2937.925
715.927	2852.725
719.85171	2854.325
723.77365	2869.725
727.69284	2868.725
731.60928	2844.925
735.52295	2803.225
739.43388	2787.425
743.34206	2802.625
747.24749	2827.625
751.15017	2871.425
755.05012	2972.925
758.94733	3188.125
762.8418	3636.425
766.73354	4273.525
770.62254	4756.325
774.50882	4935.425
778.39237	4686.525
782.27321	4021.625
786.15132	3305.825
790.02671	2897.225
793.89938	2713.525
797.76935	2635.425
801.6366	2634.825
805.50115	2622.125
809.36299	2629.925
813.22213	2591.225
817.07857	2551.425
820.93231	2545.825
824.78336	2552.225
828.63172	2559.725
832.47738	2566.925
836.32036	2539.725
840.16066	2527.225
843.99827	2520.625
847.8332	2516.125
851.66546	2553.625
855.49504	2606.125
859.32195	2710.125
863.1462	2784.925
866.96777	2787.825
870.78668	2728.525
874.60293	2673.025
878.41652	2645.625
882.22745	2638.725
886.03573	2614.125
889.84136	2587.725
893.64433	2568.425
897.44466	2560.725
901.24235	2546.325
905.0374	2528.925
908.8298	2503.525
912.61957	2497.525
916.40671	2526.325
920.19121	2575.425
923.97308	2699.625
927.75233	2846.825
931.52895	2986.325
935.30295	2968.325
939.07433	2829.925
942.84309	2667.325
946.60924	2544.425
950.37278	2453.325
954.13371	2405.325
957.89203	2390.825
961.64774	2397.525
965.40086	2400.925
969.15137	2374.125
972.89929	2365.525
976.64461	2342.125
980.38733	2332.925
984.12747	2327.525
987.86502	2328.025
991.59999	2330.825
995.33237	2336.225
999.06217	2356.725
1002.78939	2388.025
1006.51404	2442.225
1010.23611	2477.425
1013.95561	2472.325
1017.67255	2475.225
1021.38692	2443.225
1025.09872	2424.425
1028.80796	2417.125
1032.51465	2431.425
1036.21877	2488.925
1039.92035	2521.725
1043.61937	2580.725
1047.31584	2633.025
1051.00976	2641.325
1054.70114	2613.425
1058.38998	2585.425
1062.07627	2550.625
1065.76003	2494.925
1069.44126	2479.825
1073.11995	2468.825
1076.79611	2496.925
1080.46974	2578.425
1084.14085	2683.425
1087.80943	2767.825
1091.47549	2780.625
1095.13903	2718.425
1098.80005	2595.425
1102.45857	2536.425
1106.11456	2539.725
1109.76805	2604.425
1113.41903	2698.125
1117.06751	2882.425
1120.71348	3116.625
1124.35696	3396.825
1127.99793	3550.625
1131.63641	3419.725
1135.2724	3132.825
1138.90589	2914.925
1142.5369	2780.025
1146.16542	2678.725
1149.79145	2609.825
1153.415	2590.725
1157.03607	2572.725
1160.65467	2608.125
1164.27079	2689.825
1167.88443	2817.925
1171.49561	3030.425
1175.10432	3418.325
1178.71056	3963.925
1182.31434	4386.025
1185.91565	4413.025
1189.51451	4129.525
1193.11091	3774.525
1196.70485	3461.325
1200.29634	3287.725
1203.88538	3156.825
1207.47197	2957.925
1211.05612	2768.825
1214.63782	2659.425
1218.21708	2597.825
1221.79391	2592.625
1225.36829	2581.325
1228.94024	2581.925
1232.50976	2577.125
1236.07685	2594.425
1239.6415	2626.025
1243.20374	2649.425
1246.76355	2677.425
1250.32093	2707.925
1253.8759	2773.425
1257.42845	2828.625
1260.97859	2919.025
1264.52631	3024.525
1268.07163	3103.325
1271.61453	3170.125
1275.15503	3180.325
1278.69312	3178.925
1282.22882	3189.225
1285.76211	3307.225
1289.29301	3438.525
1292.82151	3572.525
1296.34761	3721.125
1299.87133	4011.525
1303.39266	4565.825
1306.9116	5415.625
1310.42815	6149.925
1313.94233	6200.925
1317.45412	5520.825
1320.96354	4731.025
1324.47058	4060.925
1327.97525	3643.925
1331.47754	3421.225
1334.97747	3379.525
1338.47502	3486.225
1341.97022	3742.525
1345.46305	4224.125
1348.95352	4812.625
1352.44163	5480.325
1355.92738	6428.025
1359.41078	7825.225
1362.89183	8876.725
1366.37053	8201.825
1369.84688	6375.125
1373.32088	5023.025
1376.79254	4324.425
1380.26186	3894.625
1383.72883	3541.925
1387.19347	3249.625
1390.65578	3044.025
1394.11575	2926.025
1397.57339	2862.625
1401.0287	2877.225
1404.48168	2909.825
1407.93234	2989.625
1411.38068	3109.325
1414.82669	3273.925
1418.27039	3454.025
1421.71177	3564.825
1425.15083	3580.325
1428.58758	3556.225
1432.02203	3576.925
1435.45416	3494.725
1438.88399	3344.725
1442.31151	3179.925
1445.73673	3091.325
1449.15965	3036.625
1452.58027	3001.425
1455.9986	2945.925
1459.41463	2931.525
1462.82837	2943.125
1466.23982	2994.925
1469.64898	3033.225
1473.05586	3036.225
1476.46045	2990.925
1479.86276	2993.725
1483.26279	3016.125
1486.66054	3125.325
1490.05602	3296.125
1493.44922	3595.125
1496.84016	4116.625
1500.22882	4979.125
1503.61521	6190.625
1506.99934	7478.125
1510.38121	8268.725
1513.76081	8097.325
1517.13816	7006.125
1520.51324	5638.825
1523.88607	4492.525
1527.25665	3805.625
1530.62498	3453.625
1533.99105	3236.625
1537.35488	3107.325
1540.71647	3042.025
1544.07581	3037.525
1547.4329	3085.925
1550.78776	3153.825
1554.14038	3200.225
1557.49077	3257.825
1560.83892	3368.025
1564.18484	3576.425
1567.52853	3827.925
1570.86999	4046.525
1574.20922	4113.125
1577.54624	3999.425
1580.88103	3637.225
1584.2136	3223.125
1587.54395	2991.225
1590.87208	2940.025
1594.19801	3028.825
1597.52172	3159.225
1600.84321	3176.725
1604.16251	3044.425
1607.47959	2883.725
1610.79447	2768.225
1614.10715	2640.725
1617.41763	2546.825
1620.7259	2498.025
1624.03199	2488.925
1627.33587	2515.725
1630.63757	2570.925
1633.93707	2702.625
1637.23439	2914.425
1640.52951	3281.025
1643.82246	3898.025
1647.11321	4652.325
1650.40179	5129.025
1653.68819	4896.625
1656.97241	4205.125
1660.25446	3489.325
1663.53433	3052.825
1666.81203	2813.725
1670.08756	2696.325
1673.36092	2633.225
1676.63211	2594.725
1679.90115	2566.725
1683.16801	2536.825
1686.43272	2486.925
1689.69527	2429.825
1692.95567	2378.425
1696.2139	2340.825
1699.46999	2293.025
1702.72392	2267.625
1705.97571	2230.825
1709.22535	2218.325
1712.47284	2217.825
1715.71819	2206.325
1718.96139	2202.325
1722.20246	2187.925
1725.44139	2207.925
1728.67818	2218.225
1731.91284	2219.925
1735.14537	2235.925
1738.37576	2263.425
1741.60403	2316.625
1744.83017	2376.725
1748.05418	2463.225
1751.27607	2542.425
1754.49584	2561.225
1757.71349	2517.325
1760.92903	2420.125
1764.14244	2305.125
1767.35375	2181.625
1770.56294	2063.625
1773.77002	1998.225
1776.97499	1935.125
1780.17785	1882.625
1783.37861	1838.125
1786.57727	1801.325
1789.77382	1767.025
1792.96828	1739.725
1796.16064	1714.425
1799.3509	1693.625
1802.53907	1678.525
1805.72514	1657.725
1808.90913	1639.525
1812.09102	1640.425
1815.27083	1624.425
1818.44856	1610.525
1821.6242	1604.825
1824.79776	1608.225
1827.96924	1594.525
1831.13864	1574.625
1834.30597	1584.625
1837.47122	1579.525
1840.6344	1570.125
1843.7955	1571.825
1846.95454	1562.625
1850.11151	1558.025
1853.26642	1548.125
1856.41926	1544.525
1859.57004	1539.525
1862.71876	1541.925
1865.86542	1535.625
1869.01003	1533.025
1872.15258	1538.325
1875.29308	1542.225
1878.43152	1539.225
1881.56792	1529.225
1884.70227	1526.925
1887.83457	1519.525
1890.96482	1520.525
1894.09304	1524.325
1897.21921	1514.025
1900.34335	1514.825
1903.46544	1516.225
1906.58551	1511.225
1909.70353	1514.725
1912.81953	1513.125
1915.93349	1507.625
1919.04543	1504.225
1922.15534	1500.025
1925.26322	1495.725
1928.36908	1495.525
1931.47292	1493.225
1934.57473	1479.225
1937.67453	1486.125
1940.77232	1467.825
1943.86808	1460.625
1946.96184	1458.825
1950.05358	1450.625
1953.14331	1447.025
1956.23103	1449.625
1959.31675	1455.625
1962.40046	1442.625
1965.48217	1439.725
1968.56188	1430.125
1971.63959	1435.325
1974.7153	1419.525
1977.78901	1421.425
1980.86073	1412.125
1983.93046	1403.725
1986.99819	1403.325
1990.06394	1397.725
1993.1277	1377.925
1996.18947	1384.825
1999.24925	1384.325
2002.30706	1364.225
2005.36288	1364.125
2008.41672	1365.325
2011.46859	1358.125
2014.51848	1353.325
2017.56639	1354.025
2020.61233	1345.525
2023.6563	1348.025
2026.6983	1341.325
2029.73833	1335.725
2032.7764	1334.125
2035.8125	1325.925
2038.84664	1318.525
2041.87881	1312.825
2044.90903	1306.725
2047.93729	1317.425
2050.96359	1324.725
2053.98794	1306.325
2057.01034	1306.225
2060.03078	1305.525
2063.04927	1304.025
2066.06582	1301.725
2069.08042	1297.325
2072.09307	1299.225
2075.10378	1300.725
2078.11255	1306.225
2081.11938	1303.025
2084.12426	1309.425
2087.12722	1303.025
2090.12824	1313.625
2093.12732	1325.625
2096.12447	1328.725
2099.11969	1346.425
2102.11299	1353.425
2105.10435	1354.125
2108.09379	1361.225
2111.08131	1360.025
2114.0669	1355.825
2117.05057	1343.225
2120.03233	1338.625
2123.01216	1323.925
2125.99008	1323.525
2128.96609	1317.825
2131.94018	1307.625
2134.91236	1315.225
2137.88263	1304.225
2140.851	1297.725
2143.81746	1298.025
2146.78201	1294.625
2149.74466	1296.125
2152.7054	1288.225
2155.66425	1296.825
2158.6212	1290.825
2161.57625	1284.525
2164.52941	1289.125
2167.48067	1288.025
2170.43004	1279.225
2173.37752	1286.625
2176.32311	1277.025
2179.26681	1273.025
2182.20863	1274.125
2185.14856	1270.725
2188.08661	1273.925
2191.02278	1269.825
2193.95707	1267.725
2196.88948	1270.825
2199.82001	1266.225
2202.74867	1252.125
2205.67545	1257.125
2208.60037	1260.625
2211.52341	1258.725
2214.44458	1254.325
2217.36388	1243.725
2220.28132	1249.125
2223.1969	1233.425
2226.11061	1227.825
2229.02246	1226.525
2231.93245	1224.525
2234.84058	1218.425
2237.74686	1219.125
2240.65128	1211.925
2243.55385	1225.425
2246.45456	1225.225
2249.35343	1221.425
2252.25044	1228.625
2255.14561	1220.325
2258.03893	1219.125
2260.93041	1219.325
2263.82004	1219.025
2266.70783	1210.325
2269.59378	1203.125
2272.4779	1209.125
2275.36017	1204.125
2278.24061	1199.525
2281.11922	1194.725
2283.996	1195.525
2286.87094	1188.125
2289.74405	1179.725
2292.61534	1172.825
2295.4848	1180.925
2298.35243	1176.525
2301.21824	1175.225
2304.08223	1175.425
2306.94439	1170.725
2309.80474	1168.625
2312.66327	1173.125
2315.51999	1169.525
2318.37489	1177.025
2321.22797	1159.925
2324.07925	1167.725
2326.92871	1161.225
2329.77637	1165.325
2332.62222	1153.825
2335.46626	1160.025
2338.3085	1155.525
2341.14893	1156.425
2343.98756	1152.825
2346.8244	1154.625
2349.65943	1147.325
2352.49267	1151.125
2355.32411	1155.925
2358.15376	1167.025
2360.98161	1157.825
2363.80768	1160.825
2366.63195	1165.425
2369.45444	1164.325
2372.27514	1162.925
2375.09405	1168.025
2377.91118	1159.725
2380.72652	1159.925
2383.54009	1153.825
2386.35187	1158.525
2389.16188	1148.225
2391.97011	1136.425
2394.77657	1143.525
2397.58125	1132.525
2400.38416	1134.125
2403.18529	1117.125
2405.98466	1115.825
2408.78226	1117.425
2411.57809	1119.925
2414.37216	1120.325
2417.16446	1105.425
2419.955	1112.425
2422.74378	1114.725
2425.5308	1112.025
2428.31606	1108.525
2431.09956	1112.025
2433.88131	1113.925
2436.6613	1113.925
2439.43954	1114.925
2442.21603	1104.725
2444.99077	1102.025
2447.76377	1109.525
2450.53501	1105.825
2453.30451	1103.925
2456.07226	1101.025
2458.83827	1102.725
2461.60254	1102.525
2464.36507	1099.825
2467.12586	1102.425
2469.88492	1099.325
2472.64224	1093.025
2475.39782	1093.725
2478.15167	1100.325
2480.90379	1099.625
2483.65417	1109.825
2486.40283	1110.025
2489.14976	1110.525
2491.89497	1111.625
2494.63845	1107.325
2497.3802	1115.525
2500.12024	1100.925
2502.85855	1100.425
2505.59514	1100.825
2508.33002	1089.225
2511.06318	1080.025
2513.79462	1074.125
2516.52435	1063.625
2519.25237	1061.725
2521.97867	1052.025
2524.70327	1058.425
2527.42616	1062.625
2530.14734	1046.225
2532.86681	1049.625
2535.58458	1043.225
2538.30065	1047.225
2541.01501	1044.425
2543.72768	1048.025
2546.43864	1042.925
2549.14791	1048.425
2551.85548	1039.325
2554.56136	1040.825
2557.26554	1043.125
2559.96803	1041.125
2562.66883	1036.425
2565.36794	1028.625
2568.06536	1034.025
2570.7611	1032.625
2573.45514	1027.625
2576.14751	1025.925
2578.83819	1022.825
2581.52719	1020.425
2584.21451	1022.825
2586.90015	1019.325
2589.58411	1013.725
2592.2664	1016.125
2594.94701	1008.525
2597.62594	1008.125
2600.30321	1010.825
2602.9788	1003.725
2605.65273	1004.325
2608.32498	1008.725
2610.99557	1006.025
2613.66449	1005.325
2616.33175	998.425
2618.99734	998.425
2621.66128	1001.425
2624.32355	996.625
2626.98416	992.025
2629.64311	998.925
2632.30041	987.425
2634.95605	984.625
2637.61004	980.325
2640.26238	985.225
2642.91306	989.425
2645.56209	984.425
2648.20948	986.925
2650.85521	985.225
2653.4993	984.125
2656.14175	983.925
2658.78255	987.125
2661.42171	989.325
2664.05923	993.525
2666.6951	986.725
2669.32934	993.325
2671.96194	993.325
2674.59291	993.625
2677.22224	996.525
2679.84993	991.425
2682.476	984.525
2685.10043	989.925
2687.72324	986.925
2690.34441	988.925
2692.96396	994.025
2695.58188	995.225
2698.19818	983.825
2700.81285	991.025
2703.4259	989.925
2706.03733	975.325
2708.64714	985.225
2711.25533	999.725
2713.86191	985.825
2716.46687	990.025
2719.07021	1004.025
2721.67194	996.425
2724.27206	996.325
2726.87057	997.025
2729.46747	996.525
2732.06276	998.025
2734.65644	997.725
2737.24852	990.525
2739.83899	991.025
2742.42786	988.225
2745.01513	983.825
2747.60079	981.225
2750.18486	985.125
2752.76733	980.925
2755.3482	989.525
2757.92747	986.025
2760.50515	986.225
2763.08123	981.025
2765.65573	984.325
2768.22863	983.925
2770.79994	985.225
2773.36967	983.125
2775.9378	985.025
2778.50435	990.725
2781.06932	996.425
2783.6327	1000.725
2786.1945	994.225
2788.75471	1010.125
2791.31335	1005.325
2793.87041	1019.125
2796.42589	1013.825
2798.97979	1034.825
2801.53212	1036.825
2804.08288	1047.525
2806.63206	1063.125
2809.17967	1074.425
2811.72571	1076.325
2814.27018	1084.325
2816.81308	1095.325
2819.35442	1103.125
2821.89419	1107.525
2824.43239	1103.625
2826.96904	1115.425
2829.50412	1129.425
2832.03763	1121.425
2834.56959	1129.925
2837.1	1129.325
2839.62884	1139.225
2842.15613	1144.225
2844.68186	1153.325
2847.20604	1151.925
2849.72867	1160.025
2852.24974	1165.225
2854.76927	1167.825
2857.28724	1176.825
2859.80367	1178.425
2862.31855	1192.025
2864.83189	1193.925
2867.34368	1207.525
2869.85393	1224.925
2872.36264	1243.325
2874.8698	1266.625
2877.37543	1279.125
2879.87952	1299.825
2882.38207	1330.525
2884.88308	1359.225
2887.38256	1374.225
2889.88051	1392.325
2892.37692	1414.325
2894.8718	1426.625
2897.36515	1457.525
2899.85698	1479.125
2902.34727	1501.925
2904.83604	1530.725
2907.32328	1557.125
2909.809	1585.825
2912.29319	1606.125
2914.77587	1630.125
2917.25702	1646.725
2919.73665	1666.325
2922.21476	1692.725
2924.69136	1701.825
2927.16644	1712.125
2929.64	1721.725
2932.11205	1732.325
2934.58258	1730.725
2937.05161	1747.525
2939.51912	1738.225
2941.98513	1738.525
2944.44962	1722.025
2946.91261	1723.825
2949.37409	1707.525
2951.83407	1696.525
2954.29254	1663.625
2956.74951	1642.425
2959.20498	1609.625
2961.65895	1568.025
2964.11142	1536.325
2966.56239	1501.225
2969.01186	1459.825
2971.45984	1418.025
2973.90632	1389.925
2976.35131	1366.925
2978.7948	1333.625
2981.23681	1328.025
2983.67732	1310.025
2986.11635	1304.425
2988.55388	1290.125
2990.98993	1273.125
2993.4245	1275.425
2995.85758	1265.825
2998.28917	1264.225
3000.71928	1277.625
3003.14791	1267.025
3005.57506	1269.125
3008.00073	1268.425
3010.42493	1303.725
3012.84764	1263.725
3015.26888	1252.925
3017.68865	1246.625
3020.10694	1240.125
3022.52376	1225.925
3024.9391	1220.325
3027.35298	1207.825
3029.76539	1190.025
3032.17632	1174.225
3034.5858	1170.425
3036.9938	1160.825
3039.40034	1155.525
3041.80542	1141.425
3044.20903	1140.425
3046.61118	1133.125
3049.01187	1121.925
3051.4111	1114.925
3053.80888	1114.025
3056.20519	1106.825
3058.60005	1104.325
3060.99345	1102.525
3063.3854	1101.525
3065.7759	1101.325
3068.16494	1104.725
3070.55254	1098.125
3072.93868	1092.525
3075.32338	1101.725
3077.70662	1090.925
3080.08842	1103.825
3082.46878	1102.725
3084.84769	1106.425
3087.22515	1116.525
3089.60118	1121.225
3091.97576	1121.725
3094.3489	1129.025
3096.72061	1136.725
3099.09087	1147.025
3101.4597	1158.825
3103.82709	1156.125
3106.19305	1160.925
3108.55757	1170.525
3110.92066	1184.225
3113.28232	1188.125
3115.64255	1192.925
3118.00134	1196.025
3120.35871	1204.625
3122.71466	1207.825
3125.06917	1212.225
3127.42226	1216.625
3129.77393	1231.725
3132.12417	1236.125
3134.47299	1239.125
3136.82039	1260.025
3139.16636	1263.025
3141.51092	1272.325
3143.85406	1279.725
3146.19579	1292.325
3148.53609	1296.125
3150.87499	1310.525
3153.21246	1323.525
3155.54853	1340.525
3157.88318	1344.325
3160.21642	1357.325
3162.54826	1373.625
3164.87868	1378.625
3167.2077	1383.225
3169.5353	1402.125
3171.86151	1407.425
3174.18631	1409.925
3176.5097	1414.525
3178.83169	1434.225
3181.15228	1439.125
3183.47147	1448.125
3185.78926	1451.125
3188.10565	1454.825
3190.42065	1463.525
3192.73424	1470.525
3195.04645	1493.925
3197.35725	1496.625
3199.66667	1501.825
3201.97469	1501.325
3204.28132	1516.825
3206.58656	1519.625
3208.8904	1537.225
3211.19287	1535.325
3213.49394	1541.125
3215.79363	1553.925
3218.09193	1562.325
3220.38884	1565.925
3222.68438	1577.125
3224.97853	1574.325
3227.2713	1581.125
3229.56269	1587.625
3231.8527	1591.425
3234.14133	1588.525
3236.42858	1591.325
3238.71446	1599.025
3240.99896	1597.425
3243.28209	1600.125
3245.56384	1600.725
3247.84423	1603.825
