Data from AgNPs_UA_20uM_CRN_500uM_AS_RamanShift__30__14-58-31-533.txt Node

Date: Wed Aug 17 14:58:31 BST 2022
User: TCL
Spectrometer: QEP01345
Trigger mode: 4
Integration Time (sec): 7.000000E0
Scans to average: 10
Electric dark correction enabled: true
Nonlinearity correction enabled: false
Boxcar width: 0
XAxis mode: Raman Shifts
Number of Pixels in Spectrum: 1044
>>>>>Begin Spectral Data<<<<<
46.04893	0.075
50.45542	-1.625
54.85868	-1.125
59.25871	-0.125
63.6555	52.775
68.04907	52.975
72.43941	57.375
76.82654	60.675
81.21044	64.275
85.59113	65.175
89.96862	66.175
94.34289	72.875
98.71396	75.975
103.08183	77.175
107.4465	78.475
111.80798	77.075
116.16626	80.375
120.52136	85.275
124.87327	84.975
129.222	87.375
133.56755	94.375
137.90993	96.675
142.24913	113.675
146.58517	121.175
150.91804	131.475
155.24774	159.375
159.57429	188.475
163.89768	236.975
168.21792	313.075
172.53501	417.375
176.84895	581.575
181.15975	816.975
185.46741	1159.275
189.77193	1608.075
194.07331	2162.175
198.37157	2809.775
202.6667	3513.675
206.9587	4238.675
211.24758	5038.575
215.53334	5917.175
219.81599	6965.375
224.09553	8146.875
228.37195	9493.875
232.64527	10808.575
236.91549	11998.875
241.18261	12860.175
245.44663	13400.275
249.70755	13733.875
253.96539	14050.475
258.22014	14233.675
262.4718	14241.975
266.72039	14026.975
270.96589	13455.175
275.20832	12752.575
279.44768	12023.875
283.68397	11476.375
287.91719	11298.375
292.14735	11608.775
296.37445	12478.175
300.59849	14024.075
304.81948	15957.375
309.03742	17611.675
313.25231	18129.575
317.46415	16763.475
321.67296	14277.175
325.87872	12202.975
330.08145	11278.875
334.28114	11371.575
338.47781	11936.575
342.67145	12719.675
346.86207	13965.075
351.04966	15942.975
355.23424	18109.375
359.4158	19453.375
363.59435	19632.675
367.76989	19012.075
371.94243	18126.575
376.11196	17221.775
380.27849	16473.275
384.44203	15711.975
388.60257	15019.475
392.76012	14644.775
396.91468	14760.475
401.06626	15210.575
405.21485	15389.175
409.36047	14418.475
413.50311	12583.275
417.64277	10906.475
421.77947	9897.375
425.9132	9453.775
430.04396	9291.975
434.17176	9335.275
438.2966	9615.275
442.41849	10098.475
446.53742	10580.375
450.6534	10881.375
454.76644	10814.375
458.87653	10515.175
462.98368	10152.175
467.08789	9775.075
471.18916	9391.875
475.2875	8878.775
479.38291	8457.675
483.4754	8157.575
487.56496	8004.075
491.6516	7904.175
495.73531	7886.775
499.81612	8006.475
503.89401	8288.775
507.96899	8669.075
512.04106	9194.075
516.11023	9725.775
520.1765	10082.775
524.23987	10098.775
528.30034	9863.075
532.35792	9581.275
536.41261	9224.775
540.46441	8716.675
544.51333	8397.875
548.55936	8411.075
552.60252	8778.875
556.64279	9270.475
560.6802	9773.475
564.71473	10927.475
568.7464	12665.275
572.7752	12680.375
576.80114	10531.375
580.82422	8681.475
584.84444	7815.575
588.86181	7588.775
592.87633	7646.075
596.888	8073.475
600.89682	9452.075
604.9028	13917.875
608.90594	24761.475
612.90624	36915.075
616.90371	32076.475
620.89834	16737.275
624.89015	10334.875
628.87913	9508.175
632.86528	10301.375
636.84862	10787.375
640.82913	9850.575
644.80683	8338.075
648.78172	7507.575
652.75379	7731.275
656.72306	8966.775
660.68952	10076.975
664.65319	9228.175
668.61405	7684.575
672.57211	7123.075
676.52738	7159.075
680.47986	7076.475
684.42955	6791.275
688.37646	6633.175
692.32058	6699.575
696.26192	6872.775
700.20048	7162.675
704.13626	7240.575
708.06928	7114.075
711.99952	6977.775
715.927	7017.175
719.85171	7286.575
723.77365	7460.175
727.69284	7346.075
731.60928	7120.375
735.52295	7036.875
739.43388	7066.575
743.34206	7132.675
747.24749	7112.575
751.15017	7150.875
755.05012	7671.075
758.94733	9572.875
762.8418	13933.975
766.73354	19467.775
770.62254	23121.175
774.50882	24707.775
778.39237	23575.775
782.27321	18279.075
786.15132	12426.575
790.02671	9189.175
793.89938	7787.575
797.76935	7216.875
801.6366	6970.775
805.50115	6847.875
809.36299	6740.975
813.22213	6691.275
817.07857	6659.075
820.93231	6708.575
824.78336	6887.775
828.63172	7084.075
832.47738	7128.175
836.32036	6940.275
840.16066	6634.875
843.99827	6431.375
847.8332	6413.475
851.66546	6419.975
855.49504	6407.375
859.32195	6384.775
863.1462	6314.275
866.96777	6288.975
870.78668	6293.875
874.60293	6359.175
878.41652	6514.975
882.22745	6725.975
886.03573	6816.075
889.84136	6810.675
893.64433	6786.275
897.44466	6853.675
901.24235	6866.275
905.0374	6680.375
908.8298	6445.875
912.61957	6272.775
916.40671	6163.975
920.19121	6192.175
923.97308	6437.475
927.75233	7000.675
931.52895	7522.875
935.30295	7168.075
939.07433	6354.275
942.84309	5761.975
946.60924	5537.875
950.37278	5437.875
954.13371	5408.175
957.89203	5397.275
961.64774	5398.375
965.40086	5368.475
969.15137	5346.075
972.89929	5340.775
976.64461	5321.575
980.38733	5286.775
984.12747	5294.175
987.86502	5327.675
991.59999	5385.875
995.33237	5488.575
999.06217	5645.775
1002.78939	5884.475
1006.51404	6168.975
1010.23611	6376.075
1013.95561	6357.475
1017.67255	6231.375
1021.38692	6032.975
1025.09872	5811.875
1028.80796	5677.675
1032.51465	5717.175
1036.21877	5827.175
1039.92035	5957.575
1043.61937	6111.075
1047.31584	6210.075
1051.00976	6185.975
1054.70114	6085.275
1058.38998	5978.075
1062.07627	5993.775
1065.76003	5969.575
1069.44126	6007.175
1073.11995	6261.975
1076.79611	6776.375
1080.46974	7670.275
1084.14085	8648.475
1087.80943	9305.175
1091.47549	9194.575
1095.13903	8517.175
1098.80005	7605.375
1102.45857	7139.675
1106.11456	7141.175
1109.76805	7533.175
1113.41903	8432.175
1117.06751	9877.775
1120.71348	12019.475
1124.35696	14523.575
1127.99793	15395.375
1131.63641	13535.375
1135.2724	10957.675
1138.90589	9235.275
1142.5369	8230.475
1146.16542	7580.475
1149.79145	7224.575
1153.415	7133.075
1157.03607	7234.175
1160.65467	7605.075
1164.27079	8309.875
1167.88443	9429.875
1171.49561	11311.675
1175.10432	14460.875
1178.71056	18504.975
1182.31434	21323.475
1185.91565	21302.375
1189.51451	19384.775
1193.11091	16870.475
1196.70485	14719.675
1200.29634	13363.875
1203.88538	12029.575
1207.47197	10182.075
1211.05612	8556.875
1214.63782	7568.975
1218.21708	7085.375
1221.79391	6865.475
1225.36829	6838.075
1228.94024	6813.475
1232.50976	6812.075
1236.07685	6885.875
1239.6415	7036.075
1243.20374	7226.275
1246.76355	7410.575
1250.32093	7640.375
1253.8759	8040.075
1257.42845	8695.875
1260.97859	9536.175
1264.52631	10450.975
1268.07163	11156.875
1271.61453	11454.275
1275.15503	11358.675
1278.69312	11233.475
1282.22882	11553.675
1285.76211	12512.275
1289.29301	13497.475
1292.82151	14300.175
1296.34761	15317.475
1299.87133	17466.875
1303.39266	21535.675
1306.9116	27865.175
1310.42815	33537.975
1313.94233	33933.075
1317.45412	28799.375
1320.96354	22372.975
1324.47058	16940.975
1327.97525	13353.975
1331.47754	11591.575
1334.97747	11251.975
1338.47502	12095.775
1341.97022	14339.275
1345.46305	17783.275
1348.95352	21824.375
1352.44163	26729.075
1355.92738	34412.175
1359.41078	45069.575
1362.89183	50490.075
1366.37053	42855.275
1369.84688	30538.975
1373.32088	22091.075
1376.79254	17523.875
1380.26186	14606.775
1383.72883	12300.375
1387.19347	10381.775
1390.65578	8944.675
1394.11575	8051.475
1397.57339	7568.175
1401.0287	7356.475
1404.48168	7200.575
1407.93234	7198.975
1411.38068	7425.275
1414.82669	7791.975
1418.27039	7978.175
1421.71177	7944.575
1425.15083	7943.975
1428.58758	8307.275
1432.02203	8741.575
1435.45416	8699.875
1438.88399	8435.575
1442.31151	8254.075
1445.73673	8303.375
1449.15965	8326.775
1452.58027	8193.475
1455.9986	7986.175
1459.41463	8002.875
1462.82837	8366.075
1466.23982	8837.075
1469.64898	9087.675
1473.05586	9030.475
1476.46045	9044.575
1479.86276	9275.275
1483.26279	9889.175
1486.66054	10971.175
1490.05602	12652.275
1493.44922	15211.975
1496.84016	19384.675
1500.22882	25846.075
1503.61521	34805.975
1506.99934	44611.875
1510.38121	51364.475
1513.76081	50996.675
1517.13816	43151.275
1520.51324	32252.675
1523.88607	23177.275
1527.25665	17575.075
1530.62498	14458.175
1533.99105	12581.775
1537.35488	11490.675
1540.71647	10980.275
1544.07581	10992.975
1547.4329	11315.575
1550.78776	11747.575
1554.14038	12172.775
1557.49077	12617.775
1560.83892	13470.975
1564.18484	15075.275
1567.52853	16933.775
1570.86999	18082.275
1574.20922	18389.975
1577.54624	17399.075
1580.88103	14620.075
1584.2136	11591.575
1587.54395	9759.375
1590.87208	9372.475
1594.19801	10159.375
1597.52172	11312.375
1600.84321	11529.275
1604.16251	10718.775
1607.47959	9713.775
1610.79447	8686.275
1614.10715	7774.075
1617.41763	7095.575
1620.7259	6782.975
1624.03199	6775.075
1627.33587	7003.775
1630.63757	7528.375
1633.93707	8544.375
1637.23439	10333.975
1640.52951	13553.575
1643.82246	18740.875
1647.11321	24692.275
1650.40179	27939.675
1653.68819	25584.675
1656.97241	19634.375
1660.25446	13816.975
1663.53433	9981.375
1666.81203	7825.075
1670.08756	6629.575
1673.36092	5971.375
1676.63211	5548.875
1679.90115	5283.575
1683.16801	5100.375
1686.43272	4981.775
1689.69527	4888.875
1692.95567	4825.075
1696.2139	4780.975
1699.46999	4771.475
1702.72392	4737.475
1705.97571	4701.675
1709.22535	4695.475
1712.47284	4697.375
1715.71819	4686.075
1718.96139	4634.675
1722.20246	4559.675
1725.44139	4470.975
1728.67818	4391.675
1731.91284	4292.675
1735.14537	4206.675
1738.37576	4165.475
1741.60403	4151.375
1744.83017	4122.975
1748.05418	4067.175
1751.27607	4048.975
1754.49584	4009.275
1757.71349	3955.675
1760.92903	3919.875
1764.14244	3874.875
1767.35375	3814.475
1770.56294	3759.175
1773.77002	3708.275
1776.97499	3632.075
1780.17785	3568.675
1783.37861	3538.675
1786.57727	3518.175
1789.77382	3474.475
1792.96828	3475.775
1796.16064	3456.275
1799.3509	3441.875
1802.53907	3428.675
1805.72514	3404.975
1808.90913	3382.375
1812.09102	3357.675
1815.27083	3328.775
1818.44856	3312.975
1821.6242	3288.975
1824.79776	3270.375
1827.96924	3248.175
1831.13864	3237.075
1834.30597	3216.175
1837.47122	3168.775
1840.6344	3144.575
1843.7955	3139.775
1846.95454	3119.875
1850.11151	3121.775
1853.26642	3103.875
1856.41926	3103.775
1859.57004	3098.875
1862.71876	3116.075
1865.86542	3129.675
1869.01003	3136.175
1872.15258	3128.475
1875.29308	3133.675
1878.43152	3138.975
1881.56792	3125.975
1884.70227	3109.175
1887.83457	3104.275
1890.96482	3100.275
1894.09304	3089.475
1897.21921	3069.675
1900.34335	3068.775
1903.46544	3075.875
1906.58551	3076.975
1909.70353	3071.975
1912.81953	3060.875
1915.93349	3049.475
1919.04543	3051.275
1922.15534	3025.575
1925.26322	3006.975
1928.36908	2977.475
1931.47292	2951.275
1934.57473	2902.975
1937.67453	2873.775
1940.77232	2848.375
1943.86808	2821.875
1946.96184	2818.075
1950.05358	2807.675
1953.14331	2808.175
1956.23103	2807.775
1959.31675	2813.675
1962.40046	2821.875
1965.48217	2831.575
1968.56188	2846.975
1971.63959	2852.775
1974.7153	2841.075
1977.78901	2808.975
1980.86073	2778.175
1983.93046	2744.375
1986.99819	2720.775
1990.06394	2690.575
1993.1277	2661.575
1996.18947	2632.675
1999.24925	2627.175
2002.30706	2600.675
2005.36288	2578.875
2008.41672	2569.575
2011.46859	2564.775
2014.51848	2554.575
2017.56639	2538.775
2020.61233	2540.175
2023.6563	2522.375
2026.6983	2506.175
2029.73833	2499.475
2032.7764	2483.875
2035.8125	2473.975
2038.84664	2474.175
2041.87881	2475.875
2044.90903	2460.075
2047.93729	2441.175
2050.96359	2444.875
2053.98794	2419.775
2057.01034	2404.475
2060.03078	2394.975
2063.04927	2390.375
2066.06582	2385.575
2069.08042	2384.175
2072.09307	2374.475
2075.10378	2375.775
2078.11255	2370.375
2081.11938	2377.475
2084.12426	2366.275
2087.12722	2375.475
2090.12824	2369.575
2093.12732	2368.475
2096.12447	2370.575
2099.11969	2363.275
2102.11299	2370.375
2105.10435	2358.175
2108.09379	2372.575
2111.08131	2368.175
2114.0669	2390.575
2117.05057	2415.875
2120.03233	2430.175
2123.01216	2446.275
2125.99008	2450.375
2128.96609	2460.075
2131.94018	2439.875
2134.91236	2433.275
2137.88263	2427.875
2140.851	2396.375
2143.81746	2389.275
2146.78201	2375.675
2149.74466	2357.775
2152.7054	2331.675
2155.66425	2318.975
2158.6212	2310.875
2161.57625	2304.775
2164.52941	2294.675
2167.48067	2297.775
2170.43004	2281.975
2173.37752	2297.975
2176.32311	2295.075
2179.26681	2304.075
2182.20863	2306.675
2185.14856	2312.175
2188.08661	2297.975
2191.02278	2290.575
2193.95707	2269.375
2196.88948	2269.975
2199.82001	2258.175
2202.74867	2242.875
2205.67545	2252.675
2208.60037	2254.775
2211.52341	2248.575
2214.44458	2229.275
2217.36388	2221.775
2220.28132	2220.175
2223.1969	2198.875
2226.11061	2202.975
2229.02246	2191.175
2231.93245	2175.275
2234.84058	2176.975
2237.74686	2166.975
2240.65128	2173.775
2243.55385	2185.375
2246.45456	2181.875
2249.35343	2199.975
2252.25044	2205.275
2255.14561	2248.175
2258.03893	2269.675
2260.93041	2289.875
2263.82004	2303.875
2266.70783	2289.275
2269.59378	2279.075
2272.4779	2270.475
2275.36017	2258.775
2278.24061	2251.775
2281.11922	2236.675
2283.996	2225.175
2286.87094	2216.775
2289.74405	2186.475
2292.61534	2165.975
2295.4848	2144.775
2298.35243	2140.175
2301.21824	2130.375
2304.08223	2127.275
2306.94439	2129.675
2309.80474	2126.175
2312.66327	2130.575
2315.51999	2113.075
2318.37489	2109.275
2321.22797	2091.875
2324.07925	2085.975
2326.92871	2097.075
2329.77637	2092.675
2332.62222	2089.775
2335.46626	2096.075
2338.3085	2091.975
2341.14893	2090.675
2343.98756	2105.475
2346.8244	2110.575
2349.65943	2123.975
2352.49267	2134.775
2355.32411	2141.675
2358.15376	2175.175
2360.98161	2199.375
2363.80768	2214.575
2366.63195	2226.575
2369.45444	2245.375
2372.27514	2256.775
2375.09405	2259.775
2377.91118	2255.975
2380.72652	2228.575
2383.54009	2205.575
2386.35187	2184.675
2389.16188	2158.075
2391.97011	2137.075
2394.77657	2106.175
2397.58125	2094.375
2400.38416	2076.075
2403.18529	2065.875
2405.98466	2044.475
2408.78226	2029.675
2411.57809	2029.975
2414.37216	2019.575
2417.16446	2024.775
2419.955	2026.675
2422.74378	2029.475
2425.5308	2036.575
2428.31606	2043.175
2431.09956	2056.875
2433.88131	2066.075
2436.6613	2073.375
2439.43954	2075.075
2442.21603	2084.375
2444.99077	2099.875
2447.76377	2106.075
2450.53501	2109.275
2453.30451	2102.475
2456.07226	2116.575
2458.83827	2114.475
2461.60254	2107.275
2464.36507	2101.675
2467.12586	2111.475
2469.88492	2098.675
2472.64224	2121.975
2475.39782	2136.275
2478.15167	2158.175
2480.90379	2173.575
2483.65417	2203.075
2486.40283	2237.775
2489.14976	2249.375
2491.89497	2260.375
2494.63845	2261.375
2497.3802	2250.475
2500.12024	2228.775
2502.85855	2203.575
2505.59514	2179.775
2508.33002	2134.675
2511.06318	2087.575
2513.79462	2059.375
2516.52435	2019.075
2519.25237	1988.575
2521.97867	1965.975
2524.70327	1943.875
2527.42616	1944.575
2530.14734	1934.375
2532.86681	1934.775
2535.58458	1938.775
2538.30065	1955.975
2541.01501	1954.575
2543.72768	1966.275
2546.43864	1972.875
2549.14791	1974.275
2551.85548	1975.575
2554.56136	1988.475
2557.26554	1985.875
2559.96803	1982.375
2562.66883	1968.375
2565.36794	1979.075
2568.06536	1972.575
2570.7611	1969.075
2573.45514	1955.475
2576.14751	1944.775
2578.83819	1936.475
2581.52719	1927.175
2584.21451	1918.375
2586.90015	1898.875
2589.58411	1905.975
2592.2664	1901.075
2594.94701	1890.775
2597.62594	1897.475
2600.30321	1908.875
2602.9788	1897.775
2605.65273	1898.375
2608.32498	1900.975
2610.99557	1905.875
2613.66449	1914.375
2616.33175	1924.275
2618.99734	1911.875
2621.66128	1914.875
2624.32355	1904.875
2626.98416	1878.275
2629.64311	1885.475
2632.30041	1861.375
2634.95605	1847.875
2637.61004	1847.175
2640.26238	1843.975
2642.91306	1840.175
2645.56209	1829.275
2648.20948	1836.475
2650.85521	1833.075
2653.4993	1836.175
2656.14175	1848.575
2658.78255	1851.575
2661.42171	1864.075
2664.05923	1876.575
2666.6951	1882.275
2669.32934	1899.875
2671.96194	1899.875
2674.59291	1906.375
2677.22224	1902.075
2679.84993	1902.775
2682.476	1896.475
2685.10043	1893.175
2687.72324	1885.675
2690.34441	1882.275
2692.96396	1878.275
2695.58188	1871.175
2698.19818	1866.675
2700.81285	1866.475
2703.4259	1883.875
2706.03733	1898.075
2708.64714	1895.475
2711.25533	1895.775
2713.86191	1898.275
2716.46687	1904.075
2719.07021	1907.575
2721.67194	1914.775
2724.27206	1917.275
2726.87057	1901.375
2729.46747	1903.075
2732.06276	1885.075
2734.65644	1890.075
2737.24852	1862.375
2739.83899	1850.775
2742.42786	1843.075
2745.01513	1831.975
2747.60079	1815.775
2750.18486	1811.075
2752.76733	1791.175
2755.3482	1788.675
2757.92747	1784.375
2760.50515	1775.075
2763.08123	1761.875
2765.65573	1767.675
2768.22863	1762.775
2770.79994	1776.275
2773.36967	1767.675
2775.9378	1777.075
2778.50435	1785.375
2781.06932	1777.075
2783.6327	1789.075
2786.1945	1800.175
2788.75471	1818.175
2791.31335	1816.375
2793.87041	1830.875
2796.42589	1846.675
2798.97979	1848.575
2801.53212	1858.775
2804.08288	1884.175
2806.63206	1892.875
2809.17967	1915.275
2811.72571	1947.875
2814.27018	1959.175
2816.81308	1987.375
2819.35442	2004.075
2821.89419	2019.775
2824.43239	2039.175
2826.96904	2043.775
2829.50412	2046.475
2832.03763	2047.175
2834.56959	2035.575
2837.1	2040.275
2839.62884	2043.175
2842.15613	2046.475
2844.68186	2068.275
2847.20604	2092.275
2849.72867	2100.675
2852.24974	2129.975
2854.76927	2147.375
2857.28724	2185.275
2859.80367	2197.075
2862.31855	2227.975
2864.83189	2255.775
2867.34368	2291.875
2869.85393	2314.375
2872.36264	2310.675
2874.8698	2310.675
2877.37543	2307.075
2879.87952	2296.275
2882.38207	2285.475
2884.88308	2280.675
2887.38256	2267.475
2889.88051	2267.975
2892.37692	2262.175
2894.8718	2265.275
2897.36515	2255.675
2899.85698	2262.675
2902.34727	2253.975
2904.83604	2237.075
2907.32328	2232.475
2909.809	2214.975
2912.29319	2202.675
2914.77587	2190.075
2917.25702	2186.475
2919.73665	2175.975
2922.21476	2152.075
2924.69136	2147.275
2927.16644	2140.575
2929.64	2126.075
2932.11205	2123.475
2934.58258	2106.475
2937.05161	2095.975
2939.51912	2086.675
2941.98513	2077.575
2944.44962	2066.775
2946.91261	2055.275
2949.37409	2054.975
2951.83407	2045.375
2954.29254	2042.075
2956.74951	2026.675
2959.20498	2020.275
2961.65895	2001.775
2964.11142	1995.875
2966.56239	1984.575
2969.01186	1970.275
2971.45984	1940.075
2973.90632	1930.475
2976.35131	1926.675
2978.7948	1915.575
2981.23681	1893.975
2983.67732	1892.775
2986.11635	1891.875
2988.55388	1881.175
2990.98993	1885.575
2993.4245	1886.175
2995.85758	1879.575
2998.28917	1889.575
3000.71928	1889.975
3003.14791	1894.475
3005.57506	1901.575
3008.00073	1895.675
3010.42493	1868.775
3012.84764	1887.075
3015.26888	1902.175
3017.68865	1891.375
3020.10694	1905.475
3022.52376	1883.275
3024.9391	1876.575
3027.35298	1865.375
3029.76539	1842.775
3032.17632	1829.375
3034.5858	1805.275
3036.9938	1803.075
3039.40034	1792.275
3041.80542	1781.275
3044.20903	1774.175
3046.61118	1762.875
3049.01187	1771.675
3051.4111	1757.275
3053.80888	1761.975
3056.20519	1750.175
3058.60005	1750.275
3060.99345	1742.975
3063.3854	1738.575
3065.7759	1725.175
3068.16494	1728.175
3070.55254	1708.375
3072.93868	1710.575
3075.32338	1695.275
3077.70662	1694.575
3080.08842	1684.875
3082.46878	1705.075
3084.84769	1694.075
3087.22515	1702.575
3089.60118	1701.875
3091.97576	1699.675
3094.3489	1702.275
3096.72061	1714.075
3099.09087	1715.275
3101.4597	1719.475
3103.82709	1720.775
3106.19305	1724.175
3108.55757	1730.975
3110.92066	1739.075
3113.28232	1743.375
3115.64255	1746.475
3118.00134	1745.275
3120.35871	1744.475
3122.71466	1749.875
3125.06917	1754.475
3127.42226	1758.475
3129.77393	1776.175
3132.12417	1776.575
3134.47299	1783.375
3136.82039	1789.775
3139.16636	1799.175
3141.51092	1819.275
3143.85406	1822.075
3146.19579	1842.375
3148.53609	1851.675
3150.87499	1869.275
3153.21246	1875.075
3155.54853	1888.275
3157.88318	1894.575
3160.21642	1919.475
3162.54826	1909.375
3164.87868	1920.975
3167.2077	1947.975
3169.5353	1946.475
3171.86151	1954.775
3174.18631	1964.175
3176.5097	1954.875
3178.83169	1961.575
3181.15228	1973.775
3183.47147	1972.975
3185.78926	1987.375
3188.10565	1989.875
3190.42065	2002.575
3192.73424	2014.475
3195.04645	2027.975
3197.35725	2036.275
3199.66667	2040.375
3201.97469	2065.575
3204.28132	2072.175
3206.58656	2081.375
3208.8904	2109.675
3211.19287	2123.275
3213.49394	2134.075
3215.79363	2150.875
3218.09193	2164.775
3220.38884	2171.175
