Data from AgNPs_UA_20uM_CRN_500uM_AS_RamanShift__25__14-52-41-527.txt Node

Date: Wed Aug 17 14:52:41 BST 2022
User: TCL
Spectrometer: QEP01345
Trigger mode: 4
Integration Time (sec): 7.000000E0
Scans to average: 10
Electric dark correction enabled: true
Nonlinearity correction enabled: false
Boxcar width: 0
XAxis mode: Raman Shifts
Number of Pixels in Spectrum: 1044
>>>>>Begin Spectral Data<<<<<
46.04893	0.075
50.45542	-0.125
54.85868	-2.325
59.25871	0.175
63.6555	43.775
68.04907	47.275
72.43941	48.275
76.82654	56.375
81.21044	56.375
85.59113	57.175
89.96862	63.975
94.34289	68.475
98.71396	68.875
103.08183	70.175
107.4465	72.675
111.80798	70.675
116.16626	69.675
120.52136	75.675
124.87327	78.175
129.222	78.575
133.56755	82.275
137.90993	82.975
142.24913	92.375
146.58517	102.675
150.91804	112.575
155.24774	127.975
159.57429	153.275
163.89768	192.375
168.21792	251.475
172.53501	333.275
176.84895	459.975
181.15975	633.575
185.46741	885.775
189.77193	1229.075
194.07331	1653.475
198.37157	2132.975
202.6667	2650.975
206.9587	3201.975
211.24758	3782.575
215.53334	4441.675
219.81599	5223.875
224.09553	6097.475
228.37195	7061.275
232.64527	8053.775
236.91549	8935.575
241.18261	9566.975
245.44663	9940.575
249.70755	10135.175
253.96539	10361.275
258.22014	10568.975
262.4718	10726.375
266.72039	10727.875
270.96589	10520.975
275.20832	10088.175
279.44768	9594.575
283.68397	9171.575
287.91719	8993.575
292.14735	9175.675
296.37445	9860.775
300.59849	10958.375
304.81948	12267.475
309.03742	13297.875
313.25231	13490.275
317.46415	12410.175
321.67296	10656.875
325.87872	9247.775
330.08145	8647.275
334.28114	8671.875
338.47781	9018.975
342.67145	9477.475
346.86207	10270.675
351.04966	11538.875
355.23424	13023.075
359.4158	14070.575
363.59435	14443.575
367.76989	14268.175
371.94243	13842.675
376.11196	13339.775
380.27849	12943.075
384.44203	12426.475
388.60257	11891.375
392.76012	11567.475
396.91468	11548.175
401.06626	11955.375
405.21485	12066.675
409.36047	11290.975
413.50311	9966.975
417.64277	8717.575
421.77947	8002.975
425.9132	7638.275
430.04396	7538.275
434.17176	7564.975
438.2966	7751.875
442.41849	8054.475
446.53742	8372.375
450.6534	8600.575
454.76644	8629.075
458.87653	8458.775
462.98368	8274.375
467.08789	8037.175
471.18916	7750.975
475.2875	7446.475
479.38291	7151.775
483.4754	6925.675
487.56496	6784.875
491.6516	6728.975
495.73531	6719.975
499.81612	6816.775
503.89401	7035.275
507.96899	7337.875
512.04106	7708.975
516.11023	8120.775
520.1765	8374.175
524.23987	8339.975
528.30034	8132.675
532.35792	7906.275
536.41261	7670.175
540.46441	7281.975
544.51333	7080.775
548.55936	7118.875
552.60252	7444.275
556.64279	7843.175
560.6802	8137.875
564.71473	8835.575
568.7464	9857.075
572.7752	9851.375
576.80114	8491.575
580.82422	7278.675
584.84444	6766.375
588.86181	6604.775
592.87633	6671.675
596.888	6986.475
600.89682	8016.175
604.9028	11200.975
608.90594	18991.775
612.90624	27864.675
616.90371	24499.575
620.89834	13273.175
624.89015	8471.175
628.87913	7716.675
632.86528	8185.675
636.84862	8680.275
640.82913	8241.075
644.80683	7233.175
648.78172	6614.275
652.75379	6754.275
656.72306	7650.575
660.68952	8498.375
664.65319	7909.375
668.61405	6791.775
672.57211	6357.875
676.52738	6355.475
680.47986	6375.075
684.42955	6173.475
688.37646	6015.075
692.32058	6012.275
696.26192	6126.275
700.20048	6299.775
704.13626	6381.775
708.06928	6297.375
711.99952	6170.475
715.927	6201.575
719.85171	6377.775
723.77365	6501.575
727.69284	6440.375
731.60928	6316.275
735.52295	6265.775
739.43388	6284.175
743.34206	6335.575
747.24749	6334.975
751.15017	6370.275
755.05012	6681.375
758.94733	7823.875
762.8418	10678.375
766.73354	14934.975
770.62254	18345.675
774.50882	19620.275
778.39237	18278.975
782.27321	14184.675
786.15132	10050.375
790.02671	7784.275
793.89938	6789.475
797.76935	6385.575
801.6366	6208.975
805.50115	6102.875
809.36299	6051.375
813.22213	5966.075
817.07857	5957.775
820.93231	5974.875
824.78336	6089.475
828.63172	6169.575
832.47738	6205.775
836.32036	6094.675
840.16066	5928.875
843.99827	5817.575
847.8332	5774.175
851.66546	5800.875
855.49504	5804.175
859.32195	5807.275
863.1462	5776.075
866.96777	5745.375
870.78668	5735.875
874.60293	5782.575
878.41652	5852.775
882.22745	5978.475
886.03573	6065.275
889.84136	6040.775
893.64433	6000.375
897.44466	6005.375
901.24235	6016.575
905.0374	5924.175
908.8298	5788.775
912.61957	5638.375
916.40671	5625.675
920.19121	5636.075
923.97308	5787.375
927.75233	6111.175
931.52895	6469.375
935.30295	6298.175
939.07433	5791.675
942.84309	5384.275
946.60924	5164.175
950.37278	5076.775
954.13371	5048.275
957.89203	5021.375
961.64774	5019.775
965.40086	5005.375
969.15137	4964.375
972.89929	4947.675
976.64461	4939.475
980.38733	4954.075
984.12747	4925.175
987.86502	4967.375
991.59999	5002.775
995.33237	5087.075
999.06217	5203.575
1002.78939	5415.075
1006.51404	5672.075
1010.23611	5839.875
1013.95561	5850.175
1017.67255	5724.775
1021.38692	5578.575
1025.09872	5422.075
1028.80796	5320.475
1032.51465	5356.175
1036.21877	5442.775
1039.92035	5549.775
1043.61937	5635.075
1047.31584	5708.975
1051.00976	5699.875
1054.70114	5626.975
1058.38998	5532.475
1062.07627	5526.375
1065.76003	5514.675
1069.44126	5535.275
1073.11995	5657.775
1076.79611	5951.675
1080.46974	6513.975
1084.14085	7197.975
1087.80943	7733.075
1091.47549	7812.375
1095.13903	7366.775
1098.80005	6754.275
1102.45857	6376.175
1106.11456	6387.275
1109.76805	6728.575
1113.41903	7360.275
1117.06751	8352.075
1120.71348	9687.475
1124.35696	11188.675
1127.99793	11929.575
1131.63641	10950.475
1135.2724	9246.075
1138.90589	7978.875
1142.5369	7240.875
1146.16542	6765.275
1149.79145	6481.575
1153.415	6392.175
1157.03607	6465.675
1160.65467	6724.575
1164.27079	7223.175
1167.88443	8042.875
1171.49561	9402.575
1175.10432	11727.475
1178.71056	14931.975
1182.31434	17402.675
1185.91565	17678.975
1189.51451	16110.775
1193.11091	13860.475
1196.70485	11911.675
1200.29634	10721.475
1203.88538	9813.075
1207.47197	8581.375
1211.05612	7445.275
1214.63782	6724.875
1218.21708	6358.775
1221.79391	6238.575
1225.36829	6207.075
1228.94024	6159.375
1232.50976	6157.975
1236.07685	6166.975
1239.6415	6221.075
1243.20374	6355.175
1246.76355	6491.575
1250.32093	6646.575
1253.8759	6888.575
1257.42845	7286.775
1260.97859	7857.375
1264.52631	8476.675
1268.07163	9087.875
1271.61453	9467.775
1275.15503	9611.275
1278.69312	9586.675
1282.22882	9754.475
1285.76211	10389.075
1289.29301	11185.275
1292.82151	11910.575
1296.34761	12801.375
1299.87133	14418.075
1303.39266	17578.575
1306.9116	22403.375
1310.42815	26816.075
1313.94233	27242.875
1317.45412	23447.775
1320.96354	18617.675
1324.47058	14574.475
1327.97525	11719.475
1331.47754	10138.275
1334.97747	9616.475
1338.47502	9935.875
1341.97022	11226.475
1345.46305	13577.175
1348.95352	16699.775
1352.44163	20431.675
1355.92738	25887.275
1359.41078	34061.575
1362.89183	40110.875
1366.37053	35790.275
1369.84688	25479.575
1373.32088	17807.875
1376.79254	13893.775
1380.26186	11699.275
1383.72883	10178.675
1387.19347	8963.075
1390.65578	7951.375
1394.11575	7254.475
1397.57339	6826.275
1401.0287	6629.175
1404.48168	6518.175
1407.93234	6435.175
1411.38068	6551.375
1414.82669	6804.375
1418.27039	7060.275
1421.71177	7083.475
1425.15083	7011.775
1428.58758	7095.475
1432.02203	7386.375
1435.45416	7484.175
1438.88399	7327.175
1442.31151	7159.375
1445.73673	7141.375
1449.15965	7228.575
1452.58027	7178.475
1455.9986	7009.575
1459.41463	6971.775
1462.82837	7195.775
1466.23982	7557.875
1469.64898	7868.575
1473.05586	7964.975
1476.46045	7967.175
1479.86276	8099.175
1483.26279	8523.975
1486.66054	9272.875
1490.05602	10450.175
1493.44922	12289.175
1496.84016	15376.375
1500.22882	20364.375
1503.61521	27506.575
1506.99934	35235.275
1510.38121	40328.575
1513.76081	39661.475
1517.13816	33301.575
1520.51324	24928.975
1523.88607	18120.275
1527.25665	13987.375
1530.62498	11754.875
1533.99105	10417.975
1537.35488	9552.975
1540.71647	9105.675
1544.07581	9045.975
1547.4329	9250.275
1550.78776	9584.575
1554.14038	9987.575
1557.49077	10431.275
1560.83892	11097.375
1564.18484	12190.975
1567.52853	13535.075
1570.86999	14548.675
1574.20922	14923.975
1577.54624	14302.775
1580.88103	12276.875
1584.2136	9941.575
1587.54395	8508.675
1590.87208	8167.975
1594.19801	8750.675
1597.52172	9634.575
1600.84321	9794.075
1604.16251	9179.275
1607.47959	8456.075
1610.79447	7754.375
1614.10715	7038.775
1617.41763	6439.375
1620.7259	6111.475
1624.03199	6043.675
1627.33587	6196.175
1630.63757	6556.875
1633.93707	7252.575
1637.23439	8515.475
1640.52951	10778.875
1643.82246	14474.075
1647.11321	18900.875
1650.40179	21686.575
1653.68819	20238.275
1656.97241	15818.375
1660.25446	11359.375
1663.53433	8471.575
1666.81203	6827.475
1670.08756	5940.975
1673.36092	5418.875
1676.63211	5084.575
1679.90115	4867.675
1683.16801	4728.675
1686.43272	4625.375
1689.69527	4544.075
1692.95567	4479.875
1696.2139	4465.875
1699.46999	4450.875
1702.72392	4432.475
1705.97571	4385.575
1709.22535	4378.475
1712.47284	4366.275
1715.71819	4355.675
1718.96139	4293.075
1722.20246	4253.575
1725.44139	4197.175
1728.67818	4111.975
1731.91284	4038.075
1735.14537	3979.775
1738.37576	3943.675
1741.60403	3930.875
1744.83017	3916.175
1748.05418	3885.575
1751.27607	3869.275
1754.49584	3845.475
1757.71349	3819.875
1760.92903	3790.075
1764.14244	3746.575
1767.35375	3714.375
1770.56294	3667.575
1773.77002	3623.375
1776.97499	3579.175
1780.17785	3550.575
1783.37861	3514.075
1786.57727	3482.275
1789.77382	3453.875
1792.96828	3451.275
1796.16064	3437.275
1799.3509	3418.775
1802.53907	3414.875
1805.72514	3381.075
1808.90913	3367.775
1812.09102	3341.675
1815.27083	3324.175
1818.44856	3300.275
1821.6242	3276.175
1824.79776	3289.575
1827.96924	3251.675
1831.13864	3250.675
1834.30597	3235.775
1837.47122	3215.775
1840.6344	3181.075
1843.7955	3176.475
1846.95454	3169.075
1850.11151	3152.875
1853.26642	3152.475
1856.41926	3153.175
1859.57004	3150.775
1862.71876	3144.875
1865.86542	3149.875
1869.01003	3159.475
1872.15258	3157.675
1875.29308	3160.775
1878.43152	3154.575
1881.56792	3170.075
1884.70227	3145.475
1887.83457	3132.575
1890.96482	3121.175
1894.09304	3122.475
1897.21921	3110.775
1900.34335	3113.975
1903.46544	3115.375
1906.58551	3108.275
1909.70353	3120.275
1912.81953	3105.675
1915.93349	3103.775
1919.04543	3075.875
1922.15534	3073.275
1925.26322	3071.775
1928.36908	3042.775
1931.47292	3014.775
1934.57473	2991.175
1937.67453	2977.275
1940.77232	2941.275
1943.86808	2920.275
1946.96184	2914.975
1950.05358	2908.075
1953.14331	2910.475
1956.23103	2913.875
1959.31675	2892.875
1962.40046	2896.575
1965.48217	2896.075
1968.56188	2918.675
1971.63959	2912.975
1974.7153	2903.075
1977.78901	2883.975
1980.86073	2868.775
1983.93046	2845.575
1986.99819	2815.475
1990.06394	2793.975
1993.1277	2778.275
1996.18947	2752.475
1999.24925	2738.975
2002.30706	2721.175
2005.36288	2707.975
2008.41672	2699.875
2011.46859	2693.175
2014.51848	2677.575
2017.56639	2661.875
2020.61233	2659.675
2023.6563	2651.075
2026.6983	2631.875
2029.73833	2636.875
2032.7764	2621.875
2035.8125	2609.875
2038.84664	2603.275
2041.87881	2609.975
2044.90903	2607.975
2047.93729	2592.675
2050.96359	2597.775
2053.98794	2578.975
2057.01034	2554.575
2060.03078	2559.475
2063.04927	2531.275
2066.06582	2534.375
2069.08042	2522.075
2072.09307	2525.675
2075.10378	2538.175
2078.11255	2522.275
2081.11938	2529.075
2084.12426	2522.075
2087.12722	2524.975
2090.12824	2516.575
2093.12732	2526.475
2096.12447	2516.475
2099.11969	2524.675
2102.11299	2523.375
2105.10435	2524.975
2108.09379	2518.075
2111.08131	2529.475
2114.0669	2531.375
2117.05057	2553.375
2120.03233	2562.275
2123.01216	2570.675
2125.99008	2578.675
2128.96609	2584.275
2131.94018	2575.275
2134.91236	2566.875
2137.88263	2564.175
2140.851	2548.475
2143.81746	2527.875
2146.78201	2538.375
2149.74466	2513.975
2152.7054	2502.075
2155.66425	2488.875
2158.6212	2484.275
2161.57625	2477.575
2164.52941	2484.375
2167.48067	2471.175
2170.43004	2470.775
2173.37752	2458.375
2176.32311	2469.875
2179.26681	2477.975
2182.20863	2483.775
2185.14856	2476.175
2188.08661	2474.875
2191.02278	2467.375
2193.95707	2449.075
2196.88948	2441.575
2199.82001	2450.075
2202.74867	2436.475
2205.67545	2440.675
2208.60037	2437.675
2211.52341	2434.875
2214.44458	2440.075
2217.36388	2424.475
2220.28132	2413.875
2223.1969	2404.475
2226.11061	2394.375
2229.02246	2380.475
2231.93245	2377.275
2234.84058	2364.475
2237.74686	2372.275
2240.65128	2377.275
2243.55385	2373.375
2246.45456	2377.175
2249.35343	2391.975
2252.25044	2398.075
2255.14561	2418.575
2258.03893	2427.075
2260.93041	2446.375
2263.82004	2452.875
2266.70783	2432.375
2269.59378	2441.375
2272.4779	2425.475
2275.36017	2413.175
2278.24061	2404.175
2281.11922	2400.775
2283.996	2387.075
2286.87094	2365.475
2289.74405	2357.875
2292.61534	2343.975
2295.4848	2330.175
2298.35243	2312.775
2301.21824	2311.275
2304.08223	2310.575
2306.94439	2306.875
2309.80474	2311.475
2312.66327	2313.175
2315.51999	2306.275
2318.37489	2296.075
2321.22797	2299.975
2324.07925	2298.675
2326.92871	2285.675
2329.77637	2292.275
2332.62222	2293.575
2335.46626	2280.175
2338.3085	2291.375
2341.14893	2283.075
2343.98756	2301.575
2346.8244	2300.075
2349.65943	2318.275
2352.49267	2320.975
2355.32411	2337.875
2358.15376	2353.375
2360.98161	2371.475
2363.80768	2383.875
2366.63195	2413.375
2369.45444	2407.275
2372.27514	2429.275
2375.09405	2400.075
2377.91118	2404.775
2380.72652	2380.575
2383.54009	2371.575
2386.35187	2354.275
2389.16188	2316.675
2391.97011	2289.675
2394.77657	2266.375
2397.58125	2258.975
2400.38416	2255.075
2403.18529	2231.575
2405.98466	2228.275
2408.78226	2221.475
2411.57809	2198.075
2414.37216	2194.475
2417.16446	2202.575
2419.955	2200.475
2422.74378	2217.975
2425.5308	2211.375
2428.31606	2229.475
2431.09956	2217.675
2433.88131	2225.975
2436.6613	2228.375
2439.43954	2240.275
2442.21603	2252.875
2444.99077	2249.875
2447.76377	2255.675
2450.53501	2258.275
2453.30451	2275.075
2456.07226	2260.975
2458.83827	2271.675
2461.60254	2262.375
2464.36507	2261.375
2467.12586	2245.475
2469.88492	2253.375
2472.64224	2262.475
2475.39782	2286.675
2478.15167	2297.275
2480.90379	2308.775
2483.65417	2332.475
2486.40283	2342.575
2489.14976	2363.075
2491.89497	2378.075
2494.63845	2380.975
2497.3802	2376.475
2500.12024	2359.975
2502.85855	2346.675
2505.59514	2315.875
2508.33002	2287.175
2511.06318	2255.675
2513.79462	2203.975
2516.52435	2185.975
2519.25237	2169.575
2521.97867	2131.575
2524.70327	2132.475
2527.42616	2117.875
2530.14734	2119.775
2532.86681	2111.675
2535.58458	2117.975
2538.30065	2121.575
2541.01501	2127.075
2543.72768	2127.175
2546.43864	2136.875
2549.14791	2148.175
2551.85548	2139.875
2554.56136	2141.275
2557.26554	2147.075
2559.96803	2144.875
2562.66883	2137.475
2565.36794	2128.175
2568.06536	2123.375
2570.7611	2124.375
2573.45514	2115.175
2576.14751	2102.075
2578.83819	2097.475
2581.52719	2078.075
2584.21451	2088.875
2586.90015	2067.975
2589.58411	2065.275
2592.2664	2067.775
2594.94701	2054.375
2597.62594	2069.375
2600.30321	2058.075
2602.9788	2059.975
2605.65273	2066.675
2608.32498	2075.875
2610.99557	2069.375
2613.66449	2076.275
2616.33175	2068.775
2618.99734	2064.675
2621.66128	2057.275
2624.32355	2050.075
2626.98416	2054.075
2629.64311	2051.275
2632.30041	2034.675
2634.95605	2019.475
2637.61004	2022.375
2640.26238	2013.975
2642.91306	2005.475
2645.56209	1995.475
2648.20948	1996.975
2650.85521	1997.175
2653.4993	1997.875
2656.14175	2005.875
2658.78255	2019.575
2661.42171	2019.675
2664.05923	2024.575
2666.6951	2030.975
2669.32934	2052.375
2671.96194	2044.175
2674.59291	2046.875
2677.22224	2042.575
2679.84993	2045.275
2682.476	2043.875
2685.10043	2034.475
2687.72324	2036.875
2690.34441	2026.775
2692.96396	2026.875
2695.58188	2017.275
2698.19818	2022.575
2700.81285	2026.175
2703.4259	2012.775
2706.03733	2031.675
2708.64714	2034.675
2711.25533	2034.675
2713.86191	2024.675
2716.46687	2036.675
2719.07021	2044.175
2721.67194	2048.675
2724.27206	2044.375
2726.87057	2042.375
2729.46747	2038.075
2732.06276	2031.975
2734.65644	2010.175
2737.24852	1992.575
2739.83899	2002.275
2742.42786	1988.375
2745.01513	1968.575
2747.60079	1964.075
2750.18486	1955.775
2752.76733	1952.475
2755.3482	1941.975
2757.92747	1936.775
2760.50515	1939.675
2763.08123	1942.875
2765.65573	1920.375
2768.22863	1919.675
2770.79994	1924.775
2773.36967	1917.875
2775.9378	1912.175
2778.50435	1924.075
2781.06932	1919.475
2783.6327	1927.875
2786.1945	1930.875
2788.75471	1944.875
2791.31335	1937.575
2793.87041	1939.275
2796.42589	1941.575
2798.97979	1954.875
2801.53212	1954.975
2804.08288	1964.775
2806.63206	1968.375
2809.17967	1991.075
2811.72571	2001.575
2814.27018	2022.175
2816.81308	2020.875
2819.35442	2032.975
2821.89419	2042.875
2824.43239	2045.475
2826.96904	2061.975
2829.50412	2059.675
2832.03763	2052.175
2834.56959	2045.775
2837.1	2036.575
2839.62884	2039.275
2842.15613	2043.075
2844.68186	2048.575
2847.20604	2074.875
2849.72867	2080.575
2852.24974	2083.375
2854.76927	2092.975
2857.28724	2114.175
2859.80367	2134.175
2862.31855	2148.375
2864.83189	2171.975
2867.34368	2193.475
2869.85393	2220.875
2872.36264	2227.875
2874.8698	2244.275
2877.37543	2240.575
2879.87952	2228.775
2882.38207	2228.175
2884.88308	2220.675
2887.38256	2220.975
2889.88051	2212.375
2892.37692	2217.575
2894.8718	2211.175
2897.36515	2216.375
2899.85698	2216.575
2902.34727	2225.775
2904.83604	2221.475
2907.32328	2223.575
2909.809	2215.675
2912.29319	2220.975
2914.77587	2219.175
2917.25702	2200.175
2919.73665	2201.575
2922.21476	2195.075
2924.69136	2204.575
2927.16644	2185.575
2929.64	2179.175
2932.11205	2168.075
2934.58258	2155.575
2937.05161	2163.975
2939.51912	2157.675
2941.98513	2159.375
2944.44962	2144.675
2946.91261	2127.475
2949.37409	2129.975
2951.83407	2122.775
2954.29254	2122.275
2956.74951	2127.575
2959.20498	2106.075
2961.65895	2093.875
2964.11142	2086.275
2966.56239	2080.775
2969.01186	2050.075
2971.45984	2047.175
2973.90632	2032.975
2976.35131	2023.775
2978.7948	2018.975
2981.23681	2005.575
2983.67732	1998.375
2986.11635	1992.375
2988.55388	1985.075
2990.98993	1990.375
2993.4245	1990.075
2995.85758	1979.275
2998.28917	1986.575
3000.71928	1990.675
3003.14791	1996.175
3005.57506	1999.475
3008.00073	2003.675
3010.42493	1961.675
3012.84764	1999.575
3015.26888	2002.675
3017.68865	1985.475
3020.10694	1990.275
3022.52376	1979.375
3024.9391	1974.275
3027.35298	1968.475
3029.76539	1957.675
3032.17632	1948.975
3034.5858	1924.775
3036.9938	1923.875
3039.40034	1913.275
3041.80542	1912.675
3044.20903	1906.875
3046.61118	1902.975
3049.01187	1895.675
3051.4111	1888.475
3053.80888	1879.375
3056.20519	1887.175
3058.60005	1890.875
3060.99345	1887.975
3063.3854	1883.275
3065.7759	1874.175
3068.16494	1865.075
3070.55254	1851.175
3072.93868	1854.975
3075.32338	1846.675
3077.70662	1850.675
3080.08842	1843.475
3082.46878	1847.975
3084.84769	1843.675
3087.22515	1851.575
3089.60118	1846.775
3091.97576	1854.575
3094.3489	1840.275
3096.72061	1856.675
3099.09087	1856.175
3101.4597	1865.075
3103.82709	1875.575
3106.19305	1864.875
3108.55757	1877.175
3110.92066	1877.975
3113.28232	1892.575
3115.64255	1887.975
3118.00134	1880.475
3120.35871	1901.175
3122.71466	1898.475
3125.06917	1896.175
3127.42226	1905.875
3129.77393	1903.575
3132.12417	1907.975
3134.47299	1924.875
3136.82039	1924.075
3139.16636	1926.775
3141.51092	1940.475
3143.85406	1937.275
3146.19579	1952.175
3148.53609	1969.075
3150.87499	1976.975
3153.21246	1983.775
3155.54853	2000.375
3157.88318	2006.175
3160.21642	2019.875
3162.54826	2014.175
3164.87868	2030.975
3167.2077	2032.575
3169.5353	2043.075
3171.86151	2054.475
3174.18631	2033.175
3176.5097	2046.975
3178.83169	2047.075
3181.15228	2058.275
3183.47147	2054.775
3185.78926	2052.675
3188.10565	2067.675
3190.42065	2068.075
3192.73424	2079.675
3195.04645	2106.275
3197.35725	2092.275
3199.66667	2108.275
3201.97469	2109.975
3204.28132	2132.775
3206.58656	2147.375
3208.8904	2161.475
3211.19287	2172.175
3213.49394	2181.775
3215.79363	2186.875
3218.09193	2207.975
3220.38884	2217.675
3222.68438	2235.275
3224.97853	2234.775
3227.2713	2240.175
