Data from AgNPs_APTES_FTO_Ket_100uM_NaF_0.1M_RamanShift__0__10-39-06-191.txt Node

Date: Tue Jun 14 10:39:06 BST 2022
User: TCL
Spectrometer: QEP01345
Trigger mode: 4
Integration Time (sec): 7.000000E0
Scans to average: 10
Electric dark correction enabled: true
Nonlinearity correction enabled: false
Boxcar width: 0
XAxis mode: Raman Shifts
Number of Pixels in Spectrum: 1044
>>>>>Begin Spectral Data<<<<<
46.04893	0.675
50.45542	1.075
54.85868	-0.225
59.25871	-0.525
63.6555	28.975
68.04907	34.875
72.43941	38.275
76.82654	36.275
81.21044	41.275
85.59113	44.175
89.96862	46.775
94.34289	48.875
98.71396	49.775
103.08183	50.375
107.4465	51.075
111.80798	51.875
116.16626	49.675
120.52136	54.375
124.87327	52.775
129.222	52.875
133.56755	47.475
137.90993	48.675
142.24913	46.075
146.58517	44.475
150.91804	46.775
155.24774	49.275
159.57429	46.875
163.89768	52.975
168.21792	56.275
172.53501	54.875
176.84895	74.175
181.15975	84.975
185.46741	112.475
189.77193	146.275
194.07331	176.675
198.37157	217.975
202.6667	261.475
206.9587	307.875
211.24758	340.375
215.53334	378.375
219.81599	413.375
224.09553	454.975
228.37195	498.275
232.64527	561.575
236.91549	618.975
241.18261	680.675
245.44663	752.775
249.70755	813.675
253.96539	885.175
258.22014	949.975
262.4718	1002.175
266.72039	1050.375
270.96589	1096.075
275.20832	1140.575
279.44768	1176.475
283.68397	1209.075
287.91719	1227.975
292.14735	1228.175
296.37445	1169.675
300.59849	1098.475
304.81948	1008.675
309.03742	942.675
313.25231	893.575
317.46415	878.075
321.67296	858.475
325.87872	852.975
330.08145	843.675
334.28114	838.775
338.47781	850.975
342.67145	858.775
346.86207	853.675
351.04966	868.875
355.23424	877.775
359.4158	878.375
363.59435	880.975
367.76989	895.075
371.94243	910.075
376.11196	927.375
380.27849	933.375
384.44203	933.375
388.60257	936.875
392.76012	933.875
396.91468	926.075
401.06626	933.675
405.21485	932.175
409.36047	953.575
413.50311	966.575
417.64277	987.875
421.77947	1003.875
425.9132	996.775
430.04396	991.875
434.17176	988.675
438.2966	1004.775
442.41849	1012.875
446.53742	1025.475
450.6534	1031.075
454.76644	1069.675
458.87653	1098.275
462.98368	1108.775
467.08789	1061.675
471.18916	1044.775
475.2875	1035.675
479.38291	1036.575
483.4754	1045.875
487.56496	1057.975
491.6516	1059.875
495.73531	1064.775
499.81612	1045.775
503.89401	1034.075
507.96899	1013.175
512.04106	1005.275
516.11023	1009.375
520.1765	1001.475
524.23987	993.275
528.30034	989.675
532.35792	992.875
536.41261	990.975
540.46441	992.575
544.51333	989.575
548.55936	988.375
552.60252	990.175
556.64279	992.075
560.6802	986.175
564.71473	977.075
568.7464	976.675
572.7752	975.775
576.80114	987.375
580.82422	980.475
584.84444	982.775
588.86181	973.375
592.87633	977.375
596.888	982.675
600.89682	984.475
604.9028	981.875
608.90594	983.075
612.90624	983.575
616.90371	979.875
620.89834	988.975
624.89015	984.175
628.87913	979.375
632.86528	984.075
636.84862	982.575
640.82913	981.875
644.80683	990.675
648.78172	987.175
652.75379	985.375
656.72306	998.575
660.68952	997.775
664.65319	990.675
668.61405	994.075
672.57211	992.975
676.52738	1000.175
680.47986	1005.475
684.42955	1012.175
688.37646	1014.175
692.32058	1024.175
696.26192	1024.975
700.20048	1050.475
704.13626	1065.775
708.06928	1065.475
711.99952	1073.575
715.927	1058.275
719.85171	1041.275
723.77365	1035.675
727.69284	1022.975
731.60928	1014.275
735.52295	1006.775
739.43388	1014.475
743.34206	1008.975
747.24749	1005.275
751.15017	1008.975
755.05012	1005.575
758.94733	1004.375
762.8418	1005.175
766.73354	1011.275
770.62254	1006.675
774.50882	1003.475
778.39237	1005.875
782.27321	1013.375
786.15132	1003.875
790.02671	1009.575
793.89938	993.475
797.76935	1004.175
801.6366	992.875
805.50115	1005.275
809.36299	991.575
813.22213	999.275
817.07857	997.475
820.93231	997.375
824.78336	1008.875
828.63172	1011.275
832.47738	1009.475
836.32036	1013.975
840.16066	1017.175
843.99827	1022.175
847.8332	1026.075
851.66546	1017.975
855.49504	1011.075
859.32195	1009.775
863.1462	1003.475
866.96777	1012.475
870.78668	1016.475
874.60293	1020.275
878.41652	1022.475
882.22745	1038.975
886.03573	1093.975
889.84136	1186.575
893.64433	1188.875
897.44466	1112.875
901.24235	1033.375
905.0374	1010.275
908.8298	1008.875
912.61957	1009.575
916.40671	1037.575
920.19121	1085.575
923.97308	1164.375
927.75233	1239.575
931.52895	1256.675
935.30295	1193.575
939.07433	1113.475
942.84309	1040.875
946.60924	994.675
950.37278	980.575
954.13371	961.275
957.89203	968.475
961.64774	951.475
965.40086	941.775
969.15137	931.575
972.89929	952.975
976.64461	948.475
980.38733	946.775
984.12747	939.075
987.86502	935.475
991.59999	934.675
995.33237	931.175
999.06217	941.175
1002.78939	943.375
1006.51404	962.875
1010.23611	968.775
1013.95561	983.575
1017.67255	967.375
1021.38692	971.375
1025.09872	966.975
1028.80796	974.775
1032.51465	972.275
1036.21877	964.475
1039.92035	970.275
1043.61937	973.275
1047.31584	993.975
1051.00976	1015.175
1054.70114	1024.475
1058.38998	1047.975
1062.07627	1142.775
1065.76003	1148.675
1069.44126	1067.475
1073.11995	1000.875
1076.79611	976.575
1080.46974	966.275
1084.14085	958.075
1087.80943	966.475
1091.47549	988.075
1095.13903	1067.575
1098.80005	1171.275
1102.45857	1213.675
1106.11456	1156.475
1109.76805	1052.275
1113.41903	988.675
1117.06751	994.275
1120.71348	1033.475
1124.35696	1174.175
1127.99793	1461.475
1131.63641	1678.075
1135.2724	1390.375
1138.90589	1065.275
1142.5369	950.975
1146.16542	911.875
1149.79145	896.775
1153.415	881.275
1157.03607	884.375
1160.65467	871.275
1164.27079	881.775
1167.88443	872.175
1171.49561	871.975
1175.10432	868.675
1178.71056	865.975
1182.31434	861.275
1185.91565	866.075
1189.51451	864.375
1193.11091	860.475
1196.70485	866.275
1200.29634	867.075
1203.88538	868.075
1207.47197	863.775
1211.05612	864.975
1214.63782	860.875
1218.21708	856.275
1221.79391	854.375
1225.36829	840.075
1228.94024	845.275
1232.50976	843.875
1236.07685	846.975
1239.6415	839.475
1243.20374	848.275
1246.76355	853.475
1250.32093	848.075
1253.8759	842.375
1257.42845	849.175
1260.97859	846.475
1264.52631	840.075
1268.07163	842.075
1271.61453	844.875
1275.15503	841.875
1278.69312	852.575
1282.22882	849.275
1285.76211	855.475
1289.29301	867.475
1292.82151	895.475
1296.34761	948.875
1299.87133	965.175
1303.39266	908.275
1306.9116	878.375
1310.42815	864.975
1313.94233	856.975
1317.45412	853.975
1320.96354	842.875
1324.47058	842.575
1327.97525	831.075
1331.47754	824.475
1334.97747	824.175
1338.47502	829.775
1341.97022	823.775
1345.46305	820.975
1348.95352	823.575
1352.44163	822.275
1355.92738	822.775
1359.41078	826.775
1362.89183	835.775
1366.37053	851.475
1369.84688	874.475
1373.32088	883.675
1376.79254	897.375
1380.26186	917.675
1383.72883	952.175
1387.19347	976.575
1390.65578	1015.575
1394.11575	1066.075
1397.57339	1136.175
1401.0287	1198.675
1404.48168	1214.375
1407.93234	1197.775
1411.38068	1148.875
1414.82669	1107.075
1418.27039	1068.175
1421.71177	1031.675
1425.15083	995.775
1428.58758	964.975
1432.02203	949.075
1435.45416	944.875
1438.88399	941.075
1442.31151	916.375
1445.73673	886.675
1449.15965	857.575
1452.58027	841.575
1455.9986	824.375
1459.41463	821.775
1462.82837	825.475
1466.23982	807.675
1469.64898	783.575
1473.05586	750.675
1476.46045	728.475
1479.86276	702.975
1483.26279	695.575
1486.66054	685.175
1490.05602	681.075
1493.44922	676.875
1496.84016	673.475
1500.22882	657.275
1503.61521	662.975
1506.99934	660.275
1510.38121	658.475
1513.76081	660.575
1517.13816	658.275
1520.51324	661.675
1523.88607	654.675
1527.25665	652.575
1530.62498	653.675
1533.99105	652.075
1537.35488	656.075
1540.71647	658.975
1544.07581	658.575
1547.4329	655.175
1550.78776	656.875
1554.14038	653.675
1557.49077	652.675
1560.83892	643.575
1564.18484	652.975
1567.52853	650.475
1570.86999	640.075
1574.20922	648.575
1577.54624	644.275
1580.88103	646.575
1584.2136	646.275
1587.54395	645.275
1590.87208	647.575
1594.19801	647.475
1597.52172	646.375
1600.84321	646.075
1604.16251	654.575
1607.47959	653.975
1610.79447	653.475
1614.10715	656.175
1617.41763	644.975
1620.7259	642.275
1624.03199	637.475
1627.33587	633.075
1630.63757	636.875
1633.93707	628.075
1637.23439	628.575
1640.52951	629.175
1643.82246	617.775
1647.11321	610.575
1650.40179	608.075
1653.68819	605.975
1656.97241	604.275
1660.25446	599.375
1663.53433	600.175
1666.81203	594.275
1670.08756	590.475
1673.36092	577.075
1676.63211	578.075
1679.90115	580.475
1683.16801	568.075
1686.43272	570.075
1689.69527	565.475
1692.95567	562.775
1696.2139	561.475
1699.46999	559.175
1702.72392	557.275
1705.97571	551.475
1709.22535	544.175
1712.47284	536.775
1715.71819	540.675
1718.96139	537.375
1722.20246	534.775
1725.44139	540.475
1728.67818	534.275
1731.91284	527.975
1735.14537	528.475
1738.37576	529.075
1741.60403	522.675
1744.83017	524.875
1748.05418	521.475
1751.27607	514.475
1754.49584	508.575
1757.71349	512.675
1760.92903	508.075
1764.14244	506.675
1767.35375	511.675
1770.56294	509.675
1773.77002	506.875
1776.97499	502.675
1780.17785	501.875
1783.37861	492.775
1786.57727	496.275
1789.77382	496.375
1792.96828	494.475
1796.16064	487.475
1799.3509	486.475
1802.53907	488.075
1805.72514	488.675
1808.90913	478.975
1812.09102	484.475
1815.27083	481.175
1818.44856	471.475
1821.6242	470.875
1824.79776	469.975
1827.96924	470.675
1831.13864	468.475
1834.30597	468.375
1837.47122	468.875
1840.6344	465.275
1843.7955	465.475
1846.95454	466.075
1850.11151	459.475
1853.26642	458.975
1856.41926	463.875
1859.57004	456.875
1862.71876	459.175
1865.86542	460.875
1869.01003	458.075
1872.15258	455.175
1875.29308	454.575
1878.43152	455.475
1881.56792	451.275
1884.70227	446.775
1887.83457	447.975
1890.96482	441.875
1894.09304	447.975
1897.21921	446.475
1900.34335	443.275
1903.46544	445.575
1906.58551	445.675
1909.70353	437.475
1912.81953	437.975
1915.93349	440.375
1919.04543	435.975
1922.15534	431.975
1925.26322	427.475
1928.36908	429.375
1931.47292	429.875
1934.57473	424.075
1937.67453	428.075
1940.77232	425.475
1943.86808	420.275
1946.96184	414.975
1950.05358	420.275
1953.14331	413.375
1956.23103	412.275
1959.31675	413.675
1962.40046	411.875
1965.48217	412.675
1968.56188	413.675
1971.63959	403.575
1974.7153	404.575
1977.78901	407.475
1980.86073	397.875
1983.93046	396.275
1986.99819	400.175
1990.06394	398.475
1993.1277	395.875
1996.18947	390.475
1999.24925	389.375
2002.30706	392.075
2005.36288	388.975
2008.41672	389.075
2011.46859	385.275
2014.51848	377.675
2017.56639	382.775
2020.61233	379.175
2023.6563	376.775
2026.6983	380.175
2029.73833	370.975
2032.7764	376.175
2035.8125	371.175
2038.84664	378.375
2041.87881	370.075
2044.90903	367.375
2047.93729	368.075
2050.96359	371.575
2053.98794	367.575
2057.01034	365.875
2060.03078	367.875
2063.04927	366.575
2066.06582	361.675
2069.08042	364.375
2072.09307	363.975
2075.10378	363.475
2078.11255	363.775
2081.11938	360.175
2084.12426	364.775
2087.12722	360.275
2090.12824	359.075
2093.12732	362.875
2096.12447	357.575
2099.11969	360.275
2102.11299	358.875
2105.10435	356.275
2108.09379	362.075
2111.08131	358.975
2114.0669	362.075
2117.05057	365.375
2120.03233	360.475
2123.01216	361.375
2125.99008	356.575
2128.96609	355.875
2131.94018	354.475
2134.91236	353.875
2137.88263	355.375
2140.851	348.375
2143.81746	353.175
2146.78201	353.675
2149.74466	350.975
2152.7054	354.275
2155.66425	353.575
2158.6212	351.775
2161.57625	348.475
2164.52941	346.775
2167.48067	349.975
2170.43004	341.175
2173.37752	345.575
2176.32311	341.575
2179.26681	337.475
2182.20863	342.575
2185.14856	344.175
2188.08661	341.275
2191.02278	341.475
2193.95707	339.575
2196.88948	333.875
2199.82001	337.875
2202.74867	334.775
2205.67545	332.975
2208.60037	333.975
2211.52341	331.075
2214.44458	324.575
2217.36388	329.575
2220.28132	329.675
2223.1969	331.075
2226.11061	327.375
2229.02246	327.875
2231.93245	326.775
2234.84058	325.975
2237.74686	320.975
2240.65128	323.775
2243.55385	325.575
2246.45456	319.875
2249.35343	317.375
2252.25044	316.175
2255.14561	320.875
2258.03893	309.575
2260.93041	313.475
2263.82004	315.075
2266.70783	312.375
2269.59378	307.675
2272.4779	310.675
2275.36017	303.075
2278.24061	304.075
2281.11922	305.275
2283.996	308.975
2286.87094	312.175
2289.74405	305.275
2292.61534	301.975
2295.4848	299.275
2298.35243	305.375
2301.21824	303.175
2304.08223	297.375
2306.94439	302.375
2309.80474	298.875
2312.66327	299.575
2315.51999	298.775
2318.37489	296.475
2321.22797	296.175
2324.07925	296.075
2326.92871	296.075
2329.77637	296.775
2332.62222	297.075
2335.46626	293.075
2338.3085	289.175
2341.14893	290.575
2343.98756	287.875
2346.8244	288.275
2349.65943	287.875
2352.49267	287.875
2355.32411	286.975
2358.15376	285.175
2360.98161	283.775
2363.80768	283.775
2366.63195	281.075
2369.45444	285.375
2372.27514	276.975
2375.09405	277.775
2377.91118	280.875
2380.72652	281.775
2383.54009	276.475
2386.35187	283.875
2389.16188	277.075
2391.97011	278.375
2394.77657	275.175
2397.58125	274.375
2400.38416	276.575
2403.18529	270.875
2405.98466	273.175
2408.78226	274.175
2411.57809	280.075
2414.37216	271.375
2417.16446	278.375
2419.955	273.575
2422.74378	279.475
2425.5308	276.975
2428.31606	278.675
2431.09956	285.075
2433.88131	274.675
2436.6613	276.875
2439.43954	272.575
2442.21603	269.175
2444.99077	272.675
2447.76377	267.975
2450.53501	269.675
2453.30451	262.175
2456.07226	262.075
2458.83827	262.075
2461.60254	263.175
2464.36507	259.375
2467.12586	256.775
2469.88492	258.275
2472.64224	255.975
2475.39782	257.275
2478.15167	254.875
2480.90379	257.775
2483.65417	256.075
2486.40283	257.375
2489.14976	256.275
2491.89497	253.175
2494.63845	250.175
2497.3802	247.875
2500.12024	251.875
2502.85855	251.375
2505.59514	246.975
2508.33002	247.375
2511.06318	247.475
2513.79462	246.575
2516.52435	245.575
2519.25237	244.075
2521.97867	245.475
2524.70327	245.075
2527.42616	248.175
2530.14734	240.475
2532.86681	240.775
2535.58458	247.675
2538.30065	246.075
2541.01501	241.275
2543.72768	239.375
2546.43864	245.375
2549.14791	240.575
2551.85548	240.775
2554.56136	237.175
2557.26554	242.475
2559.96803	238.375
2562.66883	239.375
2565.36794	235.475
2568.06536	236.975
2570.7611	236.075
2573.45514	238.675
2576.14751	236.675
2578.83819	233.275
2581.52719	234.875
2584.21451	230.575
2586.90015	230.475
2589.58411	232.775
2592.2664	236.675
2594.94701	231.475
2597.62594	233.675
2600.30321	228.275
2602.9788	227.075
2605.65273	234.075
2608.32498	233.775
2610.99557	228.675
2613.66449	226.175
2616.33175	229.175
2618.99734	230.175
2621.66128	224.275
2624.32355	224.075
2626.98416	226.075
2629.64311	226.975
2632.30041	224.275
2634.95605	219.875
2637.61004	227.675
2640.26238	215.575
2642.91306	225.075
2645.56209	218.375
2648.20948	222.175
2650.85521	222.875
2653.4993	221.175
2656.14175	227.975
2658.78255	217.775
2661.42171	221.375
2664.05923	224.975
2666.6951	222.175
2669.32934	222.475
2671.96194	223.475
2674.59291	222.175
2677.22224	222.075
2679.84993	223.975
2682.476	218.775
2685.10043	224.075
2687.72324	220.075
2690.34441	218.975
2692.96396	225.975
2695.58188	221.775
2698.19818	225.475
2700.81285	217.675
2703.4259	219.975
2706.03733	216.475
2708.64714	216.875
2711.25533	221.175
2713.86191	225.675
2716.46687	226.275
2719.07021	229.475
2721.67194	231.375
2724.27206	231.475
2726.87057	238.975
2729.46747	242.675
2732.06276	239.475
2734.65644	243.575
2737.24852	241.575
2739.83899	239.375
2742.42786	242.375
2745.01513	240.075
2747.60079	238.875
2750.18486	231.575
2752.76733	230.275
2755.3482	226.375
2757.92747	227.675
2760.50515	233.875
2763.08123	226.975
2765.65573	230.275
2768.22863	228.575
2770.79994	227.875
2773.36967	227.275
2775.9378	229.275
2778.50435	229.375
2781.06932	226.275
2783.6327	230.075
2786.1945	228.075
2788.75471	227.875
2791.31335	225.875
2793.87041	228.375
2796.42589	226.575
2798.97979	224.675
2801.53212	226.275
2804.08288	227.675
2806.63206	227.575
2809.17967	226.575
2811.72571	230.975
2814.27018	228.975
2816.81308	229.275
2819.35442	235.275
2821.89419	230.175
2824.43239	241.075
2826.96904	241.875
2829.50412	243.675
2832.03763	264.475
2834.56959	275.175
2837.1	302.475
2839.62884	338.175
2842.15613	404.175
2844.68186	475.675
2847.20604	529.075
2849.72867	565.775
2852.24974	571.275
2854.76927	569.475
2857.28724	569.475
2859.80367	569.275
2862.31855	568.575
2864.83189	576.675
2867.34368	569.875
2869.85393	582.275
2872.36264	593.875
2874.8698	625.075
2877.37543	630.575
2879.87952	613.575
2882.38207	599.675
2884.88308	581.575
2887.38256	557.575
2889.88051	559.975
2892.37692	556.975
2894.8718	557.375
2897.36515	567.575
2899.85698	577.075
2902.34727	595.275
2904.83604	603.175
2907.32328	621.375
2909.809	621.975
2912.29319	615.875
2914.77587	602.475
2917.25702	589.275
2919.73665	579.075
2922.21476	556.375
2924.69136	549.875
2927.16644	550.575
2929.64	556.575
2932.11205	564.075
2934.58258	571.675
2937.05161	564.575
2939.51912	565.375
2941.98513	533.675
2944.44962	505.475
2946.91261	465.575
2949.37409	433.775
2951.83407	411.175
2954.29254	396.275
2956.74951	394.375
2959.20498	402.675
2961.65895	406.375
2964.11142	411.575
2966.56239	400.775
2969.01186	394.875
2971.45984	376.575
2973.90632	363.275
2976.35131	344.375
2978.7948	333.275
2981.23681	314.075
2983.67732	301.775
2986.11635	291.775
2988.55388	289.075
2990.98993	276.875
2993.4245	272.075
2995.85758	268.275
2998.28917	265.675
3000.71928	265.575
3003.14791	264.575
3005.57506	256.875
3008.00073	263.475
3010.42493	256.975
3012.84764	256.375
3015.26888	260.375
3017.68865	261.375
3020.10694	261.675
3022.52376	261.275
3024.9391	266.275
3027.35298	264.475
3029.76539	263.675
3032.17632	263.575
3034.5858	266.275
3036.9938	271.275
3039.40034	269.975
3041.80542	271.675
3044.20903	273.875
3046.61118	276.875
3049.01187	278.375
3051.4111	282.375
3053.80888	284.175
3056.20519	291.475
3058.60005	288.175
3060.99345	297.875
3063.3854	287.475
3065.7759	298.075
3068.16494	301.975
3070.55254	299.675
3072.93868	304.775
3075.32338	313.375
3077.70662	311.975
3080.08842	313.475
3082.46878	314.075
3084.84769	320.775
3087.22515	320.675
3089.60118	326.375
3091.97576	326.475
3094.3489	332.175
3096.72061	342.675
3099.09087	346.475
3101.4597	349.575
3103.82709	350.775
3106.19305	352.175
3108.55757	364.175
3110.92066	361.475
3113.28232	371.375
3115.64255	376.675
3118.00134	378.875
3120.35871	382.275
3122.71466	391.075
3125.06917	391.875
3127.42226	398.775
3129.77393	398.075
3132.12417	407.275
3134.47299	406.875
3136.82039	414.275
3139.16636	424.075
3141.51092	424.275
3143.85406	433.475
3146.19579	443.275
3148.53609	449.075
3150.87499	455.075
3153.21246	459.875
3155.54853	465.675
3157.88318	470.475
3160.21642	482.675
3162.54826	486.275
3164.87868	489.775
3167.2077	494.775
3169.5353	499.975
3171.86151	503.675
3174.18631	509.775
3176.5097	518.575
3178.83169	522.075
3181.15228	527.275
3183.47147	529.675
3185.78926	536.075
3188.10565	544.675
3190.42065	542.575
3192.73424	548.975
3195.04645	549.575
3197.35725	556.575
3199.66667	563.075
3201.97469	565.075
3204.28132	571.875
3206.58656	578.475
3208.8904	572.475
3211.19287	575.775
3213.49394	583.275
3215.79363	583.875
3218.09193	589.675
3220.38884	591.275
3222.68438	596.975
3224.97853	600.475
3227.2713	599.675
3229.56269	598.675
3231.8527	602.675
3234.14133	607.675
3236.42858	607.775
3238.71446	607.275
3240.99896	605.675
3243.28209	610.275
3245.56384	609.275
3247.84423	613.675
3250.12324	611.175
3252.40088	611.375
3254.67715	612.175
3256.95205	613.675
3259.22558	615.675
3261.49775	612.775
3263.76855	604.675
3266.03799	611.775
3268.30606	612.475
3270.57277	614.975
3272.83812	620.275
3275.10211	618.475
3277.36474	614.275
3279.62601	618.975
3281.88593	615.875
3284.14448	614.175
3286.40168	610.575
3288.65753	617.775
3290.91202	620.775
3293.16516	614.875
3295.41695	608.575
3297.66738	615.075
3299.91647	610.175
3302.16421	605.075
3304.4106	607.175
3306.65564	603.075
3308.89933	605.275
3311.14169	594.175
3313.38269	594.475
3315.62236	591.275
3317.86068	584.075
3320.09766	585.175
3322.3333	582.975
3324.5676	581.275
3326.80056	577.175
3329.03219	569.675
3331.26248	-0.125
3333.49143	-1.525
3335.71905	0.875
