Data from AgNPs_APTES_FTO_UA_100uM_CRN_0uM_R6G_10uM_Scan_RamanShift__18__16-03-42-947.txt Node

Date: Mon Jul 11 16:03:42 BST 2022
User: TCL
Spectrometer: QEP01345
Trigger mode: 4
Integration Time (sec): 7.000000E0
Scans to average: 10
Electric dark correction enabled: true
Nonlinearity correction enabled: false
Boxcar width: 0
XAxis mode: Raman Shifts
Number of Pixels in Spectrum: 1044
>>>>>Begin Spectral Data<<<<<
46.04893	0.225
50.45542	0.925
54.85868	-0.175
59.25871	-1.975
63.6555	37.825
68.04907	40.225
72.43941	40.525
76.82654	41.625
81.21044	46.925
85.59113	48.925
89.96862	54.825
94.34289	48.525
98.71396	53.825
103.08183	56.725
107.4465	57.225
111.80798	59.825
116.16626	59.825
120.52136	59.625
124.87327	63.825
129.222	67.025
133.56755	69.925
137.90993	76.725
142.24913	80.325
146.58517	90.225
150.91804	104.025
155.24774	123.125
159.57429	152.225
163.89768	195.325
168.21792	254.225
172.53501	337.725
176.84895	475.625
181.15975	656.025
185.46741	911.925
189.77193	1265.825
194.07331	1687.125
198.37157	2168.525
202.6667	2665.625
206.9587	3167.525
211.24758	3676.825
215.53334	4190.225
219.81599	4730.625
224.09553	5326.525
228.37195	5978.525
232.64527	6704.125
236.91549	7457.925
241.18261	8150.525
245.44663	8764.625
249.70755	9272.925
253.96539	9646.025
258.22014	9955.625
262.4718	10178.625
266.72039	10297.025
270.96589	10318.225
275.20832	10223.225
279.44768	10019.325
283.68397	9832.325
287.91719	9670.325
292.14735	9631.025
296.37445	9645.725
300.59849	9777.925
304.81948	9869.625
309.03742	9909.125
313.25231	9757.725
317.46415	9483.425
321.67296	9132.325
325.87872	8883.525
330.08145	8775.425
334.28114	8782.925
338.47781	8874.725
342.67145	9037.025
346.86207	9259.825
351.04966	9547.725
355.23424	9832.425
359.4158	10116.425
363.59435	10268.225
367.76989	10440.625
371.94243	10530.625
376.11196	10635.525
380.27849	10722.625
384.44203	10783.225
388.60257	10817.525
392.76012	10861.925
396.91468	10982.725
401.06626	11161.725
405.21485	11240.525
409.36047	11111.425
413.50311	10829.025
417.64277	10615.325
421.77947	10476.625
425.9132	10306.125
430.04396	10271.925
434.17176	10343.125
438.2966	10468.525
442.41849	10640.025
446.53742	10893.525
450.6534	11106.025
454.76644	11288.425
458.87653	11372.825
462.98368	11342.825
467.08789	11251.825
471.18916	11158.625
475.2875	11037.625
479.38291	10950.625
483.4754	10896.925
487.56496	10860.225
491.6516	10824.725
495.73531	10894.925
499.81612	10865.225
503.89401	10933.425
507.96899	10969.125
512.04106	11026.225
516.11023	11097.325
520.1765	11125.025
524.23987	11145.025
528.30034	11065.725
532.35792	11090.925
536.41261	11041.725
540.46441	10957.825
544.51333	10824.025
548.55936	10803.525
552.60252	10868.625
556.64279	10945.225
560.6802	10983.425
564.71473	11017.525
568.7464	11126.625
572.7752	11172.725
576.80114	11114.725
580.82422	11076.225
584.84444	11122.325
588.86181	11216.525
592.87633	11341.025
596.888	11457.725
600.89682	11756.925
604.9028	12650.825
608.90594	14809.625
612.90624	16896.025
616.90371	15560.725
620.89834	12606.925
624.89015	11543.225
628.87913	11563.125
632.86528	11912.025
636.84862	12140.525
640.82913	12016.625
644.80683	11600.925
648.78172	11239.825
652.75379	11140.825
656.72306	11293.825
660.68952	11520.625
664.65319	11450.225
668.61405	11379.025
672.57211	11608.225
676.52738	11939.225
680.47986	12411.725
684.42955	12884.325
688.37646	13222.325
692.32058	13155.925
696.26192	12752.125
700.20048	12368.725
704.13626	12103.225
708.06928	11869.725
711.99952	11606.525
715.927	11346.625
719.85171	11133.525
723.77365	11040.025
727.69284	10990.225
731.60928	10978.325
735.52295	10960.825
739.43388	10909.325
743.34206	10869.725
747.24749	10818.425
751.15017	10727.825
755.05012	10769.025
758.94733	11033.725
762.8418	11750.825
766.73354	12990.925
770.62254	14328.125
774.50882	15035.725
778.39237	14476.025
782.27321	13127.825
786.15132	11941.725
790.02671	11205.525
793.89938	10861.325
797.76935	10757.625
801.6366	10664.325
805.50115	10694.325
809.36299	10679.125
813.22213	10607.325
817.07857	10545.725
820.93231	10436.725
824.78336	10353.125
828.63172	10319.625
832.47738	10296.125
836.32036	10259.225
840.16066	10281.925
843.99827	10302.925
847.8332	10314.725
851.66546	10309.925
855.49504	10362.825
859.32195	10392.825
863.1462	10386.825
866.96777	10392.325
870.78668	10420.525
874.60293	10437.225
878.41652	10472.525
882.22745	10528.725
886.03573	10592.125
889.84136	10568.125
893.64433	10510.425
897.44466	10380.925
901.24235	10232.725
905.0374	10101.025
908.8298	9993.825
912.61957	9930.825
916.40671	9914.625
920.19121	10016.425
923.97308	10080.325
927.75233	10164.425
931.52895	10203.025
935.30295	10154.925
939.07433	10035.325
942.84309	9971.925
946.60924	9969.225
950.37278	9990.025
954.13371	9964.925
957.89203	9952.125
961.64774	9900.225
965.40086	9828.225
969.15137	9722.125
972.89929	9648.825
976.64461	9615.925
980.38733	9603.925
984.12747	9598.625
987.86502	9637.625
991.59999	9703.725
995.33237	9799.325
999.06217	10016.825
1002.78939	10247.425
1006.51404	10419.225
1010.23611	10648.025
1013.95561	10791.625
1017.67255	10889.125
1021.38692	10839.625
1025.09872	10693.725
1028.80796	10587.025
1032.51465	10598.125
1036.21877	10672.925
1039.92035	10663.825
1043.61937	10644.125
1047.31584	10511.825
1051.00976	10450.525
1054.70114	10426.425
1058.38998	10408.825
1062.07627	10438.725
1065.76003	10500.725
1069.44126	10574.525
1073.11995	10693.725
1076.79611	10786.725
1080.46974	10837.925
1084.14085	10928.225
1087.80943	11035.125
1091.47549	11092.825
1095.13903	11010.425
1098.80005	10845.025
1102.45857	10741.725
1106.11456	10681.125
1109.76805	10749.925
1113.41903	10906.925
1117.06751	11150.525
1120.71348	11474.925
1124.35696	11857.925
1127.99793	12274.525
1131.63641	12529.925
1135.2724	12469.225
1138.90589	12225.925
1142.5369	11956.725
1146.16542	11645.725
1149.79145	11331.825
1153.415	11133.725
1157.03607	11077.425
1160.65467	11223.725
1164.27079	11531.325
1167.88443	12029.525
1171.49561	12662.325
1175.10432	13598.125
1178.71056	14834.425
1182.31434	15976.525
1185.91565	16515.825
1189.51451	16446.025
1193.11091	15974.125
1196.70485	15234.225
1200.29634	14615.925
1203.88538	14029.525
1207.47197	13404.425
1211.05612	12849.325
1214.63782	12398.525
1218.21708	12150.025
1221.79391	12052.725
1225.36829	12005.025
1228.94024	11950.825
1232.50976	11838.825
1236.07685	11793.225
1239.6415	11781.225
1243.20374	11830.425
1246.76355	11910.325
1250.32093	12056.125
1253.8759	12298.425
1257.42845	12550.725
1260.97859	12880.325
1264.52631	13206.625
1268.07163	13508.025
1271.61453	13828.625
1275.15503	14125.625
1278.69312	14376.925
1282.22882	14574.025
1285.76211	14834.825
1289.29301	15252.025
1292.82151	15744.925
1296.34761	16366.325
1299.87133	17132.425
1303.39266	18163.425
1306.9116	19436.825
1310.42815	20622.925
1313.94233	21136.125
1317.45412	20776.525
1320.96354	19927.225
1324.47058	19034.025
1327.97525	18235.425
1331.47754	17701.125
1334.97747	17474.525
1338.47502	17549.725
1341.97022	17889.925
1345.46305	18396.325
1348.95352	19153.325
1352.44163	20221.625
1355.92738	21593.825
1359.41078	23344.425
1362.89183	24658.825
1366.37053	23859.225
1369.84688	21022.825
1373.32088	18404.625
1376.79254	16742.425
1380.26186	15931.525
1383.72883	15515.225
1387.19347	15195.125
1390.65578	14863.325
1394.11575	14591.225
1397.57339	14464.825
1401.0287	14436.725
1404.48168	14396.525
1407.93234	14324.325
1411.38068	14233.825
1414.82669	14076.125
1418.27039	13837.925
1421.71177	13596.325
1425.15083	13350.425
1428.58758	13224.825
1432.02203	13260.825
1435.45416	13470.225
1438.88399	13690.925
1442.31151	13901.825
1445.73673	14179.825
1449.15965	14498.425
1452.58027	14845.625
1455.9986	15149.725
1459.41463	15476.425
1462.82837	15806.425
1466.23982	16113.025
1469.64898	16306.425
1473.05586	16387.425
1476.46045	16306.725
1479.86276	16145.825
1483.26279	15981.925
1486.66054	15915.625
1490.05602	15894.125
1493.44922	16063.025
1496.84016	16457.925
1500.22882	17290.725
1503.61521	18557.125
1506.99934	19931.825
1510.38121	20944.025
1513.76081	21041.025
1517.13816	19993.925
1520.51324	18324.225
1523.88607	16849.625
1527.25665	15919.525
1530.62498	15379.325
1533.99105	15042.325
1537.35488	14844.325
1540.71647	14673.325
1544.07581	14609.325
1547.4329	14512.525
1550.78776	14534.325
1554.14038	14532.825
1557.49077	14603.825
1560.83892	14795.225
1564.18484	15002.925
1567.52853	15220.625
1570.86999	15409.425
1574.20922	15563.725
1577.54624	15493.025
1580.88103	15089.225
1584.2136	14568.025
1587.54395	14311.225
1590.87208	14440.325
1594.19801	14985.225
1597.52172	15705.325
1600.84321	15995.825
1604.16251	15672.025
1607.47959	15003.325
1610.79447	14277.225
1614.10715	13505.525
1617.41763	12844.225
1620.7259	12379.925
1624.03199	12072.125
1627.33587	12018.325
1630.63757	12199.125
1633.93707	12605.525
1637.23439	13308.325
1640.52951	14329.725
1643.82246	15583.025
1647.11321	16881.825
1650.40179	17507.225
1653.68819	16899.025
1656.97241	15395.125
1660.25446	13720.525
1663.53433	12570.825
1666.81203	11812.825
1670.08756	11351.025
1673.36092	11072.025
1676.63211	10868.625
1679.90115	10694.425
1683.16801	10509.325
1686.43272	10384.425
1689.69527	10282.625
1692.95567	10142.525
1696.2139	10056.725
1699.46999	9914.025
1702.72392	9833.825
1705.97571	9700.925
1709.22535	9581.325
1712.47284	9488.825
1715.71819	9409.325
1718.96139	9320.125
1722.20246	9224.525
1725.44139	9120.725
1728.67818	9001.125
1731.91284	8914.325
1735.14537	8830.425
1738.37576	8775.425
1741.60403	8714.425
1744.83017	8679.825
1748.05418	8658.025
1751.27607	8612.525
1754.49584	8605.025
1757.71349	8601.525
1760.92903	8600.725
1764.14244	8591.025
1767.35375	8563.825
1770.56294	8516.625
1773.77002	8471.525
1776.97499	8440.925
1780.17785	8404.625
1783.37861	8375.725
1786.57727	8347.125
1789.77382	8304.425
1792.96828	8289.225
1796.16064	8269.625
1799.3509	8252.325
1802.53907	8252.625
1805.72514	8211.725
1808.90913	8180.925
1812.09102	8200.025
1815.27083	8152.925
1818.44856	8157.825
1821.6242	8129.625
1824.79776	8126.525
1827.96924	8119.525
1831.13864	8074.425
1834.30597	8088.825
1837.47122	8072.425
1840.6344	8062.125
1843.7955	8077.625
1846.95454	8071.125
1850.11151	8076.625
1853.26642	8041.225
1856.41926	8040.525
1859.57004	8029.525
1862.71876	8026.025
1865.86542	8014.525
1869.01003	8042.125
1872.15258	8029.625
1875.29308	8027.325
1878.43152	7989.425
1881.56792	7977.025
1884.70227	7982.425
1887.83457	7988.125
1890.96482	7955.925
1894.09304	7967.325
1897.21921	7979.725
1900.34335	7947.725
1903.46544	7967.225
1906.58551	7983.325
1909.70353	7969.325
1912.81953	7952.125
1915.93349	7937.925
1919.04543	7921.425
1922.15534	7898.425
1925.26322	7878.725
1928.36908	7883.225
1931.47292	7879.225
1934.57473	7878.825
1937.67453	7835.025
1940.77232	7806.425
1943.86808	7804.525
1946.96184	7796.825
1950.05358	7757.625
1953.14331	7772.925
1956.23103	7741.625
1959.31675	7727.125
1962.40046	7712.625
1965.48217	7682.925
1968.56188	7670.125
1971.63959	7641.325
1974.7153	7626.425
1977.78901	7599.725
1980.86073	7594.325
1983.93046	7557.125
1986.99819	7537.625
1990.06394	7528.925
1993.1277	7529.725
1996.18947	7494.625
1999.24925	7474.225
2002.30706	7440.625
2005.36288	7427.325
2008.41672	7402.025
2011.46859	7384.525
2014.51848	7386.725
2017.56639	7389.725
2020.61233	7377.825
2023.6563	7371.825
2026.6983	7346.825
2029.73833	7309.925
2032.7764	7323.425
2035.8125	7284.025
2038.84664	7285.225
2041.87881	7293.525
2044.90903	7307.925
2047.93729	7272.925
2050.96359	7268.025
2053.98794	7256.425
2057.01034	7277.125
2060.03078	7257.225
2063.04927	7261.425
2066.06582	7263.325
2069.08042	7298.325
2072.09307	7283.725
2075.10378	7285.625
2078.11255	7275.125
2081.11938	7286.225
2084.12426	7295.725
2087.12722	7270.225
2090.12824	7272.125
2093.12732	7280.925
2096.12447	7290.725
2099.11969	7335.625
2102.11299	7329.925
2105.10435	7323.625
2108.09379	7353.125
2111.08131	7364.125
2114.0669	7356.725
2117.05057	7348.025
2120.03233	7343.325
2123.01216	7344.625
2125.99008	7357.925
2128.96609	7363.725
2131.94018	7372.725
2134.91236	7387.925
2137.88263	7379.825
2140.851	7343.325
2143.81746	7357.925
2146.78201	7359.125
2149.74466	7369.625
2152.7054	7350.925
2155.66425	7348.525
2158.6212	7365.125
2161.57625	7320.425
2164.52941	7335.025
2167.48067	7351.425
2170.43004	7351.525
2173.37752	7373.825
2176.32311	7346.425
2179.26681	7361.425
2182.20863	7356.825
2185.14856	7372.125
2188.08661	7364.825
2191.02278	7379.525
2193.95707	7369.625
2196.88948	7364.125
2199.82001	7361.125
2202.74867	7345.325
2205.67545	7352.125
2208.60037	7351.625
2211.52341	7337.725
2214.44458	7322.425
2217.36388	7330.825
2220.28132	7314.925
2223.1969	7303.325
2226.11061	7314.225
2229.02246	7296.725
2231.93245	7309.925
2234.84058	7252.525
2237.74686	7260.225
2240.65128	7261.225
2243.55385	7252.825
2246.45456	7289.925
2249.35343	7259.925
2252.25044	7235.325
2255.14561	7231.725
2258.03893	7251.225
2260.93041	7229.025
2263.82004	7229.425
2266.70783	7224.725
2269.59378	7187.025
2272.4779	7178.125
2275.36017	7173.825
2278.24061	7164.225
2281.11922	7163.525
2283.996	7133.425
2286.87094	7118.025
2289.74405	7110.125
2292.61534	7095.325
2295.4848	7096.225
2298.35243	7107.925
2301.21824	7091.925
2304.08223	7112.225
2306.94439	7121.125
2309.80474	7101.725
2312.66327	7100.225
2315.51999	7101.025
2318.37489	7118.625
2321.22797	7118.425
2324.07925	7100.825
2326.92871	7109.825
2329.77637	7101.825
2332.62222	7108.025
2335.46626	7085.025
2338.3085	7094.025
2341.14893	7081.625
2343.98756	7095.025
2346.8244	7108.025
2349.65943	7097.925
2352.49267	7109.325
2355.32411	7090.025
2358.15376	7109.325
2360.98161	7127.525
2363.80768	7120.425
2366.63195	7118.125
2369.45444	7095.125
2372.27514	7098.425
2375.09405	7097.625
2377.91118	7093.925
2380.72652	7058.625
2383.54009	7062.725
2386.35187	7069.225
2389.16188	7026.925
2391.97011	7018.425
2394.77657	7021.325
2397.58125	7012.925
2400.38416	6994.125
2403.18529	7004.125
2405.98466	6987.525
2408.78226	6957.825
2411.57809	6970.325
2414.37216	6949.125
2417.16446	6961.225
2419.955	6957.925
2422.74378	6947.725
2425.5308	6931.025
2428.31606	6937.525
2431.09956	6938.125
2433.88131	6938.325
2436.6613	6950.325
2439.43954	6929.025
2442.21603	6947.525
2444.99077	6939.325
2447.76377	6968.325
2450.53501	6942.325
2453.30451	6948.525
2456.07226	6943.425
2458.83827	6943.225
2461.60254	6917.325
2464.36507	6932.925
2467.12586	6932.625
2469.88492	6925.625
2472.64224	6951.225
2475.39782	6947.825
2478.15167	6938.725
2480.90379	6933.225
2483.65417	6962.625
2486.40283	6964.225
2489.14976	6971.725
2491.89497	6955.925
2494.63845	6976.825
2497.3802	6975.525
2500.12024	6973.225
2502.85855	6987.525
2505.59514	6976.425
2508.33002	6956.625
2511.06318	6968.525
2513.79462	6939.625
2516.52435	6936.225
2519.25237	6938.725
2521.97867	6888.125
2524.70327	6897.325
2527.42616	6885.425
2530.14734	6908.725
2532.86681	6905.525
2535.58458	6890.625
2538.30065	6915.825
2541.01501	6913.625
2543.72768	6905.225
2546.43864	6883.825
2549.14791	6895.525
2551.85548	6884.725
2554.56136	6877.825
2557.26554	6885.825
2559.96803	6872.225
2562.66883	6868.725
2565.36794	6851.225
2568.06536	6862.925
2570.7611	6837.925
2573.45514	6857.625
2576.14751	6848.425
2578.83819	6856.725
2581.52719	6834.725
2584.21451	6819.325
2586.90015	6825.225
2589.58411	6813.225
2592.2664	6805.125
2594.94701	6811.725
2597.62594	6807.625
2600.30321	6804.825
2602.9788	6790.525
2605.65273	6789.025
2608.32498	6809.025
2610.99557	6770.625
2613.66449	6778.925
2616.33175	6797.525
2618.99734	6781.225
2621.66128	6786.925
2624.32355	6786.525
2626.98416	6792.125
2629.64311	6773.125
2632.30041	6772.825
2634.95605	6765.925
2637.61004	6757.325
2640.26238	6772.425
2642.91306	6755.125
2645.56209	6753.125
2648.20948	6756.425
2650.85521	6752.525
2653.4993	6756.825
2656.14175	6751.325
2658.78255	6756.725
2661.42171	6780.525
2664.05923	6788.025
2666.6951	6797.125
2669.32934	6796.025
2671.96194	6805.425
2674.59291	6816.325
2677.22224	6807.025
2679.84993	6813.825
2682.476	6789.525
2685.10043	6802.825
2687.72324	6782.125
2690.34441	6778.525
2692.96396	6777.925
2695.58188	6816.425
2698.19818	6824.225
2700.81285	6816.925
2703.4259	6800.825
2706.03733	6828.125
2708.64714	6828.625
2711.25533	6842.525
2713.86191	6843.625
2716.46687	6855.725
2719.07021	6852.025
2721.67194	6852.825
2724.27206	6853.725
2726.87057	6876.825
2729.46747	6869.425
2732.06276	6881.525
2734.65644	6869.925
2737.24852	6886.125
2739.83899	6855.225
2742.42786	6845.725
2745.01513	6866.825
2747.60079	6871.525
2750.18486	6867.925
2752.76733	6842.225
2755.3482	6847.525
2757.92747	6855.125
2760.50515	6843.825
2763.08123	6842.725
2765.65573	6845.125
2768.22863	6819.825
2770.79994	6832.725
2773.36967	6813.625
2775.9378	6829.725
2778.50435	6830.025
2781.06932	6809.225
2783.6327	6823.225
2786.1945	6814.025
2788.75471	6802.525
2791.31335	6796.925
2793.87041	6786.225
2796.42589	6766.225
2798.97979	6766.025
2801.53212	6769.225
2804.08288	6747.525
2806.63206	6730.125
2809.17967	6715.525
2811.72571	6693.425
2814.27018	6704.525
2816.81308	6693.225
2819.35442	6670.025
2821.89419	6675.825
2824.43239	6692.225
2826.96904	6682.525
2829.50412	6672.525
2832.03763	6667.425
2834.56959	6661.025
2837.1	6647.625
2839.62884	6654.025
2842.15613	6640.625
2844.68186	6658.525
2847.20604	6675.025
2849.72867	6692.525
2852.24974	6678.525
2854.76927	6656.025
2857.28724	6660.625
2859.80367	6660.625
2862.31855	6658.125
2864.83189	6657.625
2867.34368	6643.425
2869.85393	6668.925
2872.36264	6647.925
2874.8698	6667.125
2877.37543	6640.525
2879.87952	6656.525
2882.38207	6675.125
2884.88308	6662.825
2887.38256	6675.925
2889.88051	6654.625
2892.37692	6666.925
2894.8718	6675.925
2897.36515	6696.225
2899.85698	6706.125
2902.34727	6725.925
2904.83604	6733.325
2907.32328	6738.725
2909.809	6753.225
2912.29319	6768.525
2914.77587	6747.925
2917.25702	6773.425
2919.73665	6765.125
2922.21476	6769.225
2924.69136	6773.325
2927.16644	6790.825
2929.64	6773.725
2932.11205	6761.225
2934.58258	6743.025
2937.05161	6750.425
2939.51912	6732.625
2941.98513	6722.525
2944.44962	6710.125
2946.91261	6711.125
2949.37409	6724.525
2951.83407	6722.425
2954.29254	6707.825
2956.74951	6723.325
2959.20498	6724.625
2961.65895	6695.825
2964.11142	6689.725
2966.56239	6711.325
2969.01186	6691.125
2971.45984	6686.025
2973.90632	6681.725
2976.35131	6653.325
2978.7948	6642.225
2981.23681	6620.425
2983.67732	6615.725
2986.11635	6621.625
2988.55388	6621.525
2990.98993	6601.725
2993.4245	6581.225
2995.85758	6578.225
2998.28917	6560.525
3000.71928	6567.925
3003.14791	6548.525
3005.57506	6534.825
3008.00073	6521.425
3010.42493	6532.625
3012.84764	6523.525
3015.26888	6508.825
3017.68865	6479.525
3020.10694	6479.725
3022.52376	6465.725
3024.9391	6467.825
3027.35298	6498.525
3029.76539	6475.725
3032.17632	6492.525
3034.5858	6461.325
3036.9938	6461.225
3039.40034	6452.725
3041.80542	6437.125
3044.20903	6449.025
3046.61118	6450.625
3049.01187	6435.425
3051.4111	6441.325
3053.80888	6428.125
3056.20519	6415.425
3058.60005	6392.525
3060.99345	6401.225
3063.3854	6388.825
3065.7759	6377.125
3068.16494	6350.125
3070.55254	6315.225
3072.93868	6368.025
3075.32338	6337.925
3077.70662	6343.725
3080.08842	6302.025
3082.46878	6288.325
3084.84769	6299.025
3087.22515	6294.825
3089.60118	6296.125
3091.97576	6296.025
3094.3489	6308.125
3096.72061	6322.825
3099.09087	6336.725
3101.4597	6318.525
3103.82709	6337.125
3106.19305	6330.725
3108.55757	6346.725
3110.92066	6354.825
3113.28232	6336.525
3115.64255	6298.125
3118.00134	6301.425
3120.35871	6298.625
3122.71466	6303.925
3125.06917	6291.325
3127.42226	6267.125
3129.77393	6271.425
3132.12417	6276.825
3134.47299	6274.425
3136.82039	6263.025
3139.16636	6261.125
3141.51092	6282.625
3143.85406	6285.325
3146.19579	6285.325
3148.53609	6295.225
3150.87499	6304.025
3153.21246	6302.625
3155.54853	6321.125
3157.88318	6304.725
3160.21642	6334.925
3162.54826	6319.525
3164.87868	6347.825
3167.2077	6358.025
3169.5353	6349.825
3171.86151	6361.225
3174.18631	6345.325
3176.5097	6343.325
3178.83169	6349.325
3181.15228	6367.125
3183.47147	6328.925
3185.78926	6334.125
3188.10565	6331.125
3190.42065	6336.025
3192.73424	6334.025
3195.04645	6342.125
3197.35725	6353.925
