Data from AgNPs_APTES_FTO_UA_100uM_CRN_0uM_R6G_10uM_Scan_RamanShift__13__15-57-52-941.txt Node

Date: Mon Jul 11 15:57:52 BST 2022
User: TCL
Spectrometer: QEP01345
Trigger mode: 4
Integration Time (sec): 7.000000E0
Scans to average: 10
Electric dark correction enabled: true
Nonlinearity correction enabled: false
Boxcar width: 0
XAxis mode: Raman Shifts
Number of Pixels in Spectrum: 1044
>>>>>Begin Spectral Data<<<<<
46.04893	-0.6625
50.45542	0.3375
54.85868	-0.0625
59.25871	-0.8625
63.6555	39.4375
68.04907	41.7375
72.43941	43.1375
76.82654	45.9375
81.21044	52.0375
85.59113	49.5375
89.96862	50.5375
94.34289	53.5375
98.71396	58.7375
103.08183	56.3375
107.4465	62.4375
111.80798	61.8375
116.16626	60.4375
120.52136	66.6375
124.87327	68.6375
129.222	68.7375
133.56755	73.4375
137.90993	81.8375
142.24913	88.6375
146.58517	101.2375
150.91804	112.7375
155.24774	130.8375
159.57429	167.8375
163.89768	208.3375
168.21792	271.4375
172.53501	364.1375
176.84895	516.2375
181.15975	705.1375
185.46741	989.1375
189.77193	1365.4375
194.07331	1809.9375
198.37157	2328.4375
202.6667	2883.9375
206.9587	3433.7375
211.24758	3977.1375
215.53334	4525.5375
219.81599	5122.8375
224.09553	5763.1375
228.37195	6469.3375
232.64527	7228.0375
236.91549	8031.8375
241.18261	8841.6375
245.44663	9504.5375
249.70755	10064.9375
253.96539	10493.4375
258.22014	10800.3375
262.4718	11001.9375
266.72039	11118.7375
270.96589	11119.7375
275.20832	10967.4375
279.44768	10765.0375
283.68397	10534.6375
287.91719	10328.9375
292.14735	10250.8375
296.37445	10215.3375
300.59849	10288.3375
304.81948	10334.4375
309.03742	10321.9375
313.25231	10181.2375
317.46415	9900.4375
321.67296	9575.2375
325.87872	9319.4375
330.08145	9236.7375
334.28114	9228.2375
338.47781	9300.7375
342.67145	9439.7375
346.86207	9635.3375
351.04966	9892.0375
355.23424	10170.4375
359.4158	10432.5375
363.59435	10605.0375
367.76989	10780.2375
371.94243	10892.2375
376.11196	11005.1375
380.27849	11083.9375
384.44203	11174.5375
388.60257	11205.0375
392.76012	11271.6375
396.91468	11400.4375
401.06626	11563.7375
405.21485	11650.3375
409.36047	11538.0375
413.50311	11251.6375
417.64277	10998.6375
421.77947	10846.0375
425.9132	10792.0375
430.04396	10832.2375
434.17176	10901.3375
438.2966	10952.1375
442.41849	11165.4375
446.53742	11400.5375
450.6534	11616.2375
454.76644	11809.1375
458.87653	11904.7375
462.98368	11895.4375
467.08789	11818.4375
471.18916	11696.1375
475.2875	11581.3375
479.38291	11490.2375
483.4754	11427.8375
487.56496	11416.0375
491.6516	11415.6375
495.73531	11415.5375
499.81612	11379.6375
503.89401	11492.4375
507.96899	11536.8375
512.04106	11591.3375
516.11023	11644.4375
520.1765	11657.6375
524.23987	11628.8375
528.30034	11542.8375
532.35792	11576.3375
536.41261	11564.1375
540.46441	11450.0375
544.51333	11391.2375
548.55936	11388.8375
552.60252	11476.1375
556.64279	11566.4375
560.6802	11597.4375
564.71473	11660.1375
568.7464	11743.1375
572.7752	11802.4375
576.80114	11745.5375
580.82422	11767.7375
584.84444	11851.5375
588.86181	11940.6375
592.87633	11982.9375
596.888	12067.3375
600.89682	12295.1375
604.9028	13164.3375
608.90594	15201.3375
612.90624	17065.0375
616.90371	15746.7375
620.89834	12943.8375
624.89015	11904.4375
628.87913	11882.3375
632.86528	12186.5375
636.84862	12474.7375
640.82913	12364.5375
644.80683	12006.7375
648.78172	11701.8375
652.75379	11648.7375
656.72306	11826.9375
660.68952	12061.9375
664.65319	12000.5375
668.61405	11966.3375
672.57211	12188.2375
676.52738	12635.9375
680.47986	13205.3375
684.42955	13915.1375
688.37646	14362.0375
692.32058	14267.6375
696.26192	13773.5375
700.20048	13254.4375
704.13626	13032.5375
708.06928	12850.2375
711.99952	12612.9375
715.927	12248.8375
719.85171	11980.3375
723.77365	11750.8375
727.69284	11630.7375
731.60928	11598.0375
735.52295	11580.8375
739.43388	11521.2375
743.34206	11496.9375
747.24749	11389.0375
751.15017	11322.3375
755.05012	11344.8375
758.94733	11607.7375
762.8418	12278.9375
766.73354	13475.8375
770.62254	14733.1375
774.50882	15411.0375
778.39237	14913.5375
782.27321	13653.1375
786.15132	12505.5375
790.02671	11818.7375
793.89938	11504.9375
797.76935	11341.9375
801.6366	11249.4375
805.50115	11219.0375
809.36299	11120.9375
813.22213	11042.7375
817.07857	10956.9375
820.93231	10917.6375
824.78336	10866.1375
828.63172	10823.4375
832.47738	10785.7375
836.32036	10783.6375
840.16066	10755.8375
843.99827	10779.1375
847.8332	10799.2375
851.66546	10840.2375
855.49504	10861.0375
859.32195	10896.1375
863.1462	10917.7375
866.96777	10904.2375
870.78668	10949.2375
874.60293	10983.3375
878.41652	10994.9375
882.22745	11017.1375
886.03573	11050.5375
889.84136	11043.6375
893.64433	10958.2375
897.44466	10877.9375
901.24235	10755.0375
905.0374	10654.0375
908.8298	10545.5375
912.61957	10494.3375
916.40671	10501.8375
920.19121	10571.4375
923.97308	10661.7375
927.75233	10719.2375
931.52895	10729.5375
935.30295	10666.5375
939.07433	10569.5375
942.84309	10489.2375
946.60924	10492.2375
950.37278	10520.4375
954.13371	10556.0375
957.89203	10536.3375
961.64774	10499.1375
965.40086	10423.0375
969.15137	10319.5375
972.89929	10260.1375
976.64461	10224.5375
980.38733	10168.7375
984.12747	10161.2375
987.86502	10208.9375
991.59999	10229.0375
995.33237	10352.0375
999.06217	10493.7375
1002.78939	10699.8375
1006.51404	10871.7375
1010.23611	11076.3375
1013.95561	11220.6375
1017.67255	11292.1375
1021.38692	11242.9375
1025.09872	11055.5375
1028.80796	10891.7375
1032.51465	10878.9375
1036.21877	10921.4375
1039.92035	10920.8375
1043.61937	10931.6375
1047.31584	10937.5375
1051.00976	10912.3375
1054.70114	10915.6375
1058.38998	10950.5375
1062.07627	11020.7375
1065.76003	11079.9375
1069.44126	11190.7375
1073.11995	11352.3375
1076.79611	11459.1375
1080.46974	11541.9375
1084.14085	11580.8375
1087.80943	11686.3375
1091.47549	11756.9375
1095.13903	11698.5375
1098.80005	11587.4375
1102.45857	11451.5375
1106.11456	11377.6375
1109.76805	11383.2375
1113.41903	11497.9375
1117.06751	11715.8375
1120.71348	12000.0375
1124.35696	12345.5375
1127.99793	12695.6375
1131.63641	12961.5375
1135.2724	12892.3375
1138.90589	12691.8375
1142.5369	12466.1375
1146.16542	12227.8375
1149.79145	11982.6375
1153.415	11829.0375
1157.03607	11803.5375
1160.65467	11897.4375
1164.27079	12234.1375
1167.88443	12703.4375
1171.49561	13390.5375
1175.10432	14299.7375
1178.71056	15437.5375
1182.31434	16552.4375
1185.91565	17089.5375
1189.51451	17143.5375
1193.11091	16759.6375
1196.70485	16110.9375
1200.29634	15447.3375
1203.88538	14819.0375
1207.47197	14220.5375
1211.05612	13608.3375
1214.63782	13193.4375
1218.21708	12924.2375
1221.79391	12770.0375
1225.36829	12746.6375
1228.94024	12672.8375
1232.50976	12562.8375
1236.07685	12499.8375
1239.6415	12507.9375
1243.20374	12527.1375
1246.76355	12647.5375
1250.32093	12783.1375
1253.8759	13019.8375
1257.42845	13293.6375
1260.97859	13616.0375
1264.52631	13963.6375
1268.07163	14309.1375
1271.61453	14627.3375
1275.15503	14958.2375
1278.69312	15181.7375
1282.22882	15399.6375
1285.76211	15701.8375
1289.29301	16082.7375
1292.82151	16624.8375
1296.34761	17227.4375
1299.87133	17962.2375
1303.39266	18919.8375
1306.9116	20063.2375
1310.42815	21164.8375
1313.94233	21721.6375
1317.45412	21408.5375
1320.96354	20721.4375
1324.47058	19961.1375
1327.97525	19234.4375
1331.47754	18722.6375
1334.97747	18511.0375
1338.47502	18568.2375
1341.97022	18901.2375
1345.46305	19348.4375
1348.95352	20074.6375
1352.44163	21011.9375
1355.92738	22242.1375
1359.41078	23702.2375
1362.89183	24800.9375
1366.37053	24025.9375
1369.84688	21499.2375
1373.32088	19034.4375
1376.79254	17488.4375
1380.26186	16680.8375
1383.72883	16309.7375
1387.19347	16010.7375
1390.65578	15688.9375
1394.11575	15397.2375
1397.57339	15216.0375
1401.0287	15121.3375
1404.48168	15100.3375
1407.93234	14994.6375
1411.38068	14897.7375
1414.82669	14700.8375
1418.27039	14450.4375
1421.71177	14215.9375
1425.15083	14001.6375
1428.58758	13897.5375
1432.02203	13973.7375
1435.45416	14187.2375
1438.88399	14466.6375
1442.31151	14732.4375
1445.73673	15061.8375
1449.15965	15442.1375
1452.58027	15814.3375
1455.9986	16168.7375
1459.41463	16561.5375
1462.82837	16983.4375
1466.23982	17361.1375
1469.64898	17541.8375
1473.05586	17587.7375
1476.46045	17486.0375
1479.86276	17228.3375
1483.26279	16980.8375
1486.66054	16759.5375
1490.05602	16704.2375
1493.44922	16794.7375
1496.84016	17159.0375
1500.22882	17915.5375
1503.61521	19077.4375
1506.99934	20307.0375
1510.38121	21252.2375
1513.76081	21350.5375
1517.13816	20388.0375
1520.51324	18938.0375
1523.88607	17616.7375
1527.25665	16703.8375
1530.62498	16241.0375
1533.99105	15915.6375
1537.35488	15729.4375
1540.71647	15565.0375
1544.07581	15482.5375
1547.4329	15374.0375
1550.78776	15344.7375
1554.14038	15323.0375
1557.49077	15385.8375
1560.83892	15517.3375
1564.18484	15767.5375
1567.52853	15996.5375
1570.86999	16154.2375
1574.20922	16321.7375
1577.54624	16282.9375
1580.88103	15873.2375
1584.2136	15347.2375
1587.54395	15106.1375
1590.87208	15240.4375
1594.19801	15684.9375
1597.52172	16381.6375
1600.84321	16648.2375
1604.16251	16303.1375
1607.47959	15620.1375
1610.79447	14894.9375
1614.10715	14119.4375
1617.41763	13429.1375
1620.7259	12936.2375
1624.03199	12646.6375
1627.33587	12560.1375
1630.63757	12705.3375
1633.93707	13099.9375
1637.23439	13815.3375
1640.52951	14872.3375
1643.82246	16220.4375
1647.11321	17464.1375
1650.40179	18075.8375
1653.68819	17464.5375
1656.97241	15946.0375
1660.25446	14305.5375
1663.53433	13132.3375
1666.81203	12423.0375
1670.08756	11920.9375
1673.36092	11655.5375
1676.63211	11416.9375
1679.90115	11224.9375
1683.16801	11063.5375
1686.43272	10922.6375
1689.69527	10793.0375
1692.95567	10645.4375
1696.2139	10539.9375
1699.46999	10432.8375
1702.72392	10309.8375
1705.97571	10229.4375
1709.22535	10104.5375
1712.47284	10030.0375
1715.71819	9939.6375
1718.96139	9880.6375
1722.20246	9764.1375
1725.44139	9672.7375
1728.67818	9581.2375
1731.91284	9468.8375
1735.14537	9366.2375
1738.37576	9269.4375
1741.60403	9231.7375
1744.83017	9156.8375
1748.05418	9132.7375
1751.27607	9092.1375
1754.49584	9065.2375
1757.71349	9061.6375
1760.92903	9081.8375
1764.14244	9055.6375
1767.35375	9040.0375
1770.56294	9010.3375
1773.77002	8952.7375
1776.97499	8908.0375
1780.17785	8894.0375
1783.37861	8846.8375
1786.57727	8843.4375
1789.77382	8804.7375
1792.96828	8788.3375
1796.16064	8743.7375
1799.3509	8730.6375
1802.53907	8710.6375
1805.72514	8721.4375
1808.90913	8665.2375
1812.09102	8633.5375
1815.27083	8619.3375
1818.44856	8617.5375
1821.6242	8581.2375
1824.79776	8570.9375
1827.96924	8578.7375
1831.13864	8567.9375
1834.30597	8538.3375
1837.47122	8554.1375
1840.6344	8542.6375
1843.7955	8523.6375
1846.95454	8534.9375
1850.11151	8536.0375
1853.26642	8496.9375
1856.41926	8489.6375
1859.57004	8494.1375
1862.71876	8488.4375
1865.86542	8477.9375
1869.01003	8474.9375
1872.15258	8500.0375
1875.29308	8463.8375
1878.43152	8451.6375
1881.56792	8450.2375
1884.70227	8439.0375
1887.83457	8459.8375
1890.96482	8443.0375
1894.09304	8438.1375
1897.21921	8417.6375
1900.34335	8434.1375
1903.46544	8420.0375
1906.58551	8439.0375
1909.70353	8418.0375
1912.81953	8423.8375
1915.93349	8383.4375
1919.04543	8382.8375
1922.15534	8363.3375
1925.26322	8358.6375
1928.36908	8343.8375
1931.47292	8332.2375
1934.57473	8295.6375
1937.67453	8297.8375
1940.77232	8255.9375
1943.86808	8250.1375
1946.96184	8243.0375
1950.05358	8228.7375
1953.14331	8210.9375
1956.23103	8164.7375
1959.31675	8151.8375
1962.40046	8130.4375
1965.48217	8133.2375
1968.56188	8097.2375
1971.63959	8052.5375
1974.7153	8062.9375
1977.78901	8036.0375
1980.86073	8028.2375
1983.93046	7996.0375
1986.99819	7962.1375
1990.06394	7943.7375
1993.1277	7920.6375
1996.18947	7907.1375
1999.24925	7892.2375
2002.30706	7867.5375
2005.36288	7851.4375
2008.41672	7833.2375
2011.46859	7807.0375
2014.51848	7794.1375
2017.56639	7788.6375
2020.61233	7772.8375
2023.6563	7786.5375
2026.6983	7769.6375
2029.73833	7729.9375
2032.7764	7733.7375
2035.8125	7718.9375
2038.84664	7680.9375
2041.87881	7721.0375
2044.90903	7683.9375
2047.93729	7681.3375
2050.96359	7676.5375
2053.98794	7675.3375
2057.01034	7684.5375
2060.03078	7695.5375
2063.04927	7689.3375
2066.06582	7705.2375
2069.08042	7709.0375
2072.09307	7699.6375
2075.10378	7720.7375
2078.11255	7733.1375
2081.11938	7730.3375
2084.12426	7756.2375
2087.12722	7755.0375
2090.12824	7738.4375
2093.12732	7773.9375
2096.12447	7783.0375
2099.11969	7796.5375
2102.11299	7803.9375
2105.10435	7808.6375
2108.09379	7803.9375
2111.08131	7822.1375
2114.0669	7845.7375
2117.05057	7823.3375
2120.03233	7817.9375
2123.01216	7833.7375
2125.99008	7841.2375
2128.96609	7837.0375
2131.94018	7834.3375
2134.91236	7837.0375
2137.88263	7805.4375
2140.851	7799.0375
2143.81746	7807.4375
2146.78201	7803.8375
2149.74466	7787.1375
2152.7054	7789.3375
2155.66425	7778.0375
2158.6212	7789.2375
2161.57625	7761.1375
2164.52941	7755.0375
2167.48067	7767.3375
2170.43004	7755.9375
2173.37752	7769.1375
2176.32311	7791.2375
2179.26681	7768.2375
2182.20863	7766.2375
2185.14856	7790.0375
2188.08661	7766.1375
2191.02278	7784.9375
2193.95707	7769.9375
2196.88948	7769.6375
2199.82001	7774.7375
2202.74867	7737.8375
2205.67545	7774.0375
2208.60037	7754.0375
2211.52341	7737.9375
2214.44458	7734.3375
2217.36388	7748.5375
2220.28132	7720.4375
2223.1969	7692.1375
2226.11061	7707.2375
2229.02246	7687.3375
2231.93245	7683.4375
2234.84058	7666.1375
2237.74686	7666.1375
2240.65128	7647.1375
2243.55385	7638.3375
2246.45456	7642.5375
2249.35343	7629.8375
2252.25044	7627.2375
2255.14561	7627.0375
2258.03893	7630.9375
2260.93041	7622.9375
2263.82004	7607.2375
2266.70783	7599.7375
2269.59378	7590.0375
2272.4779	7551.6375
2275.36017	7520.8375
2278.24061	7548.4375
2281.11922	7546.2375
2283.996	7527.8375
2286.87094	7474.1375
2289.74405	7470.0375
2292.61534	7464.9375
2295.4848	7472.6375
2298.35243	7470.9375
2301.21824	7473.9375
2304.08223	7488.3375
2306.94439	7502.2375
2309.80474	7472.2375
2312.66327	7488.9375
2315.51999	7479.5375
2318.37489	7486.6375
2321.22797	7459.9375
2324.07925	7484.9375
2326.92871	7468.1375
2329.77637	7469.8375
2332.62222	7457.5375
2335.46626	7446.9375
2338.3085	7441.1375
2341.14893	7438.5375
2343.98756	7452.0375
2346.8244	7448.5375
2349.65943	7453.2375
2352.49267	7476.0375
2355.32411	7466.5375
2358.15376	7458.1375
2360.98161	7463.4375
2363.80768	7481.3375
2366.63195	7466.6375
2369.45444	7462.7375
2372.27514	7455.9375
2375.09405	7451.2375
2377.91118	7428.3375
2380.72652	7417.9375
2383.54009	7406.6375
2386.35187	7435.1375
2389.16188	7405.5375
2391.97011	7379.6375
2394.77657	7358.2375
2397.58125	7364.0375
2400.38416	7358.4375
2403.18529	7356.0375
2405.98466	7323.8375
2408.78226	7317.3375
2411.57809	7333.9375
2414.37216	7297.1375
2417.16446	7328.9375
2419.955	7311.7375
2422.74378	7319.0375
2425.5308	7304.7375
2428.31606	7309.1375
2431.09956	7316.4375
2433.88131	7307.3375
2436.6613	7288.1375
2439.43954	7302.3375
2442.21603	7287.1375
2444.99077	7290.9375
2447.76377	7298.5375
2450.53501	7320.9375
2453.30451	7307.7375
2456.07226	7314.4375
2458.83827	7305.5375
2461.60254	7291.8375
2464.36507	7300.7375
2467.12586	7292.3375
2469.88492	7296.6375
2472.64224	7300.6375
2475.39782	7289.7375
2478.15167	7294.9375
2480.90379	7332.3375
2483.65417	7330.5375
2486.40283	7330.7375
2489.14976	7333.3375
2491.89497	7310.7375
2494.63845	7318.1375
2497.3802	7335.0375
2500.12024	7330.6375
2502.85855	7323.1375
2505.59514	7336.9375
2508.33002	7312.8375
2511.06318	7308.7375
2513.79462	7279.5375
2516.52435	7283.1375
2519.25237	7285.5375
2521.97867	7263.6375
2524.70327	7269.7375
2527.42616	7250.5375
2530.14734	7258.7375
2532.86681	7267.8375
2535.58458	7257.3375
2538.30065	7260.3375
2541.01501	7268.4375
2543.72768	7265.5375
2546.43864	7261.3375
2549.14791	7247.6375
2551.85548	7243.4375
2554.56136	7227.3375
2557.26554	7238.1375
2559.96803	7216.9375
2562.66883	7225.7375
2565.36794	7203.8375
2568.06536	7201.2375
2570.7611	7217.0375
2573.45514	7215.2375
2576.14751	7202.0375
2578.83819	7146.9375
2581.52719	7187.6375
2584.21451	7162.2375
2586.90015	7163.1375
2589.58411	7166.9375
2592.2664	7134.7375
2594.94701	7143.4375
2597.62594	7152.7375
2600.30321	7145.4375
2602.9788	7130.0375
2605.65273	7127.6375
2608.32498	7132.0375
2610.99557	7123.9375
2613.66449	7109.8375
2616.33175	7115.8375
2618.99734	7133.9375
2621.66128	7108.4375
2624.32355	7107.8375
2626.98416	7114.2375
2629.64311	7114.6375
2632.30041	7116.6375
2634.95605	7094.9375
2637.61004	7091.7375
2640.26238	7096.6375
2642.91306	7100.6375
2645.56209	7080.4375
2648.20948	7094.4375
2650.85521	7101.7375
2653.4993	7099.0375
2656.14175	7080.5375
2658.78255	7105.4375
2661.42171	7102.0375
2664.05923	7109.9375
2666.6951	7128.6375
2669.32934	7117.6375
2671.96194	7134.8375
2674.59291	7147.2375
2677.22224	7153.3375
2679.84993	7143.2375
2682.476	7132.3375
2685.10043	7148.5375
2687.72324	7136.9375
2690.34441	7144.9375
2692.96396	7132.4375
2695.58188	7156.7375
2698.19818	7173.4375
2700.81285	7156.7375
2703.4259	7151.2375
2706.03733	7178.2375
2708.64714	7185.9375
2711.25533	7195.8375
2713.86191	7184.3375
2716.46687	7195.2375
2719.07021	7199.0375
2721.67194	7215.6375
2724.27206	7172.4375
2726.87057	7230.6375
2729.46747	7223.9375
2732.06276	7244.0375
2734.65644	7230.7375
2737.24852	7232.2375
2739.83899	7209.2375
2742.42786	7213.9375
2745.01513	7223.1375
2747.60079	7215.0375
2750.18486	7205.5375
2752.76733	7189.0375
2755.3482	7205.9375
2757.92747	7202.1375
2760.50515	7200.5375
2763.08123	7200.3375
2765.65573	7185.0375
2768.22863	7186.8375
2770.79994	7189.5375
2773.36967	7188.1375
2775.9378	7172.3375
2778.50435	7174.9375
2781.06932	7173.9375
2783.6327	7167.3375
2786.1945	7152.8375
2788.75471	7152.7375
2791.31335	7128.6375
2793.87041	7134.8375
2796.42589	7125.5375
2798.97979	7108.8375
2801.53212	7109.3375
2804.08288	7125.7375
2806.63206	7068.4375
2809.17967	7066.2375
2811.72571	7048.0375
2814.27018	7033.5375
2816.81308	7005.5375
2819.35442	7010.1375
2821.89419	7002.1375
2824.43239	7011.2375
2826.96904	7019.6375
2829.50412	7010.7375
2832.03763	6994.4375
2834.56959	6993.4375
2837.1	6994.5375
2839.62884	6997.9375
2842.15613	6980.3375
2844.68186	7002.4375
2847.20604	7006.9375
2849.72867	7003.3375
2852.24974	7016.0375
2854.76927	6992.1375
2857.28724	7007.9375
2859.80367	6996.5375
2862.31855	6976.3375
2864.83189	6967.9375
2867.34368	6982.5375
2869.85393	7002.2375
2872.36264	6990.9375
2874.8698	6975.3375
2877.37543	6984.6375
2879.87952	7004.3375
2882.38207	7014.1375
2884.88308	7012.5375
2887.38256	7003.8375
2889.88051	7002.6375
2892.37692	7009.4375
2894.8718	7031.8375
2897.36515	7048.5375
2899.85698	7036.0375
2902.34727	7060.0375
2904.83604	7067.9375
2907.32328	7092.0375
2909.809	7105.0375
2912.29319	7096.5375
2914.77587	7106.0375
2917.25702	7113.5375
2919.73665	7108.9375
2922.21476	7142.6375
2924.69136	7133.1375
2927.16644	7133.2375
2929.64	7114.4375
2932.11205	7108.0375
2934.58258	7093.8375
2937.05161	7084.5375
2939.51912	7093.0375
2941.98513	7081.3375
2944.44962	7075.9375
2946.91261	7065.7375
2949.37409	7089.2375
2951.83407	7065.3375
2954.29254	7086.3375
2956.74951	7066.2375
2959.20498	7082.7375
2961.65895	7040.8375
2964.11142	7056.5375
2966.56239	7051.3375
2969.01186	7064.4375
2971.45984	7040.8375
2973.90632	7036.6375
2976.35131	7033.1375
2978.7948	6986.7375
2981.23681	6992.9375
2983.67732	6979.7375
2986.11635	6974.5375
2988.55388	6962.6375
2990.98993	6948.2375
2993.4245	6955.9375
2995.85758	6925.9375
2998.28917	6924.1375
3000.71928	6919.4375
3003.14791	6899.1375
3005.57506	6901.3375
3008.00073	6875.3375
3010.42493	6872.9375
3012.84764	6874.4375
3015.26888	6881.3375
3017.68865	6850.1375
3020.10694	6828.0375
3022.52376	6830.6375
3024.9391	6825.2375
3027.35298	6829.0375
3029.76539	6842.0375
3032.17632	6816.0375
3034.5858	6816.6375
3036.9938	6817.9375
3039.40034	6808.2375
3041.80542	6809.4375
3044.20903	6821.4375
3046.61118	6807.4375
3049.01187	6791.4375
3051.4111	6791.7375
3053.80888	6795.8375
3056.20519	6791.3375
3058.60005	6776.2375
3060.99345	6759.7375
3063.3854	6744.0375
3065.7759	6742.9375
3068.16494	6710.2375
3070.55254	6699.3375
3072.93868	6718.4375
3075.32338	6682.5375
3077.70662	6698.3375
3080.08842	6697.7375
3082.46878	6661.4375
