Data from AgNPs_APTES_FTO_UA_100uM_CRN_0uM_R6G_10uM_Scan_RamanShift__35__16-23-32-967.txt Node

Date: Mon Jul 11 16:23:32 BST 2022
User: TCL
Spectrometer: QEP01345
Trigger mode: 4
Integration Time (sec): 7.000000E0
Scans to average: 10
Electric dark correction enabled: true
Nonlinearity correction enabled: false
Boxcar width: 0
XAxis mode: Raman Shifts
Number of Pixels in Spectrum: 1044
>>>>>Begin Spectral Data<<<<<
46.04893	1.1125
50.45542	0.4125
54.85868	-0.3875
59.25871	-2.2875
63.6555	38.1125
68.04907	44.1125
72.43941	46.4125
76.82654	45.7125
81.21044	49.2125
85.59113	54.1125
89.96862	57.6125
94.34289	55.2125
98.71396	58.0125
103.08183	62.3125
107.4465	59.5125
111.80798	56.0125
116.16626	64.2125
120.52136	66.9125
124.87327	70.1125
129.222	74.5125
133.56755	73.3125
137.90993	84.3125
142.24913	95.5125
146.58517	98.8125
150.91804	115.6125
155.24774	139.1125
159.57429	171.7125
163.89768	220.7125
168.21792	290.9125
172.53501	391.8125
176.84895	543.8125
181.15975	757.6125
185.46741	1051.1125
189.77193	1465.7125
194.07331	1946.2125
198.37157	2510.1125
202.6667	3101.9125
206.9587	3691.2125
211.24758	4317.7125
215.53334	4949.4125
219.81599	5670.8125
224.09553	6466.1125
228.37195	7353.2125
232.64527	8284.0125
236.91549	9189.7125
241.18261	9965.4125
245.44663	10544.6125
249.70755	11039.7125
253.96539	11419.0125
258.22014	11732.3125
262.4718	11987.5125
266.72039	12090.4125
270.96589	12071.7125
275.20832	11875.1125
279.44768	11576.3125
283.68397	11269.9125
287.91719	11120.5125
292.14735	11239.3125
296.37445	11675.1125
300.59849	12396.0125
304.81948	13148.6125
309.03742	13698.3125
313.25231	13593.3125
317.46415	12741.6125
321.67296	11511.2125
325.87872	10535.5125
330.08145	10115.7125
334.28114	10163.9125
338.47781	10420.2125
342.67145	10808.7125
346.86207	11495.4125
351.04966	12448.6125
355.23424	13469.5125
359.4158	14168.8125
363.59435	14477.7125
367.76989	14542.0125
371.94243	14509.7125
376.11196	14439.4125
380.27849	14294.2125
384.44203	14092.9125
388.60257	13762.6125
392.76012	13620.0125
396.91468	13743.9125
401.06626	14102.4125
405.21485	14244.0125
409.36047	13672.1125
413.50311	12613.5125
417.64277	11725.6125
421.77947	11191.6125
425.9132	10880.0125
430.04396	10816.7125
434.17176	10870.9125
438.2966	11113.8125
442.41849	11455.3125
446.53742	11865.1125
450.6534	12166.5125
454.76644	12318.0125
458.87653	12287.0125
462.98368	12096.8125
467.08789	11875.9125
471.18916	11536.7125
475.2875	11215.0125
479.38291	11000.6125
483.4754	10866.2125
487.56496	10856.2125
491.6516	10863.4125
495.73531	10915.6125
499.81612	10885.2125
503.89401	11003.0125
507.96899	11214.0125
512.04106	11494.4125
516.11023	11926.2125
520.1765	12224.9125
524.23987	12249.8125
528.30034	12028.7125
532.35792	11788.9125
536.41261	11502.0125
540.46441	11088.8125
544.51333	10845.1125
548.55936	10829.2125
552.60252	11043.0125
556.64279	11264.7125
560.6802	11415.3125
564.71473	11719.5125
568.7464	12355.0125
572.7752	12414.9125
576.80114	11631.4125
580.82422	10975.9125
584.84444	10826.8125
588.86181	10905.7125
592.87633	11120.0125
596.888	11415.8125
600.89682	12162.4125
604.9028	14703.9125
608.90594	20967.0125
612.90624	27482.2125
616.90371	24421.2125
620.89834	16149.8125
624.89015	13197.2125
628.87913	13092.4125
632.86528	13710.6125
636.84862	14067.8125
640.82913	13563.5125
644.80683	12498.1125
648.78172	11663.8125
652.75379	11475.9125
656.72306	11893.8125
660.68952	12309.7125
664.65319	11824.4125
668.61405	11030.6125
672.57211	10720.1125
676.52738	10712.0125
680.47986	10716.4125
684.42955	10724.2125
688.37646	10769.3125
692.32058	10828.7125
696.26192	10865.5125
700.20048	10924.5125
704.13626	10884.6125
708.06928	10674.1125
711.99952	10521.7125
715.927	10510.3125
719.85171	10690.3125
723.77365	10828.1125
727.69284	10876.7125
731.60928	10763.6125
735.52295	10668.1125
739.43388	10581.5125
743.34206	10604.4125
747.24749	10590.4125
751.15017	10613.7125
755.05012	10888.6125
758.94733	11741.3125
762.8418	13772.3125
766.73354	16888.3125
770.62254	19749.5125
774.50882	21136.4125
778.39237	19825.6125
782.27321	16416.1125
786.15132	13319.6125
790.02671	11692.6125
793.89938	11033.6125
797.76935	10781.4125
801.6366	10832.4125
805.50115	11015.9125
809.36299	11246.6125
813.22213	11283.6125
817.07857	11138.8125
820.93231	10932.4125
824.78336	10749.0125
828.63172	10604.1125
832.47738	10518.1125
836.32036	10429.8125
840.16066	10323.1125
843.99827	10269.0125
847.8332	10219.2125
851.66546	10212.2125
855.49504	10190.1125
859.32195	10159.3125
863.1462	10135.5125
866.96777	10158.8125
870.78668	10272.3125
874.60293	10480.3125
878.41652	10745.7125
882.22745	11062.6125
886.03573	11229.6125
889.84136	11219.5125
893.64433	11009.7125
897.44466	10771.0125
901.24235	10503.7125
905.0374	10270.4125
908.8298	10042.9125
912.61957	9898.4125
916.40671	9852.0125
920.19121	9909.2125
923.97308	9999.3125
927.75233	10258.9125
931.52895	10477.1125
935.30295	10360.5125
939.07433	9938.2125
942.84309	9621.0125
946.60924	9457.0125
950.37278	9369.7125
954.13371	9335.1125
957.89203	9290.2125
961.64774	9288.4125
965.40086	9222.9125
969.15137	9176.8125
972.89929	9140.6125
976.64461	9138.4125
980.38733	9152.4125
984.12747	9141.9125
987.86502	9230.9125
991.59999	9320.4125
995.33237	9524.2125
999.06217	9831.2125
1002.78939	10223.8125
1006.51404	10562.6125
1010.23611	10865.0125
1013.95561	11036.4125
1017.67255	11096.7125
1021.38692	10971.9125
1025.09872	10765.3125
1028.80796	10669.4125
1032.51465	10707.3125
1036.21877	10772.1125
1039.92035	10704.5125
1043.61937	10625.8125
1047.31584	10431.1125
1051.00976	10283.2125
1054.70114	10173.0125
1058.38998	10143.4125
1062.07627	10196.4125
1065.76003	10226.3125
1069.44126	10306.4125
1073.11995	10426.9125
1076.79611	10611.7125
1080.46974	10954.1125
1084.14085	11359.6125
1087.80943	11687.8125
1091.47549	11728.6125
1095.13903	11343.3125
1098.80005	10811.7125
1102.45857	10477.9125
1106.11456	10522.0125
1109.76805	10794.7125
1113.41903	11361.9125
1117.06751	12170.8125
1120.71348	13216.9125
1124.35696	14379.5125
1127.99793	15282.9125
1131.63641	15155.7125
1135.2724	14329.8125
1138.90589	13502.7125
1142.5369	12825.2125
1146.16542	12155.4125
1149.79145	11613.0125
1153.415	11232.6125
1157.03607	11096.1125
1160.65467	11169.6125
1164.27079	11555.6125
1167.88443	12275.6125
1171.49561	13467.6125
1175.10432	15508.0125
1178.71056	18279.2125
1182.31434	20467.5125
1185.91565	20961.1125
1189.51451	20030.8125
1193.11091	18439.9125
1196.70485	16974.0125
1200.29634	16141.1125
1203.88538	15410.9125
1207.47197	14394.3125
1211.05612	13369.9125
1214.63782	12612.6125
1218.21708	12120.0125
1221.79391	11870.9125
1225.36829	11738.6125
1228.94024	11574.5125
1232.50976	11459.2125
1236.07685	11451.2125
1239.6415	11539.1125
1243.20374	11652.9125
1246.76355	11786.4125
1250.32093	11979.6125
1253.8759	12270.0125
1257.42845	12701.7125
1260.97859	13162.4125
1264.52631	13653.4125
1268.07163	14092.6125
1271.61453	14426.5125
1275.15503	14611.7125
1278.69312	14683.2125
1282.22882	14795.7125
1285.76211	15231.1125
1289.29301	15902.4125
1292.82151	16549.5125
1296.34761	17351.5125
1299.87133	18665.7125
1303.39266	20989.4125
1306.9116	24446.8125
1310.42815	27709.8125
1313.94233	28484.2125
1317.45412	26336.7125
1320.96354	23205.6125
1324.47058	20400.4125
1327.97525	18345.8125
1331.47754	17281.2125
1334.97747	17111.4125
1338.47502	17538.2125
1341.97022	18627.5125
1345.46305	20276.3125
1348.95352	22514.7125
1352.44163	25249.4125
1355.92738	29181.0125
1359.41078	34880.9125
1362.89183	38963.4125
1366.37053	36058.4125
1369.84688	28788.6125
1373.32088	22801.3125
1376.79254	19233.4125
1380.26186	17348.0125
1383.72883	16248.3125
1387.19347	15440.3125
1390.65578	14599.0125
1394.11575	13955.0125
1397.57339	13573.1125
1401.0287	13452.8125
1404.48168	13408.7125
1407.93234	13467.8125
1411.38068	13599.3125
1414.82669	13705.2125
1418.27039	13705.0125
1421.71177	13496.4125
1425.15083	13282.8125
1428.58758	13269.6125
1432.02203	13498.0125
1435.45416	13718.2125
1438.88399	13783.1125
1442.31151	13781.3125
1445.73673	13914.8125
1449.15965	14054.7125
1452.58027	14056.9125
1455.9986	13987.9125
1459.41463	13932.6125
1462.82837	14103.2125
1466.23982	14432.7125
1469.64898	14730.3125
1473.05586	14906.7125
1476.46045	14980.2125
1479.86276	15178.7125
1483.26279	15533.4125
1486.66054	16068.0125
1490.05602	16864.0125
1493.44922	18113.9125
1496.84016	20091.6125
1500.22882	23215.8125
1503.61521	27582.3125
1506.99934	32329.1125
1510.38121	35668.9125
1513.76081	35738.0125
1517.13816	31951.2125
1520.51324	26473.0125
1523.88607	21811.9125
1527.25665	18872.6125
1530.62498	17289.6125
1533.99105	16382.3125
1537.35488	15871.1125
1540.71647	15686.4125
1544.07581	15751.8125
1547.4329	15911.8125
1550.78776	16130.3125
1554.14038	16223.7125
1557.49077	16332.5125
1560.83892	16697.4125
1564.18484	17241.6125
1567.52853	18032.3125
1570.86999	18690.5125
1574.20922	18966.3125
1577.54624	18613.0125
1580.88103	17261.3125
1584.2136	15601.7125
1587.54395	14787.7125
1590.87208	14843.4125
1594.19801	15796.8125
1597.52172	17080.3125
1600.84321	17667.1125
1604.16251	17132.5125
1607.47959	16077.7125
1610.79447	14887.7125
1614.10715	13753.8125
1617.41763	12912.3125
1620.7259	12369.8125
1624.03199	12156.8125
1627.33587	12236.9125
1630.63757	12593.8125
1633.93707	13325.5125
1637.23439	14483.0125
1640.52951	16300.5125
1643.82246	18924.6125
1647.11321	21922.0125
1650.40179	23885.5125
1653.68819	22785.1125
1656.97241	19417.8125
1660.25446	15945.3125
1663.53433	13589.0125
1666.81203	12217.3125
1670.08756	11373.8125
1673.36092	10860.6125
1676.63211	10462.5125
1679.90115	10195.7125
1683.16801	9920.7125
1686.43272	9758.2125
1689.69527	9613.1125
1692.95567	9464.4125
1696.2139	9392.6125
1699.46999	9270.1125
1702.72392	9161.5125
1705.97571	9085.5125
1709.22535	8990.4125
1712.47284	8957.1125
1715.71819	8909.3125
1718.96139	8851.0125
1722.20246	8766.1125
1725.44139	8675.1125
1728.67818	8549.2125
1731.91284	8431.4125
1735.14537	8357.8125
1738.37576	8307.5125
1741.60403	8262.4125
1744.83017	8202.8125
1748.05418	8182.1125
1751.27607	8177.6125
1754.49584	8109.0125
1757.71349	8103.6125
1760.92903	8085.7125
1764.14244	8061.9125
1767.35375	8019.5125
1770.56294	7986.2125
1773.77002	7945.8125
1776.97499	7891.8125
1780.17785	7869.7125
1783.37861	7851.7125
1786.57727	7837.1125
1789.77382	7802.7125
1792.96828	7803.6125
1796.16064	7775.4125
1799.3509	7785.7125
1802.53907	7764.4125
1805.72514	7720.7125
1808.90913	7680.6125
1812.09102	7664.4125
1815.27083	7629.1125
1818.44856	7613.3125
1821.6242	7605.1125
1824.79776	7567.4125
1827.96924	7557.6125
1831.13864	7545.6125
1834.30597	7546.1125
1837.47122	7522.4125
1840.6344	7485.5125
1843.7955	7523.2125
1846.95454	7497.2125
1850.11151	7482.4125
1853.26642	7465.2125
1856.41926	7465.7125
1859.57004	7475.3125
1862.71876	7467.9125
1865.86542	7475.3125
1869.01003	7466.7125
1872.15258	7482.2125
1875.29308	7453.8125
1878.43152	7461.2125
1881.56792	7440.7125
1884.70227	7434.3125
1887.83457	7429.7125
1890.96482	7419.1125
1894.09304	7398.4125
1897.21921	7422.1125
1900.34335	7400.2125
1903.46544	7421.2125
1906.58551	7398.6125
1909.70353	7405.2125
1912.81953	7393.3125
1915.93349	7391.7125
1919.04543	7343.6125
1922.15534	7332.3125
1925.26322	7329.9125
1928.36908	7303.2125
1931.47292	7301.2125
1934.57473	7259.3125
1937.67453	7254.9125
1940.77232	7227.4125
1943.86808	7233.5125
1946.96184	7199.0125
1950.05358	7182.9125
1953.14331	7173.3125
1956.23103	7139.5125
1959.31675	7107.3125
1962.40046	7091.9125
1965.48217	7102.0125
1968.56188	7080.3125
1971.63959	7050.6125
1974.7153	7049.7125
1977.78901	7028.6125
1980.86073	6999.9125
1983.93046	6968.9125
1986.99819	6940.3125
1990.06394	6902.9125
1993.1277	6889.9125
1996.18947	6859.5125
1999.24925	6830.6125
2002.30706	6825.2125
2005.36288	6810.2125
2008.41672	6768.5125
2011.46859	6745.4125
2014.51848	6710.9125
2017.56639	6721.8125
2020.61233	6706.1125
2023.6563	6689.5125
2026.6983	6669.9125
2029.73833	6640.8125
2032.7764	6649.5125
2035.8125	6606.5125
2038.84664	6627.0125
2041.87881	6596.7125
2044.90903	6608.4125
2047.93729	6573.8125
2050.96359	6580.1125
2053.98794	6560.9125
2057.01034	6555.2125
2060.03078	6557.9125
2063.04927	6528.9125
2066.06582	6549.2125
2069.08042	6551.7125
2072.09307	6524.9125
2075.10378	6521.4125
2078.11255	6526.4125
2081.11938	6528.1125
2084.12426	6519.3125
2087.12722	6513.0125
2090.12824	6503.0125
2093.12732	6494.5125
2096.12447	6503.1125
2099.11969	6517.8125
2102.11299	6525.7125
2105.10435	6513.9125
2108.09379	6523.5125
2111.08131	6526.0125
2114.0669	6509.9125
2117.05057	6510.2125
2120.03233	6539.9125
2123.01216	6532.1125
2125.99008	6555.0125
2128.96609	6533.3125
2131.94018	6566.0125
2134.91236	6541.5125
2137.88263	6553.8125
2140.851	6557.2125
2143.81746	6548.9125
2146.78201	6547.5125
2149.74466	6535.9125
2152.7054	6531.2125
2155.66425	6539.9125
2158.6212	6516.8125
2161.57625	6524.0125
2164.52941	6497.3125
2167.48067	6506.2125
2170.43004	6506.5125
2173.37752	6520.6125
2176.32311	6525.4125
2179.26681	6518.1125
2182.20863	6522.9125
2185.14856	6504.2125
2188.08661	6506.2125
2191.02278	6512.8125
2193.95707	6510.7125
2196.88948	6504.6125
2199.82001	6493.8125
2202.74867	6477.4125
2205.67545	6476.9125
2208.60037	6467.2125
2211.52341	6467.7125
2214.44458	6471.1125
2217.36388	6451.7125
2220.28132	6438.0125
2223.1969	6412.9125
2226.11061	6408.0125
2229.02246	6403.3125
2231.93245	6373.7125
2234.84058	6363.3125
2237.74686	6347.4125
2240.65128	6334.6125
2243.55385	6338.9125
2246.45456	6332.0125
2249.35343	6339.1125
2252.25044	6342.6125
2255.14561	6343.0125
2258.03893	6349.7125
2260.93041	6338.6125
2263.82004	6340.7125
2266.70783	6347.5125
2269.59378	6316.8125
2272.4779	6298.1125
2275.36017	6288.9125
2278.24061	6269.8125
2281.11922	6247.4125
2283.996	6244.6125
2286.87094	6231.9125
2289.74405	6203.1125
2292.61534	6184.9125
2295.4848	6169.9125
2298.35243	6166.9125
2301.21824	6162.7125
2304.08223	6177.6125
2306.94439	6181.1125
2309.80474	6170.2125
2312.66327	6164.8125
2315.51999	6162.2125
2318.37489	6162.5125
2321.22797	6167.3125
2324.07925	6157.8125
2326.92871	6146.8125
2329.77637	6149.5125
2332.62222	6122.0125
2335.46626	6138.9125
2338.3085	6134.5125
2341.14893	6127.2125
2343.98756	6159.4125
2346.8244	6157.1125
2349.65943	6170.8125
2352.49267	6164.8125
2355.32411	6184.0125
2358.15376	6170.4125
2360.98161	6189.4125
2363.80768	6216.6125
2366.63195	6203.6125
2369.45444	6210.3125
2372.27514	6195.6125
2375.09405	6193.1125
2377.91118	6169.0125
2380.72652	6144.6125
2383.54009	6113.6125
2386.35187	6110.9125
2389.16188	6082.1125
2391.97011	6061.6125
2394.77657	6024.0125
2397.58125	6003.8125
2400.38416	5997.2125
2403.18529	5984.7125
2405.98466	5961.2125
2408.78226	5937.8125
2411.57809	5938.2125
2414.37216	5903.5125
2417.16446	5920.8125
2419.955	5920.4125
2422.74378	5894.0125
2425.5308	5905.5125
2428.31606	5906.7125
2431.09956	5909.4125
2433.88131	5895.0125
2436.6613	5915.0125
2439.43954	5898.6125
2442.21603	5917.1125
2444.99077	5901.2125
2447.76377	5917.1125
2450.53501	5915.9125
2453.30451	5911.5125
2456.07226	5917.5125
2458.83827	5911.3125
2461.60254	5897.8125
2464.36507	5887.6125
2467.12586	5893.7125
2469.88492	5885.4125
2472.64224	5907.9125
2475.39782	5906.3125
2478.15167	5915.4125
2480.90379	5928.8125
2483.65417	5923.0125
2486.40283	5952.6125
2489.14976	5958.1125
2491.89497	5964.6125
2494.63845	5977.0125
2497.3802	5979.0125
2500.12024	5973.4125
2502.85855	5964.5125
2505.59514	5921.8125
2508.33002	5902.3125
2511.06318	5880.6125
2513.79462	5845.6125
2516.52435	5839.5125
2519.25237	5821.1125
2521.97867	5777.6125
2524.70327	5777.4125
2527.42616	5744.5125
2530.14734	5738.9125
2532.86681	5761.6125
2535.58458	5771.9125
2538.30065	5745.4125
2541.01501	5769.1125
2543.72768	5769.0125
2546.43864	5761.7125
2549.14791	5755.0125
2551.85548	5758.3125
2554.56136	5750.5125
2557.26554	5730.5125
2559.96803	5737.7125
2562.66883	5722.4125
2565.36794	5713.3125
2568.06536	5718.4125
2570.7611	5690.8125
2573.45514	5697.9125
2576.14751	5696.5125
2578.83819	5662.7125
2581.52719	5672.8125
2584.21451	5646.8125
2586.90015	5638.1125
2589.58411	5630.3125
2592.2664	5638.9125
2594.94701	5638.9125
2597.62594	5654.2125
2600.30321	5626.8125
2602.9788	5625.5125
2605.65273	5616.8125
2608.32498	5626.6125
2610.99557	5612.8125
2613.66449	5617.6125
2616.33175	5618.1125
2618.99734	5628.6125
2621.66128	5624.9125
2624.32355	5609.0125
2626.98416	5599.4125
2629.64311	5589.0125
2632.30041	5603.6125
2634.95605	5577.7125
2637.61004	5575.5125
2640.26238	5551.7125
2642.91306	5555.0125
2645.56209	5539.0125
2648.20948	5535.6125
2650.85521	5527.1125
2653.4993	5522.9125
2656.14175	5514.0125
2658.78255	5511.2125
2661.42171	5547.4125
2664.05923	5563.7125
2666.6951	5577.2125
2669.32934	5564.9125
2671.96194	5564.8125
2674.59291	5586.3125
2677.22224	5573.2125
2679.84993	5594.2125
2682.476	5581.4125
2685.10043	5576.3125
2687.72324	5562.4125
2690.34441	5551.7125
2692.96396	5560.9125
2695.58188	5581.1125
2698.19818	5569.4125
2700.81285	5557.8125
2703.4259	5557.6125
2706.03733	5576.3125
2708.64714	5586.3125
2711.25533	5604.4125
2713.86191	5578.2125
2716.46687	5595.7125
2719.07021	5601.0125
2721.67194	5591.8125
2724.27206	5597.5125
2726.87057	5596.3125
2729.46747	5585.1125
2732.06276	5578.1125
2734.65644	5574.3125
2737.24852	5589.8125
2739.83899	5552.7125
2742.42786	5555.4125
2745.01513	5548.0125
2747.60079	5543.9125
2750.18486	5529.7125
2752.76733	5537.2125
2755.3482	5514.5125
2757.92747	5506.7125
2760.50515	5508.9125
2763.08123	5511.6125
2765.65573	5511.1125
2768.22863	5469.7125
2770.79994	5472.4125
2773.36967	5483.1125
2775.9378	5499.2125
2778.50435	5485.9125
2781.06932	5484.6125
2783.6327	5491.2125
2786.1945	5472.2125
2788.75471	5462.4125
2791.31335	5464.8125
2793.87041	5472.9125
2796.42589	5463.6125
2798.97979	5452.5125
2801.53212	5444.4125
2804.08288	5444.6125
2806.63206	5434.2125
2809.17967	5426.5125
2811.72571	5430.6125
2814.27018	5436.2125
2816.81308	5430.2125
2819.35442	5425.4125
2821.89419	5435.2125
2824.43239	5447.7125
2826.96904	5457.6125
2829.50412	5477.5125
2832.03763	5446.0125
2834.56959	5446.9125
2837.1	5442.1125
2839.62884	5467.1125
2842.15613	5448.1125
2844.68186	5453.6125
2847.20604	5469.6125
2849.72867	5496.7125
2852.24974	5524.2125
2854.76927	5496.2125
2857.28724	5511.6125
2859.80367	5513.5125
2862.31855	5512.1125
2864.83189	5507.5125
2867.34368	5517.1125
2869.85393	5520.4125
2872.36264	5508.1125
2874.8698	5520.9125
2877.37543	5511.3125
2879.87952	5520.2125
2882.38207	5513.6125
2884.88308	5504.3125
2887.38256	5498.6125
2889.88051	5482.3125
2892.37692	5499.4125
2894.8718	5500.1125
2897.36515	5509.2125
2899.85698	5514.0125
2902.34727	5493.9125
2904.83604	5512.6125
2907.32328	5521.7125
2909.809	5533.3125
2912.29319	5518.4125
2914.77587	5511.2125
2917.25702	5520.2125
2919.73665	5508.9125
2922.21476	5519.5125
2924.69136	5496.5125
2927.16644	5492.6125
2929.64	5474.3125
2932.11205	5452.7125
2934.58258	5433.4125
2937.05161	5457.5125
2939.51912	5446.9125
2941.98513	5430.1125
2944.44962	5397.8125
2946.91261	5384.6125
2949.37409	5384.7125
2951.83407	5392.3125
2954.29254	5369.4125
2956.74951	5372.0125
2959.20498	5366.9125
2961.65895	5364.5125
2964.11142	5352.6125
2966.56239	5343.0125
2969.01186	5348.7125
2971.45984	5331.9125
2973.90632	5331.2125
2976.35131	5303.7125
2978.7948	5296.6125
2981.23681	5285.6125
2983.67732	5279.4125
2986.11635	5268.1125
2988.55388	5262.7125
2990.98993	5236.3125
2993.4245	5234.5125
2995.85758	5235.1125
2998.28917	5222.3125
3000.71928	5216.7125
3003.14791	5205.5125
3005.57506	5204.0125
3008.00073	5186.4125
3010.42493	5186.7125
3012.84764	5196.4125
3015.26888	5185.0125
3017.68865	5168.1125
3020.10694	5173.8125
3022.52376	5165.2125
3024.9391	5156.7125
3027.35298	5151.4125
3029.76539	5137.7125
3032.17632	5147.4125
3034.5858	5123.6125
3036.9938	5113.5125
3039.40034	5108.6125
3041.80542	5117.7125
3044.20903	5082.3125
3046.61118	5090.5125
3049.01187	5086.8125
3051.4111	5083.6125
3053.80888	5079.7125
3056.20519	5069.5125
3058.60005	5045.8125
3060.99345	5044.8125
3063.3854	5032.5125
3065.7759	5023.8125
3068.16494	5000.8125
3070.55254	5001.6125
3072.93868	4983.5125
3075.32338	4982.3125
3077.70662	4980.6125
3080.08842	4954.0125
3082.46878	4948.7125
3084.84769	4945.2125
