Data from AgNPs_APTES_FTO_UA_100uM_CRN_0uM_R6G_10uM_Scan_RamanShift__17__16-02-32-946.txt Node

Date: Mon Jul 11 16:02:32 BST 2022
User: TCL
Spectrometer: QEP01345
Trigger mode: 4
Integration Time (sec): 7.000000E0
Scans to average: 10
Electric dark correction enabled: true
Nonlinearity correction enabled: false
Boxcar width: 0
XAxis mode: Raman Shifts
Number of Pixels in Spectrum: 1044
>>>>>Begin Spectral Data<<<<<
46.04893	-0.675
50.45542	-0.175
54.85868	0.425
59.25871	-2.175
63.6555	36.125
68.04907	39.525
72.43941	39.225
76.82654	44.525
81.21044	51.225
85.59113	51.225
89.96862	51.125
94.34289	53.425
98.71396	55.725
103.08183	56.425
107.4465	61.825
111.80798	56.325
116.16626	59.025
120.52136	61.525
124.87327	65.225
129.222	68.125
133.56755	71.825
137.90993	77.825
142.24913	85.125
146.58517	92.725
150.91804	106.725
155.24774	126.625
159.57429	154.225
163.89768	197.025
168.21792	257.425
172.53501	347.425
176.84895	487.425
181.15975	667.825
185.46741	933.025
189.77193	1277.725
194.07331	1726.825
198.37157	2208.725
202.6667	2734.125
206.9587	3240.125
211.24758	3758.425
215.53334	4265.325
219.81599	4832.625
224.09553	5427.825
228.37195	6091.625
232.64527	6825.825
236.91549	7577.525
241.18261	8318.425
245.44663	8933.225
249.70755	9454.625
253.96539	9847.925
258.22014	10160.925
262.4718	10393.425
266.72039	10503.225
270.96589	10513.325
275.20832	10438.825
279.44768	10248.525
283.68397	10022.325
287.91719	9878.725
292.14735	9819.125
296.37445	9837.425
300.59849	9942.225
304.81948	10048.125
309.03742	10094.225
313.25231	9940.425
317.46415	9653.825
321.67296	9308.625
325.87872	9039.625
330.08145	8964.625
334.28114	8967.825
338.47781	9056.025
342.67145	9182.125
346.86207	9417.625
351.04966	9717.925
355.23424	10012.025
359.4158	10288.025
363.59435	10509.625
367.76989	10630.125
371.94243	10760.025
376.11196	10839.925
380.27849	10907.925
384.44203	10953.225
388.60257	11026.125
392.76012	11067.725
396.91468	11190.725
401.06626	11347.225
405.21485	11461.825
409.36047	11330.425
413.50311	11038.025
417.64277	10820.225
421.77947	10667.925
425.9132	10503.525
430.04396	10515.825
434.17176	10536.325
438.2966	10668.725
442.41849	10864.925
446.53742	11113.325
450.6534	11325.525
454.76644	11484.325
458.87653	11567.825
462.98368	11564.325
467.08789	11477.925
471.18916	11384.525
475.2875	11259.225
479.38291	11179.825
483.4754	11124.125
487.56496	11105.425
491.6516	11038.325
495.73531	11075.425
499.81612	11084.225
503.89401	11144.525
507.96899	11212.025
512.04106	11249.125
516.11023	11319.425
520.1765	11369.925
524.23987	11351.625
528.30034	11325.425
532.35792	11334.525
536.41261	11277.125
540.46441	11175.125
544.51333	11056.625
548.55936	11022.025
552.60252	11087.125
556.64279	11162.325
560.6802	11200.925
564.71473	11236.625
568.7464	11370.625
572.7752	11428.925
576.80114	11338.025
580.82422	11314.125
584.84444	11337.325
588.86181	11442.325
592.87633	11539.125
596.888	11665.125
600.89682	11944.225
604.9028	12894.025
608.90594	15059.925
612.90624	17196.225
616.90371	15849.825
620.89834	12834.325
624.89015	11759.425
628.87913	11770.525
632.86528	12079.725
636.84862	12356.725
640.82913	12231.825
644.80683	11802.625
648.78172	11430.325
652.75379	11370.325
656.72306	11508.625
660.68952	11747.225
664.65319	11688.525
668.61405	11612.525
672.57211	11873.425
676.52738	12228.325
680.47986	12648.125
684.42955	13176.525
688.37646	13494.925
692.32058	13427.125
696.26192	13035.725
700.20048	12637.425
704.13626	12402.225
708.06928	12156.225
711.99952	11867.625
715.927	11601.925
719.85171	11386.625
723.77365	11291.025
727.69284	11229.325
731.60928	11202.825
735.52295	11200.925
739.43388	11146.025
743.34206	11106.725
747.24749	11042.025
751.15017	10962.725
755.05012	11011.125
758.94733	11267.425
762.8418	12001.025
766.73354	13240.225
770.62254	14622.425
774.50882	15327.025
778.39237	14756.625
782.27321	13400.725
786.15132	12187.025
790.02671	11461.125
793.89938	11114.625
797.76935	10961.925
801.6366	10893.525
805.50115	10888.025
809.36299	10861.725
813.22213	10804.325
817.07857	10694.025
820.93231	10650.025
824.78336	10553.925
828.63172	10538.625
832.47738	10512.825
836.32036	10486.325
840.16066	10479.425
843.99827	10521.025
847.8332	10540.025
851.66546	10542.325
855.49504	10574.625
859.32195	10593.925
863.1462	10616.425
866.96777	10604.625
870.78668	10588.225
874.60293	10642.125
878.41652	10668.625
882.22745	10737.325
886.03573	10790.325
889.84136	10785.325
893.64433	10710.825
897.44466	10555.625
901.24235	10441.625
905.0374	10317.325
908.8298	10206.425
912.61957	10133.825
916.40671	10172.525
920.19121	10230.925
923.97308	10316.825
927.75233	10380.525
931.52895	10413.625
935.30295	10369.825
939.07433	10258.925
942.84309	10197.325
946.60924	10151.125
950.37278	10197.225
954.13371	10183.025
957.89203	10161.125
961.64774	10115.325
965.40086	10047.625
969.15137	9954.425
972.89929	9856.225
976.64461	9822.025
980.38733	9813.125
984.12747	9826.225
987.86502	9859.125
991.59999	9916.725
995.33237	10031.125
999.06217	10227.425
1002.78939	10445.825
1006.51404	10670.225
1010.23611	10852.225
1013.95561	11022.625
1017.67255	11086.225
1021.38692	11036.225
1025.09872	10904.425
1028.80796	10798.925
1032.51465	10824.225
1036.21877	10863.325
1039.92035	10889.325
1043.61937	10854.825
1047.31584	10734.125
1051.00976	10664.625
1054.70114	10622.325
1058.38998	10602.825
1062.07627	10687.925
1065.76003	10737.525
1069.44126	10825.925
1073.11995	10947.525
1076.79611	11042.525
1080.46974	11090.125
1084.14085	11162.625
1087.80943	11281.625
1091.47549	11333.325
1095.13903	11258.325
1098.80005	11129.725
1102.45857	11001.825
1106.11456	10922.825
1109.76805	10993.325
1113.41903	11157.225
1117.06751	11368.725
1120.71348	11691.725
1124.35696	12103.625
1127.99793	12532.025
1131.63641	12748.925
1135.2724	12675.925
1138.90589	12454.125
1142.5369	12190.925
1146.16542	11877.425
1149.79145	11556.825
1153.415	11379.025
1157.03607	11323.725
1160.65467	11450.225
1164.27079	11787.625
1167.88443	12274.325
1171.49561	12928.925
1175.10432	13877.125
1178.71056	15162.225
1182.31434	16268.625
1185.91565	16799.925
1189.51451	16758.225
1193.11091	16319.825
1196.70485	15622.325
1200.29634	14946.525
1203.88538	14358.125
1207.47197	13706.925
1211.05612	13096.325
1214.63782	12669.725
1218.21708	12414.125
1221.79391	12303.225
1225.36829	12275.525
1228.94024	12184.425
1232.50976	12111.725
1236.07685	12047.325
1239.6415	12024.425
1243.20374	12093.225
1246.76355	12177.125
1250.32093	12340.525
1253.8759	12561.925
1257.42845	12826.325
1260.97859	13170.625
1264.52631	13480.325
1268.07163	13793.225
1271.61453	14112.825
1275.15503	14456.325
1278.69312	14691.825
1282.22882	14892.125
1285.76211	15187.925
1289.29301	15564.725
1292.82151	16089.325
1296.34761	16695.825
1299.87133	17512.925
1303.39266	18525.425
1306.9116	19751.825
1310.42815	20991.425
1313.94233	21485.625
1317.45412	21141.225
1320.96354	20296.625
1324.47058	19415.925
1327.97525	18609.325
1331.47754	18043.325
1334.97747	17875.125
1338.47502	17949.225
1341.97022	18249.125
1345.46305	18767.025
1348.95352	19537.725
1352.44163	20649.625
1355.92738	22040.225
1359.41078	23753.925
1362.89183	25104.725
1366.37053	24213.825
1369.84688	21398.425
1373.32088	18734.125
1376.79254	17086.725
1380.26186	16244.125
1383.72883	15786.525
1387.19347	15478.925
1390.65578	15172.225
1394.11575	14900.325
1397.57339	14766.425
1401.0287	14689.125
1404.48168	14685.525
1407.93234	14614.925
1411.38068	14504.225
1414.82669	14338.525
1418.27039	14126.825
1421.71177	13876.725
1425.15083	13681.025
1428.58758	13490.425
1432.02203	13548.925
1435.45416	13744.425
1438.88399	13980.425
1442.31151	14228.625
1445.73673	14502.425
1449.15965	14837.625
1452.58027	15183.825
1455.9986	15492.325
1459.41463	15805.925
1462.82837	16148.925
1466.23982	16502.925
1469.64898	16701.825
1473.05586	16788.225
1476.46045	16723.025
1479.86276	16535.925
1483.26279	16368.225
1486.66054	16247.225
1490.05602	16267.025
1493.44922	16401.625
1496.84016	16846.325
1500.22882	17671.225
1503.61521	18914.825
1506.99934	20314.825
1510.38121	21339.725
1513.76081	21409.125
1517.13816	20366.325
1520.51324	18702.225
1523.88607	17224.225
1527.25665	16250.425
1530.62498	15693.125
1533.99105	15361.925
1537.35488	15153.825
1540.71647	14991.125
1544.07581	14914.725
1547.4329	14845.825
1550.78776	14791.525
1554.14038	14844.325
1557.49077	14968.625
1560.83892	15093.225
1564.18484	15297.625
1567.52853	15558.725
1570.86999	15722.925
1574.20922	15914.725
1577.54624	15860.725
1580.88103	15431.925
1584.2136	14912.525
1587.54395	14636.825
1590.87208	14757.525
1594.19801	15291.825
1597.52172	16044.325
1600.84321	16344.025
1604.16251	16025.225
1607.47959	15323.725
1610.79447	14549.225
1614.10715	13792.725
1617.41763	13110.025
1620.7259	12605.225
1624.03199	12333.025
1627.33587	12281.725
1630.63757	12448.225
1633.93707	12880.825
1637.23439	13583.725
1640.52951	14588.225
1643.82246	15890.725
1647.11321	17191.725
1650.40179	17798.525
1653.68819	17208.725
1656.97241	15655.625
1660.25446	13986.225
1663.53433	12796.125
1666.81203	12061.025
1670.08756	11598.925
1673.36092	11299.825
1676.63211	11098.125
1679.90115	10912.425
1683.16801	10725.125
1686.43272	10605.925
1689.69527	10493.325
1692.95567	10361.325
1696.2139	10245.625
1699.46999	10147.525
1702.72392	10031.425
1705.97571	9910.925
1709.22535	9802.725
1712.47284	9731.925
1715.71819	9653.825
1718.96139	9537.225
1722.20246	9459.125
1725.44139	9346.125
1728.67818	9229.725
1731.91284	9143.725
1735.14537	9050.425
1738.37576	8992.225
1741.60403	8918.225
1744.83017	8887.825
1748.05418	8828.525
1751.27607	8847.725
1754.49584	8781.125
1757.71349	8816.125
1760.92903	8823.925
1764.14244	8807.925
1767.35375	8800.625
1770.56294	8738.125
1773.77002	8669.325
1776.97499	8643.525
1780.17785	8609.225
1783.37861	8568.625
1786.57727	8521.425
1789.77382	8521.525
1792.96828	8474.625
1796.16064	8485.825
1799.3509	8478.125
1802.53907	8447.325
1805.72514	8421.125
1808.90913	8408.325
1812.09102	8369.425
1815.27083	8350.825
1818.44856	8333.225
1821.6242	8327.125
1824.79776	8325.325
1827.96924	8296.125
1831.13864	8298.625
1834.30597	8291.725
1837.47122	8268.325
1840.6344	8247.325
1843.7955	8249.825
1846.95454	8263.525
1850.11151	8255.825
1853.26642	8254.425
1856.41926	8234.425
1859.57004	8237.825
1862.71876	8229.325
1865.86542	8211.925
1869.01003	8221.725
1872.15258	8246.725
1875.29308	8223.925
1878.43152	8195.625
1881.56792	8206.525
1884.70227	8188.425
1887.83457	8196.725
1890.96482	8164.325
1894.09304	8157.725
1897.21921	8177.425
1900.34335	8167.125
1903.46544	8144.825
1906.58551	8147.825
1909.70353	8154.325
1912.81953	8142.425
1915.93349	8125.825
1919.04543	8122.325
1922.15534	8100.825
1925.26322	8112.425
1928.36908	8069.725
1931.47292	8056.525
1934.57473	8052.825
1937.67453	8027.225
1940.77232	8024.925
1943.86808	8014.525
1946.96184	7990.525
1950.05358	7966.725
1953.14331	7971.725
1956.23103	7935.025
1959.31675	7907.425
1962.40046	7884.925
1965.48217	7882.025
1968.56188	7844.525
1971.63959	7819.025
1974.7153	7833.625
1977.78901	7804.525
1980.86073	7791.425
1983.93046	7762.525
1986.99819	7744.025
1990.06394	7709.425
1993.1277	7702.825
1996.18947	7674.625
1999.24925	7662.525
2002.30706	7634.625
2005.36288	7613.925
2008.41672	7605.525
2011.46859	7562.425
2014.51848	7574.325
2017.56639	7548.425
2020.61233	7527.425
2023.6563	7537.725
2026.6983	7512.025
2029.73833	7514.125
2032.7764	7511.725
2035.8125	7488.425
2038.84664	7470.025
2041.87881	7470.925
2044.90903	7475.125
2047.93729	7456.125
2050.96359	7461.525
2053.98794	7469.225
2057.01034	7449.925
2060.03078	7443.825
2063.04927	7450.625
2066.06582	7474.825
2069.08042	7452.525
2072.09307	7464.125
2075.10378	7440.825
2078.11255	7461.625
2081.11938	7453.325
2084.12426	7494.725
2087.12722	7468.425
2090.12824	7474.625
2093.12732	7497.025
2096.12447	7500.825
2099.11969	7507.525
2102.11299	7516.225
2105.10435	7525.325
2108.09379	7532.525
2111.08131	7545.425
2114.0669	7533.125
2117.05057	7539.825
2120.03233	7539.425
2123.01216	7551.825
2125.99008	7551.525
2128.96609	7552.425
2131.94018	7563.825
2134.91236	7560.725
2137.88263	7539.625
2140.851	7532.525
2143.81746	7555.325
2146.78201	7542.025
2149.74466	7578.225
2152.7054	7534.725
2155.66425	7523.025
2158.6212	7537.525
2161.57625	7533.725
2164.52941	7511.625
2167.48067	7547.025
2170.43004	7549.025
2173.37752	7555.525
2176.32311	7547.725
2179.26681	7564.325
2182.20863	7549.925
2185.14856	7569.925
2188.08661	7557.325
2191.02278	7561.625
2193.95707	7554.025
2196.88948	7549.325
2199.82001	7545.325
2202.74867	7553.125
2205.67545	7564.225
2208.60037	7550.525
2211.52341	7526.725
2214.44458	7528.525
2217.36388	7518.825
2220.28132	7506.725
2223.1969	7502.925
2226.11061	7489.925
2229.02246	7485.125
2231.93245	7467.025
2234.84058	7437.825
2237.74686	7452.025
2240.65128	7439.925
2243.55385	7454.525
2246.45456	7437.325
2249.35343	7442.325
2252.25044	7427.325
2255.14561	7429.525
2258.03893	7430.725
2260.93041	7431.025
2263.82004	7432.525
2266.70783	7401.425
2269.59378	7383.125
2272.4779	7368.125
2275.36017	7356.125
2278.24061	7359.425
2281.11922	7347.325
2283.996	7318.425
2286.87094	7292.525
2289.74405	7295.625
2292.61534	7276.125
2295.4848	7275.425
2298.35243	7293.925
2301.21824	7270.825
2304.08223	7299.225
2306.94439	7299.625
2309.80474	7292.825
2312.66327	7288.825
2315.51999	7301.325
2318.37489	7289.825
2321.22797	7277.825
2324.07925	7284.925
2326.92871	7280.025
2329.77637	7290.325
2332.62222	7278.925
2335.46626	7276.325
2338.3085	7274.925
2341.14893	7278.825
2343.98756	7277.925
2346.8244	7287.125
2349.65943	7273.625
2352.49267	7297.525
2355.32411	7260.525
2358.15376	7279.225
2360.98161	7300.925
2363.80768	7291.225
2366.63195	7280.425
2369.45444	7292.225
2372.27514	7300.825
2375.09405	7298.025
2377.91118	7269.325
2380.72652	7235.625
2383.54009	7232.925
2386.35187	7242.625
2389.16188	7221.125
2391.97011	7199.725
2394.77657	7197.325
2397.58125	7197.025
2400.38416	7195.725
2403.18529	7162.325
2405.98466	7153.725
2408.78226	7135.725
2411.57809	7135.425
2414.37216	7145.425
2417.16446	7152.925
2419.955	7137.425
2422.74378	7134.025
2425.5308	7127.525
2428.31606	7114.025
2431.09956	7142.025
2433.88131	7117.325
2436.6613	7124.025
2439.43954	7113.625
2442.21603	7123.125
2444.99077	7097.725
2447.76377	7111.025
2450.53501	7130.425
2453.30451	7123.525
2456.07226	7129.325
2458.83827	7135.625
2461.60254	7103.125
2464.36507	7120.825
2467.12586	7122.925
2469.88492	7113.225
2472.64224	7116.925
2475.39782	7122.025
2478.15167	7117.425
2480.90379	7137.525
2483.65417	7137.925
2486.40283	7138.025
2489.14976	7149.225
2491.89497	7151.225
2494.63845	7151.525
2497.3802	7171.125
2500.12024	7156.725
2502.85855	7170.525
2505.59514	7169.425
2508.33002	7141.325
2511.06318	7133.825
2513.79462	7108.225
2516.52435	7107.225
2519.25237	7099.225
2521.97867	7085.925
2524.70327	7101.125
2527.42616	7094.725
2530.14734	7064.425
2532.86681	7075.125
2535.58458	7090.825
2538.30065	7068.425
2541.01501	7095.425
2543.72768	7089.825
2546.43864	7073.225
2549.14791	7094.325
2551.85548	7079.525
2554.56136	7085.825
2557.26554	7053.025
2559.96803	7041.525
2562.66883	7050.225
2565.36794	7048.025
2568.06536	7032.025
2570.7611	7032.625
2573.45514	7025.025
2576.14751	7035.025
2578.83819	7006.325
2581.52719	7007.925
2584.21451	7005.925
2586.90015	6993.925
2589.58411	6983.625
2592.2664	6972.825
2594.94701	6982.225
2597.62594	6996.925
2600.30321	6977.225
2602.9788	6981.225
2605.65273	6967.025
2608.32498	6962.925
2610.99557	6963.725
2613.66449	6959.125
2616.33175	6946.525
2618.99734	6975.025
2621.66128	6975.825
2624.32355	6959.125
2626.98416	6951.325
2629.64311	6953.425
2632.30041	6943.025
2634.95605	6954.925
2637.61004	6955.925
2640.26238	6952.925
2642.91306	6936.325
2645.56209	6924.625
2648.20948	6937.825
2650.85521	6944.525
2653.4993	6934.425
2656.14175	6917.625
2658.78255	6945.125
2661.42171	6949.025
2664.05923	6965.525
2666.6951	6948.825
2669.32934	6966.425
2671.96194	6970.425
2674.59291	6998.225
2677.22224	6994.325
2679.84993	7004.625
2682.476	6985.125
2685.10043	6982.325
2687.72324	6965.125
2690.34441	6957.725
2692.96396	6982.325
2695.58188	6994.125
2698.19818	6982.125
2700.81285	6999.525
2703.4259	6996.225
2706.03733	7010.625
2708.64714	7017.125
2711.25533	7036.125
2713.86191	7020.125
2716.46687	7033.525
2719.07021	7019.725
2721.67194	7051.425
2724.27206	7044.525
2726.87057	7046.425
2729.46747	7040.825
2732.06276	7061.325
2734.65644	7051.125
2737.24852	7076.925
2739.83899	7046.325
2742.42786	7064.225
2745.01513	7029.425
2747.60079	7048.925
2750.18486	7039.425
2752.76733	7029.725
2755.3482	7023.325
2757.92747	7023.925
2760.50515	7044.025
2763.08123	7036.925
2765.65573	7012.425
2768.22863	7024.325
2770.79994	7007.825
2773.36967	6988.525
2775.9378	7002.625
2778.50435	6994.125
2781.06932	6994.025
2783.6327	6987.425
2786.1945	6981.625
2788.75471	6993.025
2791.31335	6976.725
2793.87041	6961.025
2796.42589	6925.825
2798.97979	6946.525
2801.53212	6936.625
2804.08288	6950.125
2806.63206	6924.325
2809.17967	6907.725
2811.72571	6884.625
2814.27018	6877.225
2816.81308	6870.725
2819.35442	6873.925
2821.89419	6864.125
2824.43239	6872.825
2826.96904	6870.825
2829.50412	6855.725
2832.03763	6837.825
2834.56959	6832.525
2837.1	6839.925
2839.62884	6847.325
2842.15613	6832.425
2844.68186	6845.725
2847.20604	6850.925
2849.72867	6866.525
2852.24974	6833.325
2854.76927	6857.025
2857.28724	6840.425
2859.80367	6828.925
2862.31855	6834.925
2864.83189	6818.425
2867.34368	6822.625
2869.85393	6843.125
2872.36264	6836.425
2874.8698	6837.125
2877.37543	6838.925
2879.87952	6835.025
2882.38207	6843.325
2884.88308	6845.225
2887.38256	6866.525
2889.88051	6839.725
2892.37692	6855.325
2894.8718	6845.925
2897.36515	6859.325
2899.85698	6880.125
2902.34727	6901.925
2904.83604	6926.125
2907.32328	6935.425
2909.809	6929.125
2912.29319	6931.925
2914.77587	6948.325
2917.25702	6955.325
2919.73665	6949.225
2922.21476	6951.025
2924.69136	6971.925
2927.16644	6976.525
2929.64	6935.725
2932.11205	6938.425
2934.58258	6919.125
2937.05161	6932.925
2939.51912	6928.225
2941.98513	6930.025
2944.44962	6907.625
2946.91261	6897.825
2949.37409	6857.325
2951.83407	6897.525
2954.29254	6890.125
2956.74951	6900.125
2959.20498	6889.425
2961.65895	6877.525
2964.11142	6882.825
2966.56239	6875.525
2969.01186	6874.725
2971.45984	6843.725
2973.90632	6856.625
2976.35131	6829.225
2978.7948	6835.925
2981.23681	6824.625
2983.67732	6805.525
2986.11635	6794.225
2988.55388	6800.125
2990.98993	6785.225
2993.4245	6759.425
2995.85758	6745.725
2998.28917	6751.725
3000.71928	6738.625
3003.14791	6726.225
3005.57506	6729.725
3008.00073	6691.325
3010.42493	6714.425
3012.84764	6673.225
3015.26888	6684.125
3017.68865	6657.825
3020.10694	6673.525
3022.52376	6655.025
3024.9391	6658.125
3027.35298	6654.825
3029.76539	6663.525
3032.17632	6646.425
3034.5858	6656.425
3036.9938	6639.325
3039.40034	6630.925
3041.80542	6653.525
3044.20903	6618.125
3046.61118	6628.025
3049.01187	6617.525
3051.4111	6596.525
3053.80888	6605.525
3056.20519	6597.725
3058.60005	6562.925
3060.99345	6587.025
3063.3854	6537.725
3065.7759	6561.525
3068.16494	6530.325
3070.55254	6507.425
3072.93868	6516.725
3075.32338	6528.925
3077.70662	6498.925
3080.08842	6468.625
3082.46878	6479.925
3084.84769	6467.825
3087.22515	6464.125
3089.60118	6458.725
3091.97576	6465.225
3094.3489	6493.525
3096.72061	6491.325
3099.09087	6502.925
3101.4597	6492.325
3103.82709	6506.225
3106.19305	6507.425
3108.55757	6521.325
3110.92066	6493.325
3113.28232	6515.925
3115.64255	6480.725
3118.00134	6473.525
3120.35871	6467.425
3122.71466	6482.625
3125.06917	6448.425
3127.42226	6425.525
3129.77393	6457.225
3132.12417	6426.725
3134.47299	6436.825
3136.82039	6438.625
3139.16636	6476.425
3141.51092	6448.625
3143.85406	6453.725
3146.19579	6474.125
3148.53609	6462.225
3150.87499	6476.225
3153.21246	6472.825
3155.54853	6483.325
3157.88318	6492.825
3160.21642	6495.425
3162.54826	6512.725
3164.87868	6513.725
3167.2077	6514.325
3169.5353	6523.725
3171.86151	6517.325
3174.18631	6520.425
3176.5097	6505.725
3178.83169	6511.225
3181.15228	6531.425
3183.47147	6524.725
3185.78926	6491.925
3188.10565	6492.725
3190.42065	6493.525
3192.73424	6498.025
3195.04645	6500.725
