Data from AgNPs_APTES_FTO_UA_100uM_CRN_0uM_R6G_10uM_Scan_RamanShift__54__16-45-42-989.txt Node

Date: Mon Jul 11 16:45:42 BST 2022
User: TCL
Spectrometer: QEP01345
Trigger mode: 4
Integration Time (sec): 7.000000E0
Scans to average: 10
Electric dark correction enabled: true
Nonlinearity correction enabled: false
Boxcar width: 0
XAxis mode: Raman Shifts
Number of Pixels in Spectrum: 1044
>>>>>Begin Spectral Data<<<<<
46.04893	-0.875
50.45542	-0.775
54.85868	-1.175
59.25871	-1.075
63.6555	62.825
68.04907	64.925
72.43941	67.925
76.82654	70.525
81.21044	73.025
85.59113	79.625
89.96862	81.325
94.34289	81.525
98.71396	84.425
103.08183	88.925
107.4465	91.925
111.80798	91.625
116.16626	94.225
120.52136	102.625
124.87327	108.725
129.222	110.325
133.56755	120.325
137.90993	127.325
142.24913	146.425
146.58517	159.625
150.91804	187.925
155.24774	227.725
159.57429	283.025
163.89768	362.725
168.21792	484.825
172.53501	663.925
176.84895	930.225
181.15975	1307.425
185.46741	1830.625
189.77193	2556.725
194.07331	3433.125
198.37157	4431.825
202.6667	5511.725
206.9587	6588.225
211.24758	7645.525
215.53334	8716.925
219.81599	9879.225
224.09553	11114.625
228.37195	12501.425
232.64527	14022.225
236.91549	15610.425
241.18261	17251.925
245.44663	18699.125
249.70755	19941.925
253.96539	20990.325
258.22014	21814.125
262.4718	22358.325
266.72039	22615.225
270.96589	22518.725
275.20832	22198.325
279.44768	21708.725
283.68397	21165.025
287.91719	20700.825
292.14735	20336.125
296.37445	20166.225
300.59849	20147.725
304.81948	20218.325
309.03742	20287.325
313.25231	20119.725
317.46415	19787.425
321.67296	19295.425
325.87872	18936.225
330.08145	18760.425
334.28114	18798.225
338.47781	19015.925
342.67145	19231.925
346.86207	19617.225
351.04966	20071.025
355.23424	20532.225
359.4158	20949.225
363.59435	21173.625
367.76989	21373.225
371.94243	21472.425
376.11196	21515.025
380.27849	21617.525
384.44203	21721.025
388.60257	21768.025
392.76012	21938.925
396.91468	22166.025
401.06626	22530.525
405.21485	22738.025
409.36047	22605.125
413.50311	22262.825
417.64277	21926.025
421.77947	21730.325
425.9132	21710.525
430.04396	21747.025
434.17176	21829.025
438.2966	21988.125
442.41849	22271.025
446.53742	22508.725
450.6534	22839.625
454.76644	23017.725
458.87653	23153.025
462.98368	23214.225
467.08789	23143.825
471.18916	23017.825
475.2875	22849.825
479.38291	22684.425
483.4754	22641.125
487.56496	22632.125
491.6516	22631.525
495.73531	22781.425
499.81612	22926.025
503.89401	23167.825
507.96899	23304.225
512.04106	23467.425
516.11023	23454.225
520.1765	23417.325
524.23987	23381.925
528.30034	23218.225
532.35792	23108.425
536.41261	22881.125
540.46441	22750.125
544.51333	22723.725
548.55936	22845.825
552.60252	23025.525
556.64279	23270.025
560.6802	23433.125
564.71473	23624.025
568.7464	23780.125
572.7752	23889.525
576.80114	23697.725
580.82422	23661.925
584.84444	23744.925
588.86181	23868.025
592.87633	24037.325
596.888	24214.125
600.89682	24671.325
604.9028	26139.625
608.90594	29183.925
612.90624	31984.525
616.90371	30026.925
620.89834	25855.625
624.89015	24156.425
628.87913	24005.125
632.86528	24279.825
636.84862	24509.825
640.82913	24430.925
644.80683	24053.825
648.78172	23871.425
652.75379	23939.925
656.72306	24321.625
660.68952	24674.825
664.65319	24547.225
668.61405	24306.025
672.57211	24338.125
676.52738	24450.425
680.47986	24456.425
684.42955	24506.925
688.37646	24638.625
692.32058	24651.525
696.26192	24670.925
700.20048	24658.625
704.13626	24524.625
708.06928	24375.025
711.99952	24152.025
715.927	24070.125
719.85171	24082.625
723.77365	24036.625
727.69284	23951.025
731.60928	23842.925
735.52295	23910.525
739.43388	24016.725
743.34206	24137.725
747.24749	24212.725
751.15017	24200.425
755.05012	24375.525
758.94733	24821.325
762.8418	25902.925
766.73354	27591.525
770.62254	29146.125
774.50882	29613.025
778.39237	28818.725
782.27321	27261.425
786.15132	25841.725
790.02671	24905.625
793.89938	24444.825
797.76935	24226.425
801.6366	24207.025
805.50115	24161.325
809.36299	24166.825
813.22213	24086.925
817.07857	24023.725
820.93231	23881.125
824.78336	23843.825
828.63172	23805.925
832.47738	23769.225
836.32036	23762.525
840.16066	23716.525
843.99827	23760.825
847.8332	23748.725
851.66546	23759.425
855.49504	23844.925
859.32195	23855.025
863.1462	23845.925
866.96777	23862.825
870.78668	23883.425
874.60293	23955.425
878.41652	24030.925
882.22745	24136.025
886.03573	24151.125
889.84136	24183.525
893.64433	24179.325
897.44466	24159.425
901.24235	24126.625
905.0374	24089.825
908.8298	24009.025
912.61957	23985.325
916.40671	24022.225
920.19121	24030.025
923.97308	24057.225
927.75233	24077.925
931.52895	24143.725
935.30295	24073.425
939.07433	23831.025
942.84309	23616.925
946.60924	23558.225
950.37278	23505.825
954.13371	23499.725
957.89203	23490.525
961.64774	23547.025
965.40086	23483.225
969.15137	23462.225
972.89929	23424.525
976.64461	23421.325
980.38733	23448.325
984.12747	23492.725
987.86502	23477.325
991.59999	23556.025
995.33237	23654.225
999.06217	23790.225
1002.78939	23992.625
1006.51404	24219.425
1010.23611	24452.425
1013.95561	24610.025
1017.67255	24631.225
1021.38692	24608.925
1025.09872	24411.625
1028.80796	24203.425
1032.51465	24142.925
1036.21877	24112.825
1039.92035	24212.425
1043.61937	24292.825
1047.31584	24328.225
1051.00976	24396.525
1054.70114	24484.225
1058.38998	24529.525
1062.07627	24609.025
1065.76003	24738.625
1069.44126	24911.125
1073.11995	25243.625
1076.79611	25570.925
1080.46974	25822.825
1084.14085	25971.325
1087.80943	26058.625
1091.47549	26164.225
1095.13903	26069.525
1098.80005	25905.625
1102.45857	25734.425
1106.11456	25627.125
1109.76805	25532.025
1113.41903	25583.425
1117.06751	25762.425
1120.71348	25996.425
1124.35696	26370.325
1127.99793	26764.125
1131.63641	26831.925
1135.2724	26611.525
1138.90589	26426.125
1142.5369	26225.025
1146.16542	26011.425
1149.79145	25795.525
1153.415	25598.025
1157.03607	25442.325
1160.65467	25525.725
1164.27079	25779.225
1167.88443	26289.725
1171.49561	27014.125
1175.10432	28116.525
1178.71056	29703.925
1182.31434	31068.525
1185.91565	31637.725
1189.51451	31630.825
1193.11091	31179.025
1196.70485	30507.825
1200.29634	29869.325
1203.88538	29230.125
1207.47197	28557.025
1211.05612	27953.825
1214.63782	27509.525
1218.21708	27225.825
1221.79391	27018.425
1225.36829	26942.025
1228.94024	26887.225
1232.50976	26812.825
1236.07685	26657.425
1239.6415	26668.425
1243.20374	26746.925
1246.76355	26850.325
1250.32093	26981.825
1253.8759	27270.525
1257.42845	27607.925
1260.97859	28033.725
1264.52631	28450.525
1268.07163	28885.325
1271.61453	29115.725
1275.15503	29322.525
1278.69312	29416.625
1282.22882	29481.725
1285.76211	29624.025
1289.29301	30021.825
1292.82151	30465.925
1296.34761	30971.425
1299.87133	31744.825
1303.39266	32822.825
1306.9116	34361.125
1310.42815	35963.125
1313.94233	36644.825
1317.45412	36007.225
1320.96354	34920.825
1324.47058	33877.725
1327.97525	32954.625
1331.47754	32453.825
1334.97747	32330.825
1338.47502	32597.725
1341.97022	33300.525
1345.46305	34431.025
1348.95352	35711.725
1352.44163	36919.125
1355.92738	38195.625
1359.41078	39963.425
1362.89183	41531.025
1366.37053	40440.325
1369.84688	37000.325
1373.32088	33591.125
1376.79254	31401.125
1380.26186	30298.825
1383.72883	29664.825
1387.19347	29091.425
1390.65578	28470.225
1394.11575	27992.825
1397.57339	27606.925
1401.0287	27320.325
1404.48168	27171.625
1407.93234	27118.725
1411.38068	27131.625
1414.82669	27131.425
1418.27039	27009.225
1421.71177	26848.925
1425.15083	26632.725
1428.58758	26527.825
1432.02203	26519.125
1435.45416	26609.425
1438.88399	26693.325
1442.31151	26755.725
1445.73673	26842.725
1449.15965	26990.125
1452.58027	27009.225
1455.9986	27077.125
1459.41463	27190.825
1462.82837	27535.725
1466.23982	27877.825
1469.64898	28279.425
1473.05586	28574.225
1476.46045	28751.125
1479.86276	28946.425
1483.26279	29120.325
1486.66054	29405.825
1490.05602	29811.725
1493.44922	30553.025
1496.84016	31607.425
1500.22882	33331.025
1503.61521	35563.825
1506.99934	37676.725
1510.38121	38926.725
1513.76081	38564.425
1517.13816	36656.625
1520.51324	34141.025
1523.88607	32097.725
1527.25665	30853.925
1530.62498	30178.525
1533.99105	29811.825
1537.35488	29607.825
1540.71647	29500.225
1544.07581	29380.225
1547.4329	29274.525
1550.78776	29227.625
1554.14038	29168.125
1557.49077	29305.425
1560.83892	29497.225
1564.18484	29863.925
1567.52853	30315.225
1570.86999	30651.125
1574.20922	30867.825
1577.54624	30697.225
1580.88103	29976.625
1584.2136	29066.925
1587.54395	28606.525
1590.87208	28599.425
1594.19801	29007.025
1597.52172	29646.925
1600.84321	29928.025
1604.16251	29590.625
1607.47959	29016.625
1610.79447	28277.925
1614.10715	27379.125
1617.41763	26505.425
1620.7259	25867.325
1624.03199	25431.125
1627.33587	25307.525
1630.63757	25448.425
1633.93707	25757.725
1637.23439	26571.825
1640.52951	27909.425
1643.82246	29608.125
1647.11321	31412.425
1650.40179	32308.725
1653.68819	31544.025
1656.97241	29416.925
1660.25446	27124.525
1663.53433	25410.325
1666.81203	24350.325
1670.08756	23721.425
1673.36092	23282.425
1676.63211	22935.125
1679.90115	22663.225
1683.16801	22465.125
1686.43272	22286.425
1689.69527	22050.625
1692.95567	21965.525
1696.2139	21969.625
1699.46999	21891.025
1702.72392	21808.825
1705.97571	21778.025
1709.22535	21759.925
1712.47284	21690.425
1715.71819	21649.325
1718.96139	21561.625
1722.20246	21523.025
1725.44139	21412.725
1728.67818	21325.025
1731.91284	21211.825
1735.14537	21116.425
1738.37576	21018.025
1741.60403	20921.725
1744.83017	20835.025
1748.05418	20793.525
1751.27607	20763.325
1754.49584	20684.425
1757.71349	20657.225
1760.92903	20617.825
1764.14244	20605.725
1767.35375	20579.925
1770.56294	20547.425
1773.77002	20561.925
1776.97499	20529.325
1780.17785	20482.425
1783.37861	20435.725
1786.57727	20359.925
1789.77382	20357.925
1792.96828	20296.725
1796.16064	20262.325
1799.3509	20201.525
1802.53907	20209.325
1805.72514	20127.425
1808.90913	20064.925
1812.09102	20040.325
1815.27083	19955.225
1818.44856	19977.525
1821.6242	19930.025
1824.79776	19869.025
1827.96924	19865.325
1831.13864	19816.325
1834.30597	19816.925
1837.47122	19825.325
1840.6344	19794.925
1843.7955	19726.425
1846.95454	19738.425
1850.11151	19714.725
1853.26642	19720.325
1856.41926	19681.825
1859.57004	19672.925
1862.71876	19675.325
1865.86542	19675.125
1869.01003	19626.925
1872.15258	19545.225
1875.29308	19553.725
1878.43152	19537.725
1881.56792	19504.325
1884.70227	19448.225
1887.83457	19442.425
1890.96482	19417.625
1894.09304	19376.425
1897.21921	19353.725
1900.34335	19342.225
1903.46544	19322.825
1906.58551	19276.925
1909.70353	19256.325
1912.81953	19225.625
1915.93349	19187.325
1919.04543	19140.725
1922.15534	19111.925
1925.26322	19070.125
1928.36908	19053.025
1931.47292	19026.925
1934.57473	18955.925
1937.67453	18917.625
1940.77232	18868.925
1943.86808	18844.325
1946.96184	18796.225
1950.05358	18740.525
1953.14331	18689.925
1956.23103	18647.825
1959.31675	18557.625
1962.40046	18498.625
1965.48217	18482.225
1968.56188	18451.125
1971.63959	18370.425
1974.7153	18298.925
1977.78901	18275.425
1980.86073	18225.825
1983.93046	18120.725
1986.99819	18058.225
1990.06394	18037.325
1993.1277	17962.225
1996.18947	17922.425
1999.24925	17854.525
2002.30706	17794.325
2005.36288	17737.225
2008.41672	17700.525
2011.46859	17687.325
2014.51848	17601.925
2017.56639	17537.425
2020.61233	17453.525
2023.6563	17438.525
2026.6983	17377.925
2029.73833	17375.525
2032.7764	17294.125
2035.8125	17248.725
2038.84664	17206.825
2041.87881	17191.025
2044.90903	17141.025
2047.93729	17126.325
2050.96359	17102.925
2053.98794	17070.825
2057.01034	17049.125
2060.03078	17047.825
2063.04927	17008.925
2066.06582	17013.625
2069.08042	17001.825
2072.09307	17015.125
2075.10378	16979.625
2078.11255	16994.025
2081.11938	16970.225
2084.12426	16941.625
2087.12722	16940.325
2090.12824	16934.525
2093.12732	16926.725
2096.12447	16937.225
2099.11969	16940.525
2102.11299	16953.125
2105.10435	16947.525
2108.09379	16970.425
2111.08131	16956.125
2114.0669	16996.025
2117.05057	16985.225
2120.03233	16993.325
2123.01216	16994.225
2125.99008	16983.125
2128.96609	17002.225
2131.94018	17032.725
2134.91236	17044.225
2137.88263	17024.425
2140.851	17023.225
2143.81746	17080.625
2146.78201	17059.725
2149.74466	17027.725
2152.7054	17030.325
2155.66425	17027.125
2158.6212	17031.025
2161.57625	16974.225
2164.52941	16998.425
2167.48067	16993.825
2170.43004	16961.625
2173.37752	16963.325
2176.32311	16938.025
2179.26681	16927.425
2182.20863	16921.325
2185.14856	16977.325
2188.08661	16976.225
2191.02278	16946.625
2193.95707	16947.925
2196.88948	16903.425
2199.82001	16894.025
2202.74867	16913.325
2205.67545	16868.825
2208.60037	16857.625
2211.52341	16790.225
2214.44458	16783.025
2217.36388	16684.925
2220.28132	16673.125
2223.1969	16636.125
2226.11061	16639.125
2229.02246	16594.725
2231.93245	16538.025
2234.84058	16516.325
2237.74686	16480.225
2240.65128	16477.225
2243.55385	16457.525
2246.45456	16448.025
2249.35343	16438.725
2252.25044	16430.925
2255.14561	16343.825
2258.03893	16360.425
2260.93041	16302.625
2263.82004	16292.925
2266.70783	16215.625
2269.59378	16204.725
2272.4779	16172.925
2275.36017	16131.625
2278.24061	16150.425
2281.11922	16044.625
2283.996	16019.325
2286.87094	16020.125
2289.74405	15947.625
2292.61534	15927.725
2295.4848	15902.325
2298.35243	15914.625
2301.21824	15881.425
2304.08223	15896.125
2306.94439	15881.625
2309.80474	15812.725
2312.66327	15857.125
2315.51999	15807.525
2318.37489	15793.625
2321.22797	15748.125
2324.07925	15750.225
2326.92871	15689.225
2329.77637	15644.425
2332.62222	15657.325
2335.46626	15598.125
2338.3085	15571.125
2341.14893	15564.025
2343.98756	15539.625
2346.8244	15553.825
2349.65943	15548.825
2352.49267	15546.225
2355.32411	15536.825
2358.15376	15469.425
2360.98161	15493.525
2363.80768	15476.625
2366.63195	15511.925
2369.45444	15474.325
2372.27514	15439.625
2375.09405	15421.325
2377.91118	15400.425
2380.72652	15406.625
2383.54009	15379.425
2386.35187	15347.125
2389.16188	15285.625
2391.97011	15239.925
2394.77657	15188.025
2397.58125	15161.225
2400.38416	15145.825
2403.18529	15111.125
2405.98466	15099.325
2408.78226	15051.225
2411.57809	15027.425
2414.37216	15015.225
2417.16446	14987.825
2419.955	15003.525
2422.74378	14999.625
2425.5308	14994.425
2428.31606	14982.825
2431.09956	14990.725
2433.88131	14924.725
2436.6613	14942.925
2439.43954	14910.125
2442.21603	14932.825
2444.99077	14877.725
2447.76377	14904.325
2450.53501	14876.825
2453.30451	14831.325
2456.07226	14804.825
2458.83827	14786.025
2461.60254	14762.525
2464.36507	14759.925
2467.12586	14747.625
2469.88492	14709.125
2472.64224	14727.725
2475.39782	14700.625
2478.15167	14724.825
2480.90379	14719.225
2483.65417	14693.425
2486.40283	14695.925
2489.14976	14690.125
2491.89497	14686.025
2494.63845	14682.425
2497.3802	14644.525
2500.12024	14623.825
2502.85855	14595.425
2505.59514	14564.825
2508.33002	14544.725
2511.06318	14527.625
2513.79462	14479.325
2516.52435	14457.225
2519.25237	14412.225
2521.97867	14387.125
2524.70327	14383.225
2527.42616	14368.625
2530.14734	14355.525
2532.86681	14294.225
2535.58458	14340.525
2538.30065	14287.625
2541.01501	14320.925
2543.72768	14254.425
2546.43864	14240.425
2549.14791	14235.225
2551.85548	14205.925
2554.56136	14143.125
2557.26554	14171.825
2559.96803	14121.725
2562.66883	14085.025
2565.36794	14066.425
2568.06536	14045.125
2570.7611	14014.125
2573.45514	13956.025
2576.14751	13943.125
2578.83819	13961.225
2581.52719	13950.725
2584.21451	13930.825
2586.90015	13886.025
2589.58411	13833.525
2592.2664	13800.025
2594.94701	13779.925
2597.62594	13768.625
2600.30321	13769.925
2602.9788	13744.025
2605.65273	13718.525
2608.32498	13707.325
2610.99557	13655.125
2613.66449	13674.025
2616.33175	13640.925
2618.99734	13641.125
2621.66128	13600.825
2624.32355	13578.425
2626.98416	13551.425
2629.64311	13532.925
2632.30041	13523.325
2634.95605	13481.225
2637.61004	13442.125
2640.26238	13417.325
2642.91306	13412.725
2645.56209	13402.125
2648.20948	13416.825
2650.85521	13380.025
2653.4993	13369.025
2656.14175	13389.325
2658.78255	13374.525
2661.42171	13345.525
2664.05923	13353.825
2666.6951	13355.725
2669.32934	13396.625
2671.96194	13420.725
2674.59291	13396.625
2677.22224	13385.025
2679.84993	13418.725
2682.476	13387.925
2685.10043	13380.825
2687.72324	13331.725
2690.34441	13323.925
2692.96396	13322.325
2695.58188	13330.325
2698.19818	13330.425
2700.81285	13359.025
2703.4259	13370.825
2706.03733	13335.425
2708.64714	13292.825
2711.25533	13269.425
2713.86191	13293.725
2716.46687	13318.625
2719.07021	13318.025
2721.67194	13338.625
2724.27206	13309.525
2726.87057	13295.825
2729.46747	13299.725
2732.06276	13314.925
2734.65644	13299.825
2737.24852	13321.325
2739.83899	13316.325
2742.42786	13274.725
2745.01513	13224.125
2747.60079	13207.325
2750.18486	13178.025
2752.76733	13160.725
2755.3482	13153.325
2757.92747	13143.425
2760.50515	13114.025
2763.08123	13099.425
2765.65573	13059.025
2768.22863	13064.525
2770.79994	13038.725
2773.36967	13005.425
2775.9378	13000.325
2778.50435	12994.325
2781.06932	12975.425
2783.6327	12936.825
2786.1945	12928.825
2788.75471	12865.125
2791.31335	12829.425
2793.87041	12852.425
2796.42589	12811.125
2798.97979	12820.425
2801.53212	12758.825
2804.08288	12735.425
2806.63206	12687.225
2809.17967	12645.125
2811.72571	12612.225
2814.27018	12604.325
2816.81308	12603.525
2819.35442	12562.125
2821.89419	12525.325
2824.43239	12522.425
2826.96904	12504.625
2829.50412	12517.325
2832.03763	12448.125
2834.56959	12455.625
2837.1	12443.225
2839.62884	12449.525
2842.15613	12401.925
2844.68186	12425.125
2847.20604	12378.425
2849.72867	12405.625
2852.24974	12370.525
2854.76927	12360.325
2857.28724	12332.125
2859.80367	12325.725
2862.31855	12305.625
2864.83189	12274.325
2867.34368	12250.625
2869.85393	12253.825
2872.36264	12238.425
2874.8698	12239.725
2877.37543	12218.025
2879.87952	12224.525
2882.38207	12175.425
2884.88308	12172.425
2887.38256	12175.525
2889.88051	12149.825
2892.37692	12137.425
2894.8718	12124.625
2897.36515	12164.025
2899.85698	12174.225
2902.34727	12174.225
2904.83604	12180.825
2907.32328	12234.425
2909.809	12226.025
2912.29319	12188.525
2914.77587	12191.225
2917.25702	12194.225
2919.73665	12207.825
2922.21476	12176.025
2924.69136	12170.325
2927.16644	12154.425
2929.64	12134.825
2932.11205	12128.825
2934.58258	12098.425
2937.05161	12077.425
2939.51912	12062.325
2941.98513	12040.025
2944.44962	12022.325
2946.91261	12010.725
2949.37409	12020.725
2951.83407	12007.825
2954.29254	12011.925
2956.74951	11969.125
2959.20498	12011.125
2961.65895	12004.525
2964.11142	11990.825
2966.56239	11983.825
2969.01186	12005.525
2971.45984	11959.025
2973.90632	11972.425
2976.35131	11916.525
2978.7948	11871.725
2981.23681	11865.225
2983.67732	11869.025
2986.11635	11832.825
2988.55388	11840.025
2990.98993	11814.625
2993.4245	11785.425
2995.85758	11768.625
2998.28917	11729.325
3000.71928	11705.925
3003.14791	11673.225
3005.57506	11644.325
3008.00073	11583.825
3010.42493	11594.425
3012.84764	11581.925
3015.26888	11598.325
3017.68865	11576.625
3020.10694	11560.825
3022.52376	11514.325
3024.9391	11513.525
3027.35298	11466.025
3029.76539	11479.825
3032.17632	11424.625
3034.5858	11429.825
3036.9938	11388.525
3039.40034	11397.125
3041.80542	11379.825
3044.20903	11366.325
3046.61118	11357.325
3049.01187	11305.025
3051.4111	11317.125
3053.80888	11295.325
3056.20519	11279.025
3058.60005	11261.425
3060.99345	11258.425
3063.3854	11250.125
3065.7759	11189.125
3068.16494	11154.925
3070.55254	11131.425
3072.93868	11143.325
3075.32338	11083.725
3077.70662	11066.125
3080.08842	11040.625
3082.46878	11018.525
3084.84769	11009.425
3087.22515	11014.225
3089.60118	11035.825
3091.97576	11010.625
3094.3489	11014.625
3096.72061	11033.525
3099.09087	11030.925
3101.4597	11027.225
3103.82709	11018.525
3106.19305	11019.625
3108.55757	11004.325
3110.92066	10984.625
3113.28232	10970.825
3115.64255	10942.525
3118.00134	10904.025
3120.35871	10895.325
3122.71466	10846.625
3125.06917	10839.725
3127.42226	10814.825
3129.77393	10820.625
