Data from AgNPs_APTES_FTO_UA_100uM_CRN_0uM_R6G_10uM_Scan_RamanShift__49__16-39-52-983.txt Node

Date: Mon Jul 11 16:39:52 BST 2022
User: TCL
Spectrometer: QEP01345
Trigger mode: 4
Integration Time (sec): 7.000000E0
Scans to average: 10
Electric dark correction enabled: true
Nonlinearity correction enabled: false
Boxcar width: 0
XAxis mode: Raman Shifts
Number of Pixels in Spectrum: 1044
>>>>>Begin Spectral Data<<<<<
46.04893	-0.725
50.45542	-0.425
54.85868	-0.325
59.25871	-2.625
63.6555	57.475
68.04907	63.975
72.43941	64.975
76.82654	69.875
81.21044	74.575
85.59113	73.675
89.96862	80.675
94.34289	78.775
98.71396	85.875
103.08183	87.075
107.4465	89.275
111.80798	87.075
116.16626	94.475
120.52136	96.675
124.87327	103.675
129.222	103.375
133.56755	111.575
137.90993	126.675
142.24913	135.775
146.58517	155.075
150.91804	172.575
155.24774	211.375
159.57429	257.375
163.89768	338.075
168.21792	446.775
172.53501	609.675
176.84895	850.475
181.15975	1184.275
185.46741	1679.875
189.77193	2307.275
194.07331	3119.475
198.37157	4012.675
202.6667	4971.975
206.9587	5900.475
211.24758	6856.175
215.53334	7836.575
219.81599	8839.075
224.09553	9972.575
228.37195	11206.775
232.64527	12536.975
236.91549	13959.275
241.18261	15320.275
245.44663	16590.675
249.70755	17637.275
253.96539	18519.575
258.22014	19226.175
262.4718	19734.975
266.72039	19969.675
270.96589	20018.375
275.20832	19794.975
279.44768	19434.075
283.68397	19002.175
287.91719	18612.875
292.14735	18378.775
296.37445	18286.175
300.59849	18353.775
304.81948	18524.275
309.03742	18616.275
313.25231	18492.975
317.46415	18150.775
321.67296	17652.575
325.87872	17237.675
330.08145	17094.075
334.28114	17062.175
338.47781	17221.275
342.67145	17471.875
346.86207	17805.375
351.04966	18301.775
355.23424	18733.075
359.4158	19070.075
363.59435	19303.375
367.76989	19436.275
371.94243	19535.875
376.11196	19513.975
380.27849	19567.875
384.44203	19607.075
388.60257	19663.875
392.76012	19839.675
396.91468	20050.575
401.06626	20379.175
405.21485	20581.975
409.36047	20385.375
413.50311	20047.375
417.64277	19750.275
421.77947	19607.975
425.9132	19617.475
430.04396	19694.975
434.17176	19743.575
438.2966	19910.675
442.41849	20150.775
446.53742	20501.675
450.6534	20858.975
454.76644	21066.375
458.87653	21146.875
462.98368	21104.075
467.08789	21014.175
471.18916	20816.575
475.2875	20544.975
479.38291	20350.475
483.4754	20220.075
487.56496	20197.675
491.6516	20204.375
495.73531	20345.675
499.81612	20499.475
503.89401	20702.575
507.96899	20866.875
512.04106	20925.175
516.11023	20921.975
520.1765	20873.175
524.23987	20794.175
528.30034	20666.475
532.35792	20546.775
536.41261	20356.575
540.46441	20149.575
544.51333	20056.775
548.55936	20223.375
552.60252	20470.675
556.64279	20727.075
560.6802	20934.575
564.71473	21119.975
568.7464	21308.375
572.7752	21449.575
576.80114	21498.775
580.82422	21598.775
584.84444	21936.575
588.86181	22343.375
592.87633	22669.075
596.888	22802.375
600.89682	22875.175
604.9028	24015.875
608.90594	26939.175
612.90624	29607.875
616.90371	27431.675
620.89834	23127.475
624.89015	21408.475
628.87913	21315.175
632.86528	21667.875
636.84862	21918.175
640.82913	21756.975
644.80683	21362.475
648.78172	21069.775
652.75379	21087.775
656.72306	21396.575
660.68952	21728.975
664.65319	21442.975
668.61405	21144.575
672.57211	21108.975
676.52738	21278.375
680.47986	21341.975
684.42955	21347.775
688.37646	21432.375
692.32058	21507.975
696.26192	21432.575
700.20048	21427.975
704.13626	21382.275
708.06928	21191.275
711.99952	21029.875
715.927	20946.875
719.85171	20972.575
723.77365	20965.575
727.69284	20785.375
731.60928	20701.075
735.52295	20757.775
739.43388	20803.275
743.34206	20932.975
747.24749	20949.575
751.15017	21024.575
755.05012	21269.575
758.94733	21743.875
762.8418	22951.375
766.73354	24798.275
770.62254	26351.675
774.50882	26716.075
778.39237	25690.175
782.27321	24035.375
786.15132	22561.775
790.02671	21677.975
793.89938	21241.975
797.76935	21017.075
801.6366	20969.375
805.50115	20943.475
809.36299	20946.175
813.22213	20869.475
817.07857	20755.675
820.93231	20624.075
824.78336	20501.875
828.63172	20426.775
832.47738	20424.375
836.32036	20362.575
840.16066	20323.475
843.99827	20288.075
847.8332	20291.475
851.66546	20362.875
855.49504	20439.275
859.32195	20465.275
863.1462	20470.575
866.96777	20452.675
870.78668	20494.775
874.60293	20565.475
878.41652	20623.175
882.22745	20736.275
886.03573	20857.275
889.84136	20840.775
893.64433	20761.475
897.44466	20697.075
901.24235	20643.775
905.0374	20555.775
908.8298	20499.675
912.61957	20448.375
916.40671	20451.675
920.19121	20567.275
923.97308	20642.975
927.75233	20722.775
931.52895	20709.175
935.30295	20560.775
939.07433	20293.375
942.84309	20099.575
946.60924	19979.875
950.37278	19956.575
954.13371	19989.475
957.89203	19979.175
961.64774	19978.275
965.40086	19988.475
969.15137	19967.975
972.89929	19928.575
976.64461	19944.175
980.38733	19927.775
984.12747	19956.175
987.86502	19994.275
991.59999	20101.875
995.33237	20231.775
999.06217	20448.975
1002.78939	20688.075
1006.51404	21077.975
1010.23611	21398.375
1013.95561	21567.875
1017.67255	21576.575
1021.38692	21437.275
1025.09872	21205.575
1028.80796	20931.975
1032.51465	20869.675
1036.21877	20885.075
1039.92035	20917.475
1043.61937	20972.275
1047.31584	21025.475
1051.00976	21038.475
1054.70114	21092.775
1058.38998	21122.975
1062.07627	21277.275
1065.76003	21470.875
1069.44126	21722.875
1073.11995	22032.075
1076.79611	22436.375
1080.46974	22697.875
1084.14085	22882.575
1087.80943	23048.775
1091.47549	23129.275
1095.13903	23068.175
1098.80005	22699.875
1102.45857	22442.275
1106.11456	22217.775
1109.76805	22134.575
1113.41903	22242.275
1117.06751	22431.375
1120.71348	22832.275
1124.35696	23307.875
1127.99793	23760.175
1131.63641	23927.275
1135.2724	23775.675
1138.90589	23530.375
1142.5369	23337.075
1146.16542	23139.375
1149.79145	22987.175
1153.415	22757.075
1157.03607	22646.575
1160.65467	22771.275
1164.27079	23125.875
1167.88443	23800.275
1171.49561	24743.175
1175.10432	26101.075
1178.71056	27909.475
1182.31434	29437.075
1185.91565	30111.875
1189.51451	30097.975
1193.11091	29529.975
1196.70485	28721.575
1200.29634	27954.475
1203.88538	27251.075
1207.47197	26541.675
1211.05612	25899.475
1214.63782	25422.275
1218.21708	25023.175
1221.79391	24740.875
1225.36829	24627.875
1228.94024	24580.175
1232.50976	24460.775
1236.07685	24323.775
1239.6415	24252.175
1243.20374	24264.275
1246.76355	24423.875
1250.32093	24599.775
1253.8759	24877.075
1257.42845	25350.475
1260.97859	25920.475
1264.52631	26527.575
1268.07163	27018.675
1271.61453	27487.375
1275.15503	27794.075
1278.69312	27989.375
1282.22882	28150.975
1285.76211	28497.775
1289.29301	29081.575
1292.82151	29717.075
1296.34761	30501.475
1299.87133	31543.875
1303.39266	32905.775
1306.9116	34720.875
1310.42815	36478.175
1313.94233	37300.975
1317.45412	36647.275
1320.96354	35375.575
1324.47058	34183.575
1327.97525	33221.475
1331.47754	32580.875
1334.97747	32454.475
1338.47502	32720.175
1341.97022	33353.675
1345.46305	34267.675
1348.95352	35359.975
1352.44163	36507.075
1355.92738	37850.575
1359.41078	39790.775
1362.89183	41485.475
1366.37053	40354.275
1369.84688	36587.975
1373.32088	32775.575
1376.79254	30393.275
1380.26186	29242.875
1383.72883	28619.575
1387.19347	28133.375
1390.65578	27577.575
1394.11575	27039.075
1397.57339	26672.175
1401.0287	26519.175
1404.48168	26413.975
1407.93234	26372.375
1411.38068	26278.475
1414.82669	26049.875
1418.27039	25829.875
1421.71177	25494.875
1425.15083	25267.175
1428.58758	25186.375
1432.02203	25322.275
1435.45416	25609.875
1438.88399	25878.175
1442.31151	26014.175
1445.73673	26102.375
1449.15965	26226.975
1452.58027	26280.575
1455.9986	26311.575
1459.41463	26492.875
1462.82837	26895.475
1466.23982	27296.975
1469.64898	27681.075
1473.05586	27988.675
1476.46045	28144.175
1479.86276	28219.075
1483.26279	28305.075
1486.66054	28475.175
1490.05602	28949.175
1493.44922	29629.475
1496.84016	30625.775
1500.22882	32177.975
1503.61521	34286.675
1506.99934	36309.675
1510.38121	37559.975
1513.76081	37410.075
1517.13816	35537.375
1520.51324	33172.175
1523.88607	31026.775
1527.25665	29844.575
1530.62498	29258.375
1533.99105	28916.375
1537.35488	28725.275
1540.71647	28439.075
1544.07581	28118.675
1547.4329	27886.775
1550.78776	27676.775
1554.14038	27553.775
1557.49077	27605.975
1560.83892	27683.175
1564.18484	28016.175
1567.52853	28375.775
1570.86999	28670.275
1574.20922	28950.475
1577.54624	28823.175
1580.88103	28168.575
1584.2136	27404.075
1587.54395	27123.475
1590.87208	27479.275
1594.19801	28352.875
1597.52172	29325.075
1600.84321	29662.575
1604.16251	29160.975
1607.47959	28171.575
1610.79447	26946.775
1614.10715	25636.275
1617.41763	24520.875
1620.7259	23715.875
1624.03199	23245.875
1627.33587	23176.975
1630.63757	23466.775
1633.93707	24168.575
1637.23439	25529.775
1640.52951	27467.475
1643.82246	29857.575
1647.11321	31991.075
1650.40179	32705.875
1653.68819	31296.175
1656.97241	28378.575
1660.25446	25494.875
1663.53433	23474.175
1666.81203	22192.175
1670.08756	21416.275
1673.36092	20905.475
1676.63211	20518.475
1679.90115	20258.575
1683.16801	19971.175
1686.43272	19746.975
1689.69527	19496.675
1692.95567	19338.575
1696.2139	19191.875
1699.46999	19063.575
1702.72392	18973.175
1705.97571	18919.675
1709.22535	18836.475
1712.47284	18795.075
1715.71819	18773.175
1718.96139	18701.775
1722.20246	18618.175
1725.44139	18544.875
1728.67818	18445.975
1731.91284	18330.475
1735.14537	18248.875
1738.37576	18182.175
1741.60403	18116.975
1744.83017	18051.675
1748.05418	18010.575
1751.27607	17945.975
1754.49584	17889.775
1757.71349	17870.975
1760.92903	17833.775
1764.14244	17811.975
1767.35375	17784.775
1770.56294	17766.075
1773.77002	17741.175
1776.97499	17721.375
1780.17785	17645.475
1783.37861	17608.375
1786.57727	17610.275
1789.77382	17598.375
1792.96828	17536.475
1796.16064	17509.475
1799.3509	17485.275
1802.53907	17457.875
1805.72514	17395.275
1808.90913	17329.575
1812.09102	17287.375
1815.27083	17284.975
1818.44856	17274.975
1821.6242	17238.675
1824.79776	17240.575
1827.96924	17223.775
1831.13864	17177.775
1834.30597	17149.375
1837.47122	17133.175
1840.6344	17126.975
1843.7955	17107.675
1846.95454	17115.975
1850.11151	17103.975
1853.26642	17081.475
1856.41926	17093.275
1859.57004	17099.075
1862.71876	17035.075
1865.86542	17046.075
1869.01003	16989.975
1872.15258	16962.675
1875.29308	16948.975
1878.43152	16954.575
1881.56792	16885.275
1884.70227	16871.975
1887.83457	16882.075
1890.96482	16848.975
1894.09304	16773.475
1897.21921	16774.775
1900.34335	16736.975
1903.46544	16719.775
1906.58551	16727.675
1909.70353	16718.175
1912.81953	16647.875
1915.93349	16678.575
1919.04543	16635.075
1922.15534	16597.275
1925.26322	16582.175
1928.36908	16539.175
1931.47292	16515.075
1934.57473	16458.175
1937.67453	16444.875
1940.77232	16381.375
1943.86808	16326.975
1946.96184	16314.775
1950.05358	16270.675
1953.14331	16225.375
1956.23103	16157.075
1959.31675	16122.075
1962.40046	16060.875
1965.48217	16058.775
1968.56188	16003.275
1971.63959	15940.375
1974.7153	15898.675
1977.78901	15840.175
1980.86073	15818.375
1983.93046	15754.575
1986.99819	15705.275
1990.06394	15645.875
1993.1277	15610.575
1996.18947	15553.175
1999.24925	15546.675
2002.30706	15489.275
2005.36288	15415.575
2008.41672	15422.575
2011.46859	15380.675
2014.51848	15291.075
2017.56639	15270.575
2020.61233	15251.175
2023.6563	15235.675
2026.6983	15182.275
2029.73833	15145.175
2032.7764	15091.675
2035.8125	15036.675
2038.84664	14978.375
2041.87881	14995.775
2044.90903	14977.875
2047.93729	14937.575
2050.96359	14951.075
2053.98794	14905.675
2057.01034	14884.975
2060.03078	14861.475
2063.04927	14847.575
2066.06582	14859.975
2069.08042	14830.675
2072.09307	14810.275
2075.10378	14802.775
2078.11255	14848.275
2081.11938	14836.475
2084.12426	14804.175
2087.12722	14789.575
2090.12824	14793.375
2093.12732	14816.175
2096.12447	14789.575
2099.11969	14793.575
2102.11299	14824.275
2105.10435	14819.275
2108.09379	14785.775
2111.08131	14807.675
2114.0669	14810.075
2117.05057	14802.775
2120.03233	14839.175
2123.01216	14862.175
2125.99008	14852.275
2128.96609	14874.275
2131.94018	14866.875
2134.91236	14900.675
2137.88263	14890.175
2140.851	14888.075
2143.81746	14886.475
2146.78201	14885.175
2149.74466	14866.575
2152.7054	14894.175
2155.66425	14892.175
2158.6212	14860.575
2161.57625	14835.375
2164.52941	14846.475
2167.48067	14855.575
2170.43004	14859.675
2173.37752	14831.675
2176.32311	14794.075
2179.26681	14813.775
2182.20863	14836.775
2185.14856	14838.275
2188.08661	14832.775
2191.02278	14826.475
2193.95707	14804.275
2196.88948	14806.575
2199.82001	14817.175
2202.74867	14762.475
2205.67545	14746.575
2208.60037	14725.575
2211.52341	14711.375
2214.44458	14704.275
2217.36388	14648.575
2220.28132	14638.475
2223.1969	14564.675
2226.11061	14594.775
2229.02246	14537.175
2231.93245	14503.875
2234.84058	14489.075
2237.74686	14464.275
2240.65128	14439.475
2243.55385	14440.675
2246.45456	14431.175
2249.35343	14375.075
2252.25044	14373.575
2255.14561	14352.975
2258.03893	14333.875
2260.93041	14331.675
2263.82004	14299.075
2266.70783	14253.475
2269.59378	14225.275
2272.4779	14212.975
2275.36017	14183.175
2278.24061	14143.175
2281.11922	14097.175
2283.996	14097.975
2286.87094	14049.875
2289.74405	14033.375
2292.61534	14017.875
2295.4848	13988.975
2298.35243	13987.875
2301.21824	13977.775
2304.08223	14002.675
2306.94439	13997.175
2309.80474	13949.075
2312.66327	13929.575
2315.51999	13931.875
2318.37489	13934.475
2321.22797	13923.875
2324.07925	13861.975
2326.92871	13842.675
2329.77637	13835.875
2332.62222	13775.675
2335.46626	13752.675
2338.3085	13747.575
2341.14893	13714.975
2343.98756	13732.675
2346.8244	13731.475
2349.65943	13722.075
2352.49267	13717.475
2355.32411	13721.775
2358.15376	13721.875
2360.98161	13719.575
2363.80768	13722.275
2366.63195	13743.275
2369.45444	13685.575
2372.27514	13693.075
2375.09405	13656.075
2377.91118	13651.475
2380.72652	13629.475
2383.54009	13554.875
2386.35187	13527.475
2389.16188	13520.875
2391.97011	13487.275
2394.77657	13442.875
2397.58125	13423.275
2400.38416	13417.575
2403.18529	13382.175
2405.98466	13357.075
2408.78226	13343.975
2411.57809	13349.375
2414.37216	13304.575
2417.16446	13294.675
2419.955	13281.575
2422.74378	13297.075
2425.5308	13271.575
2428.31606	13273.275
2431.09956	13271.775
2433.88131	13263.475
2436.6613	13251.075
2439.43954	13241.575
2442.21603	13210.875
2444.99077	13212.875
2447.76377	13194.975
2450.53501	13187.675
2453.30451	13185.775
2456.07226	13170.275
2458.83827	13154.075
2461.60254	13124.075
2464.36507	13138.175
2467.12586	13126.575
2469.88492	13111.075
2472.64224	13126.875
2475.39782	13091.675
2478.15167	13117.875
2480.90379	13113.675
2483.65417	13128.075
2486.40283	13143.275
2489.14976	13113.675
2491.89497	13078.975
2494.63845	13073.575
2497.3802	13029.675
2500.12024	13045.675
2502.85855	13041.275
2505.59514	13013.375
2508.33002	12994.675
2511.06318	12973.775
2513.79462	12942.475
2516.52435	12909.875
2519.25237	12896.975
2521.97867	12841.275
2524.70327	12867.375
2527.42616	12824.175
2530.14734	12843.875
2532.86681	12830.775
2535.58458	12842.675
2538.30065	12833.675
2541.01501	12797.775
2543.72768	12786.575
2546.43864	12798.775
2549.14791	12764.975
2551.85548	12745.375
2554.56136	12728.875
2557.26554	12701.975
2559.96803	12687.475
2562.66883	12677.075
2565.36794	12686.275
2568.06536	12645.375
2570.7611	12619.175
2573.45514	12581.075
2576.14751	12562.075
2578.83819	12533.475
2581.52719	12548.675
2584.21451	12481.275
2586.90015	12489.075
2589.58411	12460.175
2592.2664	12427.975
2594.94701	12437.575
2597.62594	12424.975
2600.30321	12405.875
2602.9788	12405.075
2605.65273	12374.875
2608.32498	12407.375
2610.99557	12371.375
2613.66449	12348.975
2616.33175	12312.875
2618.99734	12323.075
2621.66128	12296.675
2624.32355	12276.275
2626.98416	12258.775
2629.64311	12248.575
2632.30041	12233.275
2634.95605	12218.875
2637.61004	12195.375
2640.26238	12187.775
2642.91306	12148.175
2645.56209	12134.075
2648.20948	12137.175
2650.85521	12154.375
2653.4993	12138.475
2656.14175	12146.375
2658.78255	12136.275
2661.42171	12118.275
2664.05923	12151.075
2666.6951	12147.575
2669.32934	12195.575
2671.96194	12189.075
2674.59291	12170.675
2677.22224	12156.475
2679.84993	12189.575
2682.476	12172.675
2685.10043	12143.575
2687.72324	12126.175
2690.34441	12109.975
2692.96396	12118.475
2695.58188	12132.975
2698.19818	12112.575
2700.81285	12154.275
2703.4259	12142.775
2706.03733	12150.675
2708.64714	12141.275
2711.25533	12110.775
2713.86191	12133.475
2716.46687	12190.575
2719.07021	12180.275
2721.67194	12129.475
2724.27206	12141.575
2726.87057	12154.775
2729.46747	12171.075
2732.06276	12143.075
2734.65644	12133.375
2737.24852	12159.175
2739.83899	12099.975
2742.42786	12088.875
2745.01513	12093.475
2747.60079	12083.875
2750.18486	12053.775
2752.76733	12040.975
2755.3482	12028.275
2757.92747	12002.675
2760.50515	11946.775
2763.08123	11972.075
2765.65573	11953.475
2768.22863	11954.275
2770.79994	11919.675
2773.36967	11913.875
2775.9378	11893.075
2778.50435	11911.775
2781.06932	11880.675
2783.6327	11847.375
2786.1945	11831.175
2788.75471	11830.875
2791.31335	11796.375
2793.87041	11762.675
2796.42589	11763.875
2798.97979	11726.275
2801.53212	11711.375
2804.08288	11714.475
2806.63206	11647.175
2809.17967	11650.375
2811.72571	11619.175
2814.27018	11591.375
2816.81308	11537.675
2819.35442	11539.375
2821.89419	11492.075
2824.43239	11547.175
2826.96904	11498.175
2829.50412	11507.375
2832.03763	11481.275
2834.56959	11461.075
2837.1	11445.875
2839.62884	11444.575
2842.15613	11416.775
2844.68186	11436.775
2847.20604	11427.975
2849.72867	11414.575
2852.24974	11380.475
2854.76927	11362.875
2857.28724	11358.175
2859.80367	11356.575
2862.31855	11336.375
2864.83189	11350.075
2867.34368	11337.675
2869.85393	11351.075
2872.36264	11311.075
2874.8698	11307.675
2877.37543	11298.375
2879.87952	11307.875
2882.38207	11288.175
2884.88308	11280.775
2887.38256	11272.975
2889.88051	11259.375
2892.37692	11274.675
2894.8718	11253.275
2897.36515	11292.275
2899.85698	11282.875
2902.34727	11264.975
2904.83604	11315.075
2907.32328	11296.875
2909.809	11293.475
2912.29319	11296.075
2914.77587	11323.775
2917.25702	11303.575
2919.73665	11303.675
2922.21476	11288.575
2924.69136	11247.875
2927.16644	11249.775
2929.64	11220.375
2932.11205	11228.275
2934.58258	11183.675
2937.05161	11209.675
2939.51912	11192.075
2941.98513	11187.175
2944.44962	11150.575
2946.91261	11132.375
2949.37409	11146.275
2951.83407	11135.575
2954.29254	11118.975
2956.74951	11112.275
2959.20498	11114.875
2961.65895	11119.575
2964.11142	11117.475
2966.56239	11079.875
2969.01186	11089.075
2971.45984	11060.375
2973.90632	11061.475
2976.35131	11029.075
2978.7948	11016.475
2981.23681	10995.075
2983.67732	10975.275
2986.11635	10951.375
2988.55388	10943.175
2990.98993	10931.775
2993.4245	10911.575
2995.85758	10877.375
2998.28917	10855.075
3000.71928	10852.575
3003.14791	10801.375
3005.57506	10785.375
3008.00073	10753.175
3010.42493	10763.375
3012.84764	10755.275
3015.26888	10764.575
3017.68865	10733.375
3020.10694	10699.775
3022.52376	10679.175
3024.9391	10660.475
3027.35298	10641.675
3029.76539	10620.475
3032.17632	10608.475
3034.5858	10574.375
3036.9938	10583.775
3039.40034	10591.375
3041.80542	10590.375
3044.20903	10553.875
3046.61118	10573.675
3049.01187	10533.175
3051.4111	10519.675
3053.80888	10492.475
3056.20519	10458.575
3058.60005	10433.175
3060.99345	10427.475
3063.3854	10418.975
3065.7759	10408.175
3068.16494	10357.275
3070.55254	10334.575
3072.93868	10330.475
3075.32338	10297.975
3077.70662	10291.175
3080.08842	10268.575
3082.46878	10252.075
3084.84769	10238.275
3087.22515	10222.675
3089.60118	10223.475
3091.97576	10232.375
3094.3489	10216.375
3096.72061	10236.475
3099.09087	10209.875
3101.4597	10217.575
3103.82709	10237.075
3106.19305	10211.075
3108.55757	10214.175
3110.92066	10173.075
3113.28232	10166.075
3115.64255	10142.975
3118.00134	10124.775
3120.35871	10110.175
3122.71466	10092.375
3125.06917	10087.575
3127.42226	10059.275
3129.77393	10064.675
