Data from AgNPs_APTES_FTO_UA_100uM_CRN_0uM_R6G_10uM_Scan_RamanShift__1__15-43-52-927.txt Node

Date: Mon Jul 11 15:43:52 BST 2022
User: TCL
Spectrometer: QEP01345
Trigger mode: 4
Integration Time (sec): 7.000000E0
Scans to average: 10
Electric dark correction enabled: true
Nonlinearity correction enabled: false
Boxcar width: 0
XAxis mode: Raman Shifts
Number of Pixels in Spectrum: 1044
>>>>>Begin Spectral Data<<<<<
46.04893	-0.7625
50.45542	0.0375
54.85868	-0.5625
59.25871	-1.6625
63.6555	53.4375
68.04907	57.5375
72.43941	60.5375
76.82654	63.3375
81.21044	68.0375
85.59113	69.6375
89.96862	73.3375
94.34289	73.0375
98.71396	75.6375
103.08183	80.4375
107.4465	84.0375
111.80798	84.4375
116.16626	86.7375
120.52136	90.3375
124.87327	95.5375
129.222	102.6375
133.56755	104.4375
137.90993	116.8375
142.24913	127.9375
146.58517	144.6375
150.91804	164.8375
155.24774	201.8375
159.57429	249.4375
163.89768	321.4375
168.21792	420.0375
172.53501	583.9375
176.84895	811.1375
181.15975	1136.1375
185.46741	1599.1375
189.77193	2224.9375
194.07331	2992.5375
198.37157	3872.0375
202.6667	4779.7375
206.9587	5720.3375
211.24758	6652.3375
215.53334	7577.0375
219.81599	8575.0375
224.09553	9680.7375
228.37195	10852.7375
232.64527	12155.4375
236.91549	13555.3375
241.18261	14988.4375
245.44663	16338.9375
249.70755	17520.0375
253.96539	18490.3375
258.22014	19251.5375
262.4718	19691.1375
266.72039	19861.7375
270.96589	19837.5375
275.20832	19511.4375
279.44768	19071.8375
283.68397	18536.9375
287.91719	18013.7375
292.14735	17616.8375
296.37445	17301.7375
300.59849	17158.1375
304.81948	16985.3375
309.03742	16867.3375
313.25231	16678.5375
317.46415	16431.7375
321.67296	16205.4375
325.87872	16039.3375
330.08145	16038.7375
334.28114	16096.3375
338.47781	16199.2375
342.67145	16366.5375
346.86207	16562.2375
351.04966	16862.2375
355.23424	17170.3375
359.4158	17459.5375
363.59435	17730.5375
367.76989	17932.3375
371.94243	18095.9375
376.11196	18237.7375
380.27849	18359.8375
384.44203	18486.3375
388.60257	18633.6375
392.76012	18756.6375
396.91468	18901.6375
401.06626	19109.9375
405.21485	19248.5375
409.36047	19177.8375
413.50311	19037.7375
417.64277	18872.8375
421.77947	18791.3375
425.9132	18804.4375
430.04396	18848.2375
434.17176	19000.6375
438.2966	19113.0375
442.41849	19387.5375
446.53742	19606.7375
450.6534	19876.4375
454.76644	20086.2375
458.87653	20267.6375
462.98368	20350.4375
467.08789	20361.2375
471.18916	20326.1375
475.2875	20257.0375
479.38291	20205.0375
483.4754	20182.1375
487.56496	20173.6375
491.6516	20140.6375
495.73531	20142.9375
499.81612	20181.3375
503.89401	20252.4375
507.96899	20298.2375
512.04106	20373.9375
516.11023	20417.2375
520.1765	20444.9375
524.23987	20398.7375
528.30034	20377.1375
532.35792	20296.8375
536.41261	20285.4375
540.46441	20142.4375
544.51333	20146.0375
548.55936	20179.1375
552.60252	20316.1375
556.64279	20534.9375
560.6802	20721.3375
564.71473	20813.2375
568.7464	20822.6375
572.7752	20752.8375
576.80114	20701.1375
580.82422	20721.2375
584.84444	20825.7375
588.86181	20914.6375
592.87633	21023.9375
596.888	21133.6375
600.89682	21399.7375
604.9028	22161.8375
608.90594	23808.4375
612.90624	25293.1375
616.90371	24319.3375
620.89834	22199.8375
624.89015	21306.5375
628.87913	21258.6375
632.86528	21443.2375
636.84862	21656.4375
640.82913	21624.3375
644.80683	21381.6375
648.78172	21317.6375
652.75379	21368.2375
656.72306	21581.0375
660.68952	21903.2375
664.65319	21862.3375
668.61405	21863.6375
672.57211	22000.2375
676.52738	22313.8375
680.47986	22666.1375
684.42955	23215.2375
688.37646	23652.0375
692.32058	23805.5375
696.26192	23597.6375
700.20048	23291.6375
704.13626	23041.3375
708.06928	22953.9375
711.99952	22904.8375
715.927	22791.8375
719.85171	22570.2375
723.77365	22301.2375
727.69284	22043.4375
731.60928	21902.8375
735.52295	21860.8375
739.43388	21917.7375
743.34206	21940.0375
747.24749	21909.7375
751.15017	21859.0375
755.05012	21926.2375
758.94733	22153.9375
762.8418	22668.4375
766.73354	23517.6375
770.62254	24464.0375
774.50882	24973.8375
778.39237	24682.4375
782.27321	23828.6375
786.15132	23071.7375
790.02671	22570.5375
793.89938	22336.7375
797.76935	22097.0375
801.6366	21961.0375
805.50115	21851.9375
809.36299	21795.3375
813.22213	21686.0375
817.07857	21718.7375
820.93231	21699.1375
824.78336	21696.9375
828.63172	21729.6375
832.47738	21733.3375
836.32036	21721.7375
840.16066	21653.4375
843.99827	21705.5375
847.8332	21716.7375
851.66546	21793.0375
855.49504	21829.4375
859.32195	21859.5375
863.1462	21837.0375
866.96777	21863.3375
870.78668	21865.1375
874.60293	21935.7375
878.41652	21957.8375
882.22745	21976.0375
886.03573	22031.2375
889.84136	21999.3375
893.64433	22004.6375
897.44466	21938.9375
901.24235	21951.1375
905.0374	21926.5375
908.8298	21904.9375
912.61957	21884.5375
916.40671	21969.7375
920.19121	22022.7375
923.97308	22016.8375
927.75233	22018.0375
931.52895	22048.3375
935.30295	21969.3375
939.07433	21891.3375
942.84309	21776.2375
946.60924	21750.5375
950.37278	21696.1375
954.13371	21725.1375
957.89203	21725.3375
961.64774	21710.5375
965.40086	21686.3375
969.15137	21627.8375
972.89929	21585.5375
976.64461	21583.8375
980.38733	21537.1375
984.12747	21549.5375
987.86502	21576.1375
991.59999	21558.5375
995.33237	21648.6375
999.06217	21772.0375
1002.78939	21866.6375
1006.51404	21998.4375
1010.23611	22175.3375
1013.95561	22315.2375
1017.67255	22332.1375
1021.38692	22306.4375
1025.09872	22232.7375
1028.80796	22071.2375
1032.51465	21929.4375
1036.21877	21959.6375
1039.92035	22033.8375
1043.61937	22108.2375
1047.31584	22129.0375
1051.00976	22247.2375
1054.70114	22325.5375
1058.38998	22328.0375
1062.07627	22398.9375
1065.76003	22446.5375
1069.44126	22538.7375
1073.11995	22749.8375
1076.79611	23015.2375
1080.46974	23091.8375
1084.14085	23126.8375
1087.80943	23190.5375
1091.47549	23236.7375
1095.13903	23297.4375
1098.80005	23267.7375
1102.45857	23136.3375
1106.11456	23014.3375
1109.76805	22970.6375
1113.41903	22941.8375
1117.06751	22965.7375
1120.71348	23121.3375
1124.35696	23329.2375
1127.99793	23552.3375
1131.63641	23706.1375
1135.2724	23671.5375
1138.90589	23585.3375
1142.5369	23540.4375
1146.16542	23427.1375
1149.79145	23299.5375
1153.415	23141.3375
1157.03607	23001.5375
1160.65467	22968.4375
1164.27079	23085.1375
1167.88443	23341.7375
1171.49561	23798.8375
1175.10432	24401.3375
1178.71056	25249.5375
1182.31434	26041.5375
1185.91565	26480.6375
1189.51451	26571.4375
1193.11091	26521.2375
1196.70485	26212.3375
1200.29634	25931.2375
1203.88538	25618.5375
1207.47197	25184.3375
1211.05612	24809.7375
1214.63782	24564.5375
1218.21708	24348.8375
1221.79391	24074.6375
1225.36829	23851.0375
1228.94024	23763.3375
1232.50976	23688.5375
1236.07685	23701.3375
1239.6415	23678.1375
1243.20374	23775.6375
1246.76355	23830.3375
1250.32093	23931.4375
1253.8759	24158.2375
1257.42845	24405.3375
1260.97859	24753.6375
1264.52631	25023.3375
1268.07163	25201.9375
1271.61453	25341.1375
1275.15503	25584.7375
1278.69312	25681.4375
1282.22882	25738.2375
1285.76211	25873.9375
1289.29301	26008.1375
1292.82151	26317.1375
1296.34761	26742.9375
1299.87133	27275.0375
1303.39266	27870.5375
1306.9116	28694.5375
1310.42815	29520.7375
1313.94233	29943.7375
1317.45412	29817.0375
1320.96354	29461.6375
1324.47058	29024.2375
1327.97525	28427.9375
1331.47754	28042.1375
1334.97747	27875.8375
1338.47502	28061.5375
1341.97022	28524.1375
1345.46305	29181.5375
1348.95352	29896.4375
1352.44163	30535.3375
1355.92738	30993.5375
1359.41078	31766.7375
1362.89183	32429.0375
1366.37053	32026.9375
1369.84688	30312.9375
1373.32088	28515.4375
1376.79254	27331.3375
1380.26186	26620.9375
1383.72883	26180.3375
1387.19347	25863.9375
1390.65578	25552.2375
1394.11575	25208.8375
1397.57339	24973.2375
1401.0287	24760.4375
1404.48168	24642.5375
1407.93234	24582.5375
1411.38068	24575.1375
1414.82669	24490.4375
1418.27039	24328.7375
1421.71177	24166.5375
1425.15083	23960.3375
1428.58758	23818.3375
1432.02203	23806.6375
1435.45416	23852.5375
1438.88399	23950.6375
1442.31151	23998.6375
1445.73673	24193.6375
1449.15965	24381.3375
1452.58027	24569.9375
1455.9986	24737.0375
1459.41463	24965.5375
1462.82837	25252.5375
1466.23982	25560.2375
1469.64898	25817.0375
1473.05586	26034.7375
1476.46045	26052.3375
1479.86276	26041.1375
1483.26279	25978.5375
1486.66054	25895.1375
1490.05602	25972.5375
1493.44922	26213.1375
1496.84016	26675.3375
1500.22882	27497.5375
1503.61521	28651.0375
1506.99934	29709.6375
1510.38121	30340.9375
1513.76081	30234.3375
1517.13816	29430.8375
1520.51324	28378.8375
1523.88607	27424.5375
1527.25665	26807.5375
1530.62498	26486.9375
1533.99105	26325.5375
1537.35488	26242.3375
1540.71647	26217.2375
1544.07581	26147.5375
1547.4329	26160.3375
1550.78776	26144.7375
1554.14038	25944.8375
1557.49077	25858.0375
1560.83892	25874.8375
1564.18484	26001.1375
1567.52853	26122.2375
1570.86999	26271.3375
1574.20922	26353.3375
1577.54624	26263.2375
1580.88103	25884.7375
1584.2136	25422.6375
1587.54395	25138.3375
1590.87208	25111.8375
1594.19801	25337.0375
1597.52172	25743.8375
1600.84321	26045.4375
1604.16251	25905.9375
1607.47959	25587.6375
1610.79447	25058.8375
1614.10715	24351.0375
1617.41763	23702.2375
1620.7259	23237.4375
1624.03199	22897.2375
1627.33587	22727.4375
1630.63757	22691.0375
1633.93707	22870.6375
1637.23439	23281.9375
1640.52951	23980.9375
1643.82246	24885.2375
1647.11321	25863.7375
1650.40179	26413.0375
1653.68819	26071.6375
1656.97241	24999.5375
1660.25446	23725.8375
1663.53433	22763.8375
1666.81203	22163.8375
1670.08756	21764.1375
1673.36092	21528.8375
1676.63211	21301.3375
1679.90115	21154.5375
1683.16801	20978.4375
1686.43272	20855.7375
1689.69527	20759.8375
1692.95567	20634.5375
1696.2139	20579.6375
1699.46999	20510.9375
1702.72392	20444.9375
1705.97571	20371.4375
1709.22535	20355.7375
1712.47284	20278.3375
1715.71819	20262.3375
1718.96139	20175.8375
1722.20246	20102.2375
1725.44139	20035.4375
1728.67818	19954.0375
1731.91284	19805.9375
1735.14537	19707.2375
1738.37576	19626.1375
1741.60403	19551.2375
1744.83017	19449.4375
1748.05418	19393.7375
1751.27607	19363.7375
1754.49584	19280.7375
1757.71349	19235.1375
1760.92903	19245.7375
1764.14244	19156.1375
1767.35375	19199.0375
1770.56294	19120.2375
1773.77002	19128.2375
1776.97499	19107.3375
1780.17785	19042.8375
1783.37861	19034.9375
1786.57727	19024.3375
1789.77382	18986.6375
1792.96828	18931.4375
1796.16064	18905.7375
1799.3509	18911.8375
1802.53907	18864.6375
1805.72514	18835.6375
1808.90913	18755.9375
1812.09102	18718.7375
1815.27083	18670.5375
1818.44856	18623.6375
1821.6242	18621.4375
1824.79776	18594.1375
1827.96924	18585.3375
1831.13864	18557.4375
1834.30597	18527.2375
1837.47122	18447.4375
1840.6344	18419.2375
1843.7955	18464.1375
1846.95454	18450.0375
1850.11151	18475.0375
1853.26642	18429.6375
1856.41926	18383.3375
1859.57004	18376.6375
1862.71876	18337.5375
1865.86542	18318.2375
1869.01003	18293.8375
1872.15258	18295.8375
1875.29308	18308.3375
1878.43152	18312.9375
1881.56792	18233.0375
1884.70227	18210.5375
1887.83457	18215.9375
1890.96482	18141.1375
1894.09304	18139.8375
1897.21921	18158.1375
1900.34335	18134.5375
1903.46544	18144.3375
1906.58551	18106.6375
1909.70353	18058.8375
1912.81953	18044.8375
1915.93349	18033.0375
1919.04543	17996.0375
1922.15534	17976.0375
1925.26322	17902.2375
1928.36908	17916.6375
1931.47292	17885.8375
1934.57473	17850.6375
1937.67453	17813.1375
1940.77232	17794.7375
1943.86808	17712.9375
1946.96184	17672.8375
1950.05358	17657.9375
1953.14331	17611.5375
1956.23103	17559.5375
1959.31675	17493.4375
1962.40046	17454.9375
1965.48217	17421.7375
1968.56188	17334.2375
1971.63959	17268.2375
1974.7153	17229.0375
1977.78901	17189.4375
1980.86073	17165.6375
1983.93046	17104.3375
1986.99819	17009.0375
1990.06394	16967.9375
1993.1277	16924.1375
1996.18947	16879.2375
1999.24925	16856.0375
2002.30706	16773.3375
2005.36288	16734.7375
2008.41672	16716.3375
2011.46859	16623.6375
2014.51848	16579.7375
2017.56639	16558.1375
2020.61233	16513.2375
2023.6563	16514.0375
2026.6983	16475.8375
2029.73833	16395.6375
2032.7764	16356.7375
2035.8125	16303.1375
2038.84664	16248.8375
2041.87881	16246.4375
2044.90903	16241.9375
2047.93729	16202.9375
2050.96359	16215.1375
2053.98794	16210.5375
2057.01034	16202.3375
2060.03078	16172.6375
2063.04927	16159.0375
2066.06582	16205.6375
2069.08042	16211.4375
2072.09307	16189.2375
2075.10378	16224.7375
2078.11255	16230.8375
2081.11938	16274.1375
2084.12426	16268.2375
2087.12722	16271.4375
2090.12824	16272.2375
2093.12732	16266.2375
2096.12447	16320.8375
2099.11969	16304.0375
2102.11299	16303.6375
2105.10435	16328.2375
2108.09379	16332.8375
2111.08131	16335.1375
2114.0669	16329.8375
2117.05057	16327.9375
2120.03233	16318.3375
2123.01216	16341.0375
2125.99008	16361.9375
2128.96609	16334.1375
2131.94018	16376.9375
2134.91236	16377.4375
2137.88263	16341.8375
2140.851	16317.0375
2143.81746	16312.3375
2146.78201	16278.3375
2149.74466	16284.0375
2152.7054	16298.7375
2155.66425	16280.9375
2158.6212	16268.8375
2161.57625	16241.6375
2164.52941	16185.9375
2167.48067	16168.1375
2170.43004	16180.8375
2173.37752	16202.3375
2176.32311	16177.9375
2179.26681	16172.9375
2182.20863	16133.9375
2185.14856	16128.7375
2188.08661	16109.7375
2191.02278	16116.8375
2193.95707	16102.7375
2196.88948	16103.5375
2199.82001	16111.3375
2202.74867	16089.3375
2205.67545	16058.8375
2208.60037	16051.7375
2211.52341	16055.2375
2214.44458	15972.7375
2217.36388	15927.0375
2220.28132	15896.7375
2223.1969	15853.2375
2226.11061	15843.7375
2229.02246	15812.5375
2231.93245	15815.9375
2234.84058	15776.1375
2237.74686	15729.8375
2240.65128	15741.2375
2243.55385	15697.7375
2246.45456	15653.6375
2249.35343	15640.6375
2252.25044	15639.6375
2255.14561	15634.1375
2258.03893	15613.4375
2260.93041	15602.5375
2263.82004	15574.7375
2266.70783	15584.7375
2269.59378	15514.4375
2272.4779	15455.3375
2275.36017	15399.9375
2278.24061	15397.3375
2281.11922	15374.6375
2283.996	15339.0375
2286.87094	15302.3375
2289.74405	15238.9375
2292.61534	15240.5375
2295.4848	15220.9375
2298.35243	15234.4375
2301.21824	15217.7375
2304.08223	15230.6375
2306.94439	15191.3375
2309.80474	15171.6375
2312.66327	15179.3375
2315.51999	15134.7375
2318.37489	15118.8375
2321.22797	15087.1375
2324.07925	15117.1375
2326.92871	15068.0375
2329.77637	15046.5375
2332.62222	14995.4375
2335.46626	14989.7375
2338.3085	14968.5375
2341.14893	14933.7375
2343.98756	14921.2375
2346.8244	14940.9375
2349.65943	14919.6375
2352.49267	14926.6375
2355.32411	14869.3375
2358.15376	14891.2375
2360.98161	14871.1375
2363.80768	14912.1375
2366.63195	14890.0375
2369.45444	14855.7375
2372.27514	14861.1375
2375.09405	14819.5375
2377.91118	14787.3375
2380.72652	14820.4375
2383.54009	14763.8375
2386.35187	14784.8375
2389.16188	14693.9375
2391.97011	14673.8375
2394.77657	14636.3375
2397.58125	14599.2375
2400.38416	14601.2375
2403.18529	14590.8375
2405.98466	14569.5375
2408.78226	14525.4375
2411.57809	14536.3375
2414.37216	14498.9375
2417.16446	14515.0375
2419.955	14482.5375
2422.74378	14489.8375
2425.5308	14429.7375
2428.31606	14472.6375
2431.09956	14452.0375
2433.88131	14432.7375
2436.6613	14419.4375
2439.43954	14413.9375
2442.21603	14395.7375
2444.99077	14342.7375
2447.76377	14380.3375
2450.53501	14347.8375
2453.30451	14365.6375
2456.07226	14320.8375
2458.83827	14309.1375
2461.60254	14276.6375
2464.36507	14232.7375
2467.12586	14233.7375
2469.88492	14231.7375
2472.64224	14221.4375
2475.39782	14217.6375
2478.15167	14217.2375
2480.90379	14190.5375
2483.65417	14216.5375
2486.40283	14201.8375
2489.14976	14197.6375
2491.89497	14185.9375
2494.63845	14179.5375
2497.3802	14173.8375
2500.12024	14162.5375
2502.85855	14139.8375
2505.59514	14095.2375
2508.33002	14095.8375
2511.06318	14064.9375
2513.79462	14059.9375
2516.52435	14019.4375
2519.25237	14009.4375
2521.97867	13971.9375
2524.70327	13987.3375
2527.42616	13964.1375
2530.14734	13964.6375
2532.86681	13977.2375
2535.58458	13945.5375
2538.30065	13914.7375
2541.01501	13958.3375
2543.72768	13903.1375
2546.43864	13872.8375
2549.14791	13852.3375
2551.85548	13847.2375
2554.56136	13842.2375
2557.26554	13790.3375
2559.96803	13753.3375
2562.66883	13732.5375
2565.36794	13719.0375
2568.06536	13671.1375
2570.7611	13670.1375
2573.45514	13651.0375
2576.14751	13662.8375
2578.83819	13599.5375
2581.52719	13569.5375
2584.21451	13526.8375
2586.90015	13522.8375
2589.58411	13471.6375
2592.2664	13488.0375
2594.94701	13470.1375
2597.62594	13438.8375
2600.30321	13385.8375
2602.9788	13404.7375
2605.65273	13355.7375
2608.32498	13391.0375
2610.99557	13335.2375
2613.66449	13337.7375
2616.33175	13292.5375
2618.99734	13340.9375
2621.66128	13291.4375
2624.32355	13268.7375
2626.98416	13213.8375
2629.64311	13208.5375
2632.30041	13218.8375
2634.95605	13209.0375
2637.61004	13186.3375
2640.26238	13181.7375
2642.91306	13129.0375
2645.56209	13124.1375
2648.20948	13097.0375
2650.85521	13094.1375
2653.4993	13085.1375
2656.14175	13056.3375
2658.78255	13083.4375
2661.42171	13069.7375
2664.05923	13081.2375
2666.6951	13121.3375
2669.32934	13102.0375
2671.96194	13114.0375
2674.59291	13114.6375
2677.22224	13133.1375
2679.84993	13091.2375
2682.476	13092.7375
2685.10043	13112.7375
2687.72324	13092.5375
2690.34441	13100.1375
2692.96396	13113.3375
2695.58188	13135.1375
2698.19818	13127.1375
2700.81285	13106.1375
2703.4259	13097.0375
2706.03733	13128.4375
2708.64714	13117.8375
2711.25533	13132.9375
2713.86191	13091.3375
2716.46687	13123.1375
2719.07021	13078.8375
2721.67194	13103.2375
2724.27206	13117.6375
2726.87057	13101.7375
2729.46747	13116.2375
2732.06276	13126.3375
2734.65644	13126.3375
2737.24852	13135.9375
2739.83899	13089.3375
2742.42786	13086.8375
2745.01513	13070.2375
2747.60079	13029.6375
2750.18486	13002.6375
2752.76733	12975.7375
2755.3482	12998.3375
2757.92747	12986.1375
2760.50515	12960.7375
2763.08123	12958.4375
2765.65573	12948.2375
2768.22863	12887.4375
2770.79994	12889.7375
2773.36967	12902.1375
2775.9378	12903.2375
2778.50435	12885.1375
2781.06932	12844.9375
2783.6327	12850.2375
2786.1945	12797.1375
2788.75471	12787.6375
2791.31335	12724.9375
2793.87041	12723.7375
2796.42589	12674.8375
2798.97979	12672.7375
2801.53212	12662.0375
2804.08288	12649.5375
2806.63206	12594.9375
2809.17967	12610.9375
2811.72571	12541.8375
2814.27018	12529.1375
2816.81308	12466.8375
2819.35442	12454.9375
2821.89419	12413.5375
2824.43239	12411.7375
2826.96904	12406.4375
2829.50412	12417.5375
2832.03763	12351.0375
2834.56959	12365.2375
2837.1	12321.7375
2839.62884	12326.3375
2842.15613	12318.4375
2844.68186	12318.3375
2847.20604	12295.9375
2849.72867	12299.3375
2852.24974	12287.3375
2854.76927	12301.9375
2857.28724	12262.3375
2859.80367	12262.6375
2862.31855	12219.6375
2864.83189	12231.1375
2867.34368	12186.7375
2869.85393	12171.9375
2872.36264	12198.5375
2874.8698	12186.1375
2877.37543	12177.6375
2879.87952	12179.0375
2882.38207	12180.9375
2884.88308	12180.5375
2887.38256	12174.7375
2889.88051	12152.9375
2892.37692	12168.9375
2894.8718	12165.0375
2897.36515	12160.5375
2899.85698	12186.4375
2902.34727	12214.2375
2904.83604	12218.7375
2907.32328	12234.3375
2909.809	12221.4375
2912.29319	12211.3375
2914.77587	12189.5375
2917.25702	12224.1375
2919.73665	12196.9375
2922.21476	12235.4375
2924.69136	12211.3375
2927.16644	12216.9375
2929.64	12207.0375
2932.11205	12195.3375
2934.58258	12140.1375
2937.05161	12156.6375
2939.51912	12151.9375
2941.98513	12136.6375
2944.44962	12088.3375
2946.91261	12069.2375
2949.37409	12131.6375
2951.83407	12113.7375
2954.29254	12136.7375
2956.74951	12092.3375
2959.20498	12089.9375
2961.65895	12105.6375
2964.11142	12121.2375
2966.56239	12106.5375
2969.01186	12101.4375
2971.45984	12064.5375
2973.90632	12062.2375
2976.35131	12015.1375
2978.7948	12018.1375
2981.23681	12014.0375
2983.67732	11975.7375
2986.11635	11940.9375
2988.55388	11934.3375
2990.98993	11941.1375
2993.4245	11926.0375
2995.85758	11902.2375
2998.28917	11886.4375
3000.71928	11873.6375
3003.14791	11814.5375
3005.57506	11804.5375
3008.00073	11760.9375
3010.42493	11761.5375
3012.84764	11737.4375
3015.26888	11758.9375
3017.68865	11725.9375
3020.10694	11719.3375
3022.52376	11660.2375
3024.9391	11672.8375
