Data from AgNPs_APTES_FTO_UA_100uM_CRN_0uM_R6G_10uM_Scan_RamanShift__46__16-36-22-980.txt Node

Date: Mon Jul 11 16:36:22 BST 2022
User: TCL
Spectrometer: QEP01345
Trigger mode: 4
Integration Time (sec): 7.000000E0
Scans to average: 10
Electric dark correction enabled: true
Nonlinearity correction enabled: false
Boxcar width: 0
XAxis mode: Raman Shifts
Number of Pixels in Spectrum: 1044
>>>>>Begin Spectral Data<<<<<
46.04893	-1.175
50.45542	-0.375
54.85868	0.625
59.25871	-2.375
63.6555	62.925
68.04907	65.725
72.43941	66.825
76.82654	72.925
81.21044	78.925
85.59113	79.825
89.96862	81.525
94.34289	87.725
98.71396	88.325
103.08183	91.225
107.4465	92.225
111.80798	93.525
116.16626	98.525
120.52136	100.725
124.87327	107.825
129.222	111.425
133.56755	120.025
137.90993	129.725
142.24913	139.725
146.58517	160.025
150.91804	183.825
155.24774	221.925
159.57429	269.725
163.89768	353.425
168.21792	465.225
172.53501	630.425
176.84895	883.825
181.15975	1240.325
185.46741	1740.025
189.77193	2403.225
194.07331	3214.125
198.37157	4139.025
202.6667	5136.825
206.9587	6133.925
211.24758	7079.325
215.53334	8029.225
219.81599	9088.525
224.09553	10231.025
228.37195	11473.325
232.64527	12879.725
236.91549	14332.925
241.18261	15764.625
245.44663	17015.325
249.70755	18127.625
253.96539	19066.525
258.22014	19826.025
262.4718	20358.525
266.72039	20646.025
270.96589	20704.625
275.20832	20496.525
279.44768	20183.225
283.68397	19744.525
287.91719	19373.325
292.14735	19123.725
296.37445	19019.125
300.59849	19088.025
304.81948	19234.525
309.03742	19314.725
313.25231	19265.325
317.46415	18987.625
321.67296	18581.525
325.87872	18251.225
330.08145	18131.825
334.28114	18094.825
338.47781	18285.825
342.67145	18477.825
346.86207	18894.325
351.04966	19282.725
355.23424	19742.625
359.4158	20090.525
363.59435	20345.225
367.76989	20474.825
371.94243	20538.825
376.11196	20600.025
380.27849	20626.525
384.44203	20692.525
388.60257	20821.125
392.76012	20988.425
396.91468	21244.325
401.06626	21567.325
405.21485	21749.125
409.36047	21604.125
413.50311	21274.325
417.64277	21003.125
421.77947	20901.725
425.9132	20988.825
430.04396	21068.825
434.17176	21181.625
438.2966	21361.525
442.41849	21675.825
446.53742	22179.625
450.6534	22643.225
454.76644	22905.125
458.87653	22927.525
462.98368	22866.725
467.08789	22625.025
471.18916	22357.625
475.2875	21984.025
479.38291	21685.725
483.4754	21490.025
487.56496	21426.725
491.6516	21466.125
495.73531	21599.425
499.81612	21799.725
503.89401	22014.925
507.96899	22125.825
512.04106	22140.025
516.11023	22166.325
520.1765	22146.225
524.23987	22052.725
528.30034	21995.125
532.35792	21859.425
536.41261	21670.925
540.46441	21414.525
544.51333	21324.225
548.55936	21440.825
552.60252	21707.825
556.64279	22048.125
560.6802	22277.325
564.71473	22396.525
568.7464	22638.325
572.7752	22866.625
576.80114	22997.125
580.82422	23314.025
584.84444	23905.925
588.86181	24748.725
592.87633	25366.225
596.888	25468.925
600.89682	25218.025
604.9028	25896.925
608.90594	28496.325
612.90624	30850.925
616.90371	28661.425
620.89834	24453.525
624.89015	22799.525
628.87913	22738.825
632.86528	23028.625
636.84862	23256.125
640.82913	23042.325
644.80683	22604.725
648.78172	22364.625
652.75379	22331.325
656.72306	22657.225
660.68952	22974.525
664.65319	22681.825
668.61405	22321.725
672.57211	22330.925
676.52738	22526.725
680.47986	22535.125
684.42955	22544.025
688.37646	22640.625
692.32058	22668.425
696.26192	22643.725
700.20048	22648.125
704.13626	22627.625
708.06928	22454.625
711.99952	22281.025
715.927	22238.625
719.85171	22296.425
723.77365	22244.025
727.69284	22085.425
731.60928	21989.125
735.52295	22064.925
739.43388	22130.725
743.34206	22246.825
747.24749	22299.725
751.15017	22364.925
755.05012	22593.725
758.94733	23148.625
762.8418	24296.125
766.73354	26067.925
770.62254	27627.025
774.50882	27955.525
778.39237	26918.325
782.27321	25307.425
786.15132	23859.425
790.02671	22962.725
793.89938	22528.425
797.76935	22352.225
801.6366	22285.725
805.50115	22309.525
809.36299	22247.225
813.22213	22176.725
817.07857	22023.825
820.93231	21905.625
824.78336	21740.425
828.63172	21659.625
832.47738	21661.825
836.32036	21651.625
840.16066	21600.525
843.99827	21585.225
847.8332	21617.125
851.66546	21674.325
855.49504	21746.025
859.32195	21741.825
863.1462	21772.625
866.96777	21755.425
870.78668	21772.025
874.60293	21854.325
878.41652	21961.625
882.22745	22062.925
886.03573	22161.625
889.84136	22180.125
893.64433	22088.325
897.44466	21995.825
901.24235	21915.625
905.0374	21827.125
908.8298	21746.825
912.61957	21669.725
916.40671	21739.725
920.19121	21840.025
923.97308	21962.625
927.75233	22071.525
931.52895	22012.825
935.30295	21839.125
939.07433	21562.025
942.84309	21360.725
946.60924	21263.825
950.37278	21251.525
954.13371	21252.725
957.89203	21245.125
961.64774	21257.125
965.40086	21258.925
969.15137	21265.525
972.89929	21286.025
976.64461	21262.025
980.38733	21248.525
984.12747	21351.725
987.86502	21391.425
991.59999	21546.625
995.33237	21683.725
999.06217	21954.225
1002.78939	22377.125
1006.51404	22765.625
1010.23611	23131.925
1013.95561	23366.525
1017.67255	23388.225
1021.38692	23173.925
1025.09872	22810.925
1028.80796	22567.025
1032.51465	22502.325
1036.21877	22545.825
1039.92035	22564.325
1043.61937	22563.825
1047.31584	22587.825
1051.00976	22549.525
1054.70114	22572.625
1058.38998	22637.525
1062.07627	22796.025
1065.76003	23008.025
1069.44126	23297.725
1073.11995	23672.425
1076.79611	24102.925
1080.46974	24356.425
1084.14085	24579.625
1087.80943	24706.625
1091.47549	24881.225
1095.13903	24749.825
1098.80005	24387.425
1102.45857	24025.925
1106.11456	23793.125
1109.76805	23689.425
1113.41903	23797.125
1117.06751	24023.225
1120.71348	24348.725
1124.35696	24836.125
1127.99793	25326.625
1131.63641	25582.825
1135.2724	25420.325
1138.90589	25193.725
1142.5369	25083.125
1146.16542	24940.025
1149.79145	24766.825
1153.415	24551.925
1157.03607	24436.125
1160.65467	24607.525
1164.27079	25066.025
1167.88443	25848.425
1171.49561	26895.725
1175.10432	28386.525
1178.71056	30267.225
1182.31434	31966.125
1185.91565	32694.025
1189.51451	32583.725
1193.11091	31961.725
1196.70485	31110.825
1200.29634	30261.725
1203.88538	29614.125
1207.47197	28944.525
1211.05612	28397.925
1214.63782	27910.225
1218.21708	27441.425
1221.79391	27170.925
1225.36829	27158.125
1228.94024	27053.725
1232.50976	26837.225
1236.07685	26579.125
1239.6415	26417.525
1243.20374	26354.725
1246.76355	26497.425
1250.32093	26825.525
1253.8759	27177.025
1257.42845	27768.925
1260.97859	28402.725
1264.52631	29160.625
1268.07163	29820.125
1271.61453	30389.925
1275.15503	30751.725
1278.69312	31072.025
1282.22882	31254.525
1285.76211	31763.325
1289.29301	32452.025
1292.82151	33297.625
1296.34761	34267.125
1299.87133	35586.225
1303.39266	37186.025
1306.9116	39151.825
1310.42815	41111.325
1313.94233	42018.825
1317.45412	41432.325
1320.96354	40013.525
1324.47058	38580.825
1327.97525	37448.125
1331.47754	36708.925
1334.97747	36408.525
1338.47502	36601.425
1341.97022	37072.725
1345.46305	37839.525
1348.95352	38690.425
1352.44163	39750.825
1355.92738	41086.925
1359.41078	43143.525
1362.89183	44764.325
1366.37053	43757.025
1369.84688	40000.725
1373.32088	35940.625
1376.79254	33411.325
1380.26186	32198.925
1383.72883	31727.425
1387.19347	31298.525
1390.65578	30779.025
1394.11575	30295.725
1397.57339	29990.225
1401.0287	29884.125
1404.48168	29826.025
1407.93234	29774.525
1411.38068	29657.525
1414.82669	29346.425
1418.27039	28952.725
1421.71177	28511.525
1425.15083	28247.125
1428.58758	28216.825
1432.02203	28476.325
1435.45416	28979.625
1438.88399	29415.225
1442.31151	29593.725
1445.73673	29682.625
1449.15965	29681.725
1452.58027	29669.025
1455.9986	29643.525
1459.41463	29851.625
1462.82837	30313.825
1466.23982	30874.425
1469.64898	31332.825
1473.05586	31648.525
1476.46045	31784.725
1479.86276	31738.925
1483.26279	31693.925
1486.66054	31859.525
1490.05602	32203.925
1493.44922	32777.425
1496.84016	33548.425
1500.22882	34854.225
1503.61521	36551.025
1506.99934	38293.025
1510.38121	39334.925
1513.76081	39173.325
1517.13816	37614.925
1520.51324	35465.125
1523.88607	33666.425
1527.25665	32637.825
1530.62498	32222.025
1533.99105	31996.525
1537.35488	31776.125
1540.71647	31440.125
1544.07581	31028.125
1547.4329	30729.125
1550.78776	30476.825
1554.14038	30314.725
1557.49077	30260.025
1560.83892	30333.625
1564.18484	30551.025
1567.52853	30848.325
1570.86999	31148.125
1574.20922	31347.025
1577.54624	31292.825
1580.88103	30708.125
1584.2136	30144.525
1587.54395	30213.625
1590.87208	30908.025
1594.19801	32176.225
1597.52172	33585.425
1600.84321	34051.325
1604.16251	33259.525
1607.47959	31699.725
1610.79447	29927.325
1614.10715	28168.625
1617.41763	26832.025
1620.7259	25896.725
1624.03199	25423.825
1627.33587	25379.625
1630.63757	25813.225
1633.93707	26861.325
1637.23439	28568.525
1640.52951	31113.825
1643.82246	34050.825
1647.11321	36332.525
1650.40179	36749.025
1653.68819	34693.525
1656.97241	31134.525
1660.25446	27842.625
1663.53433	25534.825
1666.81203	24098.125
1670.08756	23207.125
1673.36092	22630.525
1676.63211	22270.425
1679.90115	21941.825
1683.16801	21704.125
1686.43272	21411.725
1689.69527	21171.225
1692.95567	20970.125
1696.2139	20832.825
1699.46999	20738.325
1702.72392	20612.825
1705.97571	20501.625
1709.22535	20434.325
1712.47284	20439.525
1715.71819	20369.325
1718.96139	20337.325
1722.20246	20283.425
1725.44139	20158.925
1728.67818	20023.525
1731.91284	19918.525
1735.14537	19792.125
1738.37576	19718.825
1741.60403	19633.525
1744.83017	19595.325
1748.05418	19550.725
1751.27607	19507.525
1754.49584	19430.425
1757.71349	19422.825
1760.92903	19414.425
1764.14244	19340.425
1767.35375	19378.425
1770.56294	19279.425
1773.77002	19291.925
1776.97499	19259.825
1780.17785	19234.225
1783.37861	19176.325
1786.57727	19171.325
1789.77382	19151.425
1792.96828	19107.525
1796.16064	19069.925
1799.3509	19074.325
1802.53907	19004.125
1805.72514	18964.225
1808.90913	18891.125
1812.09102	18849.225
1815.27083	18860.425
1818.44856	18817.025
1821.6242	18796.325
1824.79776	18799.925
1827.96924	18757.025
1831.13864	18727.825
1834.30597	18698.125
1837.47122	18682.525
1840.6344	18696.225
1843.7955	18685.925
1846.95454	18660.525
1850.11151	18664.525
1853.26642	18659.925
1856.41926	18651.625
1859.57004	18660.925
1862.71876	18601.625
1865.86542	18580.425
1869.01003	18532.425
1872.15258	18545.125
1875.29308	18548.325
1878.43152	18511.925
1881.56792	18497.425
1884.70227	18461.025
1887.83457	18400.525
1890.96482	18413.325
1894.09304	18377.125
1897.21921	18338.625
1900.34335	18305.825
1903.46544	18310.225
1906.58551	18291.325
1909.70353	18294.425
1912.81953	18274.425
1915.93349	18222.825
1919.04543	18206.125
1922.15534	18172.925
1925.26322	18119.825
1928.36908	18094.025
1931.47292	18072.925
1934.57473	18021.825
1937.67453	17983.425
1940.77232	17947.125
1943.86808	17890.625
1946.96184	17837.125
1950.05358	17809.825
1953.14331	17783.425
1956.23103	17699.425
1959.31675	17669.225
1962.40046	17645.225
1965.48217	17581.625
1968.56188	17520.225
1971.63959	17473.425
1974.7153	17421.225
1977.78901	17353.325
1980.86073	17295.925
1983.93046	17247.725
1986.99819	17165.825
1990.06394	17155.825
1993.1277	17145.825
1996.18947	17056.925
1999.24925	17023.025
2002.30706	16994.025
2005.36288	16936.825
2008.41672	16880.825
2011.46859	16858.225
2014.51848	16797.925
2017.56639	16766.625
2020.61233	16726.225
2023.6563	16711.225
2026.6983	16683.225
2029.73833	16632.225
2032.7764	16536.525
2035.8125	16502.825
2038.84664	16457.425
2041.87881	16464.425
2044.90903	16429.425
2047.93729	16435.825
2050.96359	16398.025
2053.98794	16357.025
2057.01034	16358.925
2060.03078	16325.125
2063.04927	16307.525
2066.06582	16335.525
2069.08042	16297.725
2072.09307	16283.225
2075.10378	16297.325
2078.11255	16301.725
2081.11938	16279.325
2084.12426	16294.425
2087.12722	16257.525
2090.12824	16262.725
2093.12732	16291.425
2096.12447	16283.925
2099.11969	16275.625
2102.11299	16257.925
2105.10435	16258.525
2108.09379	16231.825
2111.08131	16249.025
2114.0669	16278.225
2117.05057	16286.125
2120.03233	16315.625
2123.01216	16308.525
2125.99008	16322.025
2128.96609	16355.325
2131.94018	16363.925
2134.91236	16366.725
2137.88263	16364.825
2140.851	16339.225
2143.81746	16374.625
2146.78201	16388.525
2149.74466	16392.125
2152.7054	16381.025
2155.66425	16360.625
2158.6212	16355.125
2161.57625	16334.325
2164.52941	16341.325
2167.48067	16364.025
2170.43004	16381.025
2173.37752	16349.725
2176.32311	16318.425
2179.26681	16331.425
2182.20863	16323.525
2185.14856	16371.925
2188.08661	16317.725
2191.02278	16320.325
2193.95707	16328.625
2196.88948	16335.825
2199.82001	16304.325
2202.74867	16275.725
2205.67545	16264.425
2208.60037	16214.625
2211.52341	16212.025
2214.44458	16206.025
2217.36388	16175.525
2220.28132	16145.425
2223.1969	16051.425
2226.11061	16074.425
2229.02246	16040.525
2231.93245	16041.825
2234.84058	15984.525
2237.74686	15980.525
2240.65128	15930.825
2243.55385	15937.825
2246.45456	15892.625
2249.35343	15894.225
2252.25044	15836.425
2255.14561	15815.425
2258.03893	15829.825
2260.93041	15780.425
2263.82004	15744.325
2266.70783	15708.025
2269.59378	15673.425
2272.4779	15664.225
2275.36017	15646.525
2278.24061	15620.825
2281.11922	15568.525
2283.996	15560.625
2286.87094	15537.025
2289.74405	15510.925
2292.61534	15516.725
2295.4848	15465.225
2298.35243	15450.925
2301.21824	15439.625
2304.08223	15440.625
2306.94439	15425.125
2309.80474	15413.825
2312.66327	15431.725
2315.51999	15406.125
2318.37489	15371.225
2321.22797	15364.225
2324.07925	15342.025
2326.92871	15298.025
2329.77637	15288.925
2332.62222	15222.225
2335.46626	15224.025
2338.3085	15206.525
2341.14893	15199.825
2343.98756	15217.425
2346.8244	15216.725
2349.65943	15192.625
2352.49267	15168.425
2355.32411	15207.025
2358.15376	15181.825
2360.98161	15204.025
2363.80768	15182.025
2366.63195	15195.825
2369.45444	15137.825
2372.27514	15161.625
2375.09405	15151.625
2377.91118	15081.925
2380.72652	15077.025
2383.54009	15009.425
2386.35187	14979.025
2389.16188	14949.025
2391.97011	14930.925
2394.77657	14905.125
2397.58125	14908.625
2400.38416	14869.125
2403.18529	14855.325
2405.98466	14818.225
2408.78226	14807.425
2411.57809	14772.625
2414.37216	14754.925
2417.16446	14777.325
2419.955	14749.925
2422.74378	14754.625
2425.5308	14748.725
2428.31606	14715.525
2431.09956	14701.925
2433.88131	14696.225
2436.6613	14701.125
2439.43954	14694.225
2442.21603	14666.925
2444.99077	14657.825
2447.76377	14653.825
2450.53501	14658.725
2453.30451	14621.625
2456.07226	14647.725
2458.83827	14603.825
2461.60254	14595.925
2464.36507	14578.525
2467.12586	14562.225
2469.88492	14560.025
2472.64224	14594.725
2475.39782	14572.425
2478.15167	14563.925
2480.90379	14575.125
2483.65417	14575.525
2486.40283	14531.525
2489.14976	14559.125
2491.89497	14533.025
2494.63845	14499.625
2497.3802	14500.825
2500.12024	14518.725
2502.85855	14513.725
2505.59514	14501.025
2508.33002	14444.225
2511.06318	14417.425
2513.79462	14402.025
2516.52435	14387.025
2519.25237	14343.925
2521.97867	14327.825
2524.70327	14353.425
2527.42616	14314.125
2530.14734	14295.525
2532.86681	14301.225
2535.58458	14325.925
2538.30065	14291.925
2541.01501	14270.325
2543.72768	14276.225
2546.43864	14258.625
2549.14791	14230.425
2551.85548	14248.825
2554.56136	14193.825
2557.26554	14186.625
2559.96803	14184.325
2562.66883	14131.125
2565.36794	14129.225
2568.06536	14118.425
2570.7611	14073.325
2573.45514	14055.425
2576.14751	14054.125
2578.83819	14021.025
2581.52719	13988.325
2584.21451	13972.225
2586.90015	13963.225
2589.58411	13909.125
2592.2664	13895.125
2594.94701	13920.625
2597.62594	13881.025
2600.30321	13903.925
2602.9788	13913.925
2605.65273	13879.325
2608.32498	13861.525
2610.99557	13831.025
2613.66449	13832.925
2616.33175	13763.825
2618.99734	13813.725
2621.66128	13785.025
2624.32355	13778.525
2626.98416	13740.425
2629.64311	13704.425
2632.30041	13720.925
2634.95605	13702.125
2637.61004	13638.225
2640.26238	13657.225
2642.91306	13636.325
2645.56209	13594.725
2648.20948	13632.725
2650.85521	13626.825
2653.4993	13608.125
2656.14175	13606.825
2658.78255	13623.425
2661.42171	13638.625
2664.05923	13626.425
2666.6951	13632.725
2669.32934	13664.525
2671.96194	13661.925
2674.59291	13680.325
2677.22224	13640.325
2679.84993	13667.325
2682.476	13653.625
2685.10043	13651.425
2687.72324	13604.525
2690.34441	13603.025
2692.96396	13606.325
2695.58188	13594.325
2698.19818	13610.325
2700.81285	13624.325
2703.4259	13594.025
2706.03733	13652.525
2708.64714	13618.825
2711.25533	13615.925
2713.86191	13649.025
2716.46687	13684.425
2719.07021	13675.025
2721.67194	13647.525
2724.27206	13615.825
2726.87057	13664.425
2729.46747	13661.125
2732.06276	13678.525
2734.65644	13627.425
2737.24852	13643.725
2739.83899	13634.925
2742.42786	13622.325
2745.01513	13598.525
2747.60079	13562.825
2750.18486	13572.825
2752.76733	13540.325
2755.3482	13514.325
2757.92747	13522.925
2760.50515	13468.425
2763.08123	13464.425
2765.65573	13458.225
2768.22863	13456.725
2770.79994	13428.525
2773.36967	13428.425
2775.9378	13413.325
2778.50435	13417.725
2781.06932	13385.725
2783.6327	13375.225
2786.1945	13379.325
2788.75471	13331.925
2791.31335	13299.025
2793.87041	13281.825
2796.42589	13232.425
2798.97979	13231.925
2801.53212	13195.125
2804.08288	13177.425
2806.63206	13163.925
2809.17967	13097.025
2811.72571	13092.925
2814.27018	13076.625
2816.81308	13026.325
2819.35442	13002.425
2821.89419	12954.225
2824.43239	12970.225
2826.96904	12980.525
2829.50412	12974.525
2832.03763	12938.325
2834.56959	12931.725
2837.1	12902.525
2839.62884	12909.225
2842.15613	12872.825
2844.68186	12899.025
2847.20604	12867.725
2849.72867	12871.025
2852.24974	12876.325
2854.76927	12849.625
2857.28724	12812.825
2859.80367	12812.125
2862.31855	12803.525
2864.83189	12805.025
2867.34368	12777.925
2869.85393	12781.725
2872.36264	12741.925
2874.8698	12766.625
2877.37543	12765.725
2879.87952	12761.825
2882.38207	12744.125
2884.88308	12731.525
2887.38256	12717.925
2889.88051	12736.625
2892.37692	12748.025
2894.8718	12720.225
2897.36515	12758.925
2899.85698	12732.325
2902.34727	12764.525
2904.83604	12758.025
2907.32328	12756.325
2909.809	12762.525
2912.29319	12780.225
2914.77587	12762.125
2917.25702	12770.525
2919.73665	12775.125
2922.21476	12746.325
2924.69136	12718.625
2927.16644	12720.425
2929.64	12695.925
2932.11205	12684.425
2934.58258	12643.625
2937.05161	12658.525
2939.51912	12669.825
2941.98513	12632.925
2944.44962	12597.425
2946.91261	12568.225
2949.37409	12592.525
2951.83407	12569.125
2954.29254	12567.625
2956.74951	12575.125
2959.20498	12593.525
2961.65895	12565.025
2964.11142	12580.125
2966.56239	12559.825
2969.01186	12529.325
2971.45984	12506.625
2973.90632	12477.425
2976.35131	12470.825
2978.7948	12440.725
2981.23681	12417.125
2983.67732	12426.925
2986.11635	12390.925
2988.55388	12389.025
2990.98993	12348.225
2993.4245	12312.525
2995.85758	12284.425
2998.28917	12262.525
3000.71928	12243.225
3003.14791	12223.425
3005.57506	12194.925
3008.00073	12166.325
3010.42493	12149.125
3012.84764	12157.425
3015.26888	12156.425
3017.68865	12115.325
3020.10694	12101.325
3022.52376	12054.125
3024.9391	12059.425
3027.35298	12027.825
3029.76539	12001.225
3032.17632	11998.825
3034.5858	11983.525
3036.9938	11978.425
3039.40034	11943.325
3041.80542	11960.325
3044.20903	11938.525
3046.61118	11953.025
3049.01187	11906.125
3051.4111	11890.725
3053.80888	11840.125
3056.20519	11840.225
3058.60005	11811.425
3060.99345	11797.525
3063.3854	11777.425
3065.7759	11758.525
3068.16494	11737.825
3070.55254	11668.725
3072.93868	11682.725
3075.32338	11634.425
3077.70662	11617.925
3080.08842	11608.225
3082.46878	11594.025
3084.84769	11567.525
3087.22515	11558.125
3089.60118	11597.425
3091.97576	11555.025
3094.3489	11565.925
3096.72061	11528.225
3099.09087	11544.725
3101.4597	11543.525
3103.82709	11544.225
3106.19305	11542.425
3108.55757	11539.325
3110.92066	11517.025
3113.28232	11497.625
3115.64255	11461.425
3118.00134	11426.425
3120.35871	11426.625
3122.71466	11409.725
3125.06917	11409.325
3127.42226	11375.725
3129.77393	11364.125
