Data from AgNPs_APTES_FTO_UA_100uM_CRN_0uM_R6G_10uM_Scan_RamanShift__3__15-46-12-930.txt Node

Date: Mon Jul 11 15:46:12 BST 2022
User: TCL
Spectrometer: QEP01345
Trigger mode: 4
Integration Time (sec): 7.000000E0
Scans to average: 10
Electric dark correction enabled: true
Nonlinearity correction enabled: false
Boxcar width: 0
XAxis mode: Raman Shifts
Number of Pixels in Spectrum: 1044
>>>>>Begin Spectral Data<<<<<
46.04893	-0.625
50.45542	-0.625
54.85868	-0.525
59.25871	-2.925
63.6555	48.275
68.04907	53.475
72.43941	54.175
76.82654	60.975
81.21044	64.775
85.59113	62.975
89.96862	66.975
94.34289	68.475
98.71396	73.575
103.08183	71.875
107.4465	73.775
111.80798	74.875
116.16626	77.675
120.52136	83.675
124.87327	86.175
129.222	90.875
133.56755	96.275
137.90993	105.775
142.24913	115.075
146.58517	127.175
150.91804	146.575
155.24774	185.375
159.57429	226.675
163.89768	293.875
168.21792	378.875
172.53501	519.275
176.84895	723.375
181.15975	1010.275
185.46741	1417.475
189.77193	1964.675
194.07331	2630.475
198.37157	3387.175
202.6667	4198.375
206.9587	4996.975
211.24758	5799.975
215.53334	6633.675
219.81599	7471.075
224.09553	8401.775
228.37195	9412.275
232.64527	10528.175
236.91549	11691.575
241.18261	12833.975
245.44663	13854.575
249.70755	14788.275
253.96539	15456.075
258.22014	16042.475
262.4718	16422.975
266.72039	16620.475
270.96589	16610.775
275.20832	16395.375
279.44768	16089.075
283.68397	15694.875
287.91719	15348.875
292.14735	15117.975
296.37445	14970.275
300.59849	14962.275
304.81948	15007.975
309.03742	14936.475
313.25231	14751.075
317.46415	14397.475
321.67296	14052.375
325.87872	13818.475
330.08145	13679.375
334.28114	13735.075
338.47781	13869.575
342.67145	14038.775
346.86207	14294.575
351.04966	14622.475
355.23424	14964.475
359.4158	15326.975
363.59435	15570.775
367.76989	15769.675
371.94243	15899.675
376.11196	16007.275
380.27849	16151.075
384.44203	16263.975
388.60257	16386.275
392.76012	16465.775
396.91468	16638.375
401.06626	16839.075
405.21485	16982.075
409.36047	16888.275
413.50311	16624.175
417.64277	16400.575
421.77947	16244.475
425.9132	16202.975
430.04396	16185.675
434.17176	16244.875
438.2966	16360.675
442.41849	16621.275
446.53742	16862.275
450.6534	17129.575
454.76644	17302.475
458.87653	17464.775
462.98368	17467.575
467.08789	17438.375
471.18916	17372.575
475.2875	17230.775
479.38291	17178.175
483.4754	17085.575
487.56496	17028.675
491.6516	17025.875
495.73531	17000.575
499.81612	17045.975
503.89401	17168.775
507.96899	17242.475
512.04106	17289.075
516.11023	17354.075
520.1765	17384.475
524.23987	17366.075
528.30034	17326.775
532.35792	17321.975
536.41261	17277.875
540.46441	17176.775
544.51333	17140.275
548.55936	17151.675
552.60252	17276.875
556.64279	17446.075
560.6802	17607.575
564.71473	17707.975
568.7464	17825.775
572.7752	17765.275
576.80114	17647.075
580.82422	17619.675
584.84444	17715.575
588.86181	17815.275
592.87633	17795.475
596.888	17873.175
600.89682	18199.475
604.9028	19228.975
608.90594	21555.375
612.90624	23711.675
616.90371	22252.275
620.89834	19184.175
624.89015	17941.075
628.87913	17805.775
632.86528	18157.575
636.84862	18460.175
640.82913	18348.075
644.80683	18008.975
648.78172	17720.275
652.75379	17715.675
656.72306	17987.875
660.68952	18351.975
664.65319	18345.775
668.61405	18347.875
672.57211	18600.275
676.52738	18984.275
680.47986	19559.175
684.42955	20196.675
688.37646	20686.475
692.32058	20711.975
696.26192	20282.375
700.20048	19898.975
704.13626	19671.775
708.06928	19566.975
711.99952	19340.775
715.927	18958.575
719.85171	18609.075
723.77365	18308.175
727.69284	18128.375
731.60928	18031.775
735.52295	18052.175
739.43388	18005.275
743.34206	17984.475
747.24749	17891.175
751.15017	17860.375
755.05012	17851.375
758.94733	18141.475
762.8418	18895.875
766.73354	20090.175
770.62254	21393.275
774.50882	22088.975
778.39237	21662.175
782.27321	20480.175
786.15132	19347.575
790.02671	18599.675
793.89938	18209.275
797.76935	18005.275
801.6366	17788.175
805.50115	17688.175
809.36299	17580.075
813.22213	17510.475
817.07857	17427.875
820.93231	17450.675
824.78336	17443.375
828.63172	17453.375
832.47738	17423.075
836.32036	17384.275
840.16066	17350.175
843.99827	17364.375
847.8332	17376.675
851.66546	17430.175
855.49504	17444.075
859.32195	17519.575
863.1462	17553.275
866.96777	17545.975
870.78668	17561.775
874.60293	17615.575
878.41652	17644.675
882.22745	17656.075
886.03573	17658.575
889.84136	17646.275
893.64433	17623.075
897.44466	17534.675
901.24235	17454.875
905.0374	17475.675
908.8298	17370.375
912.61957	17338.075
916.40671	17382.775
920.19121	17439.675
923.97308	17448.375
927.75233	17520.375
931.52895	17531.675
935.30295	17484.975
939.07433	17377.475
942.84309	17286.575
946.60924	17261.375
950.37278	17278.675
954.13371	17326.075
957.89203	17319.875
961.64774	17310.675
965.40086	17208.775
969.15137	17129.675
972.89929	17064.875
976.64461	17028.375
980.38733	16965.575
984.12747	16980.075
987.86502	17015.175
991.59999	17076.175
995.33237	17140.375
999.06217	17255.175
1002.78939	17415.775
1006.51404	17618.075
1010.23611	17842.475
1013.95561	18026.375
1017.67255	18082.775
1021.38692	18035.875
1025.09872	17830.075
1028.80796	17614.475
1032.51465	17521.675
1036.21877	17571.375
1039.92035	17642.975
1043.61937	17709.975
1047.31584	17766.375
1051.00976	17808.775
1054.70114	17867.775
1058.38998	17911.575
1062.07627	17952.275
1065.76003	18094.375
1069.44126	18257.175
1073.11995	18539.575
1076.79611	18792.475
1080.46974	18889.675
1084.14085	18968.475
1087.80943	19056.775
1091.47549	19165.975
1095.13903	19100.675
1098.80005	19034.775
1102.45857	18869.575
1106.11456	18762.075
1109.76805	18694.175
1113.41903	18741.275
1117.06751	18880.075
1120.71348	19076.775
1124.35696	19351.275
1127.99793	19651.675
1131.63641	19802.175
1135.2724	19729.375
1138.90589	19555.275
1142.5369	19416.575
1146.16542	19247.275
1149.79145	19038.775
1153.415	18887.175
1157.03607	18782.275
1160.65467	18817.375
1164.27079	19099.275
1167.88443	19564.175
1171.49561	20167.875
1175.10432	21109.975
1178.71056	22289.675
1182.31434	23373.175
1185.91565	23943.475
1189.51451	24079.275
1193.11091	23863.475
1196.70485	23370.475
1200.29634	22819.075
1203.88538	22201.475
1207.47197	21534.175
1211.05612	20948.875
1214.63782	20527.175
1218.21708	20206.375
1221.79391	19943.275
1225.36829	19790.075
1228.94024	19683.175
1232.50976	19643.975
1236.07685	19653.975
1239.6415	19602.375
1243.20374	19656.875
1246.76355	19780.275
1250.32093	19948.075
1253.8759	20189.075
1257.42845	20545.575
1260.97859	20902.975
1264.52631	21303.575
1268.07163	21637.975
1271.61453	21904.875
1275.15503	22197.775
1278.69312	22422.075
1282.22882	22563.975
1285.76211	22806.675
1289.29301	23148.375
1292.82151	23551.175
1296.34761	24117.875
1299.87133	24857.775
1303.39266	25692.775
1306.9116	26846.175
1310.42815	28053.775
1313.94233	28722.075
1317.45412	28481.675
1320.96354	27815.775
1324.47058	27098.175
1327.97525	26230.575
1331.47754	25638.375
1334.97747	25395.675
1338.47502	25556.175
1341.97022	26038.675
1345.46305	26821.575
1348.95352	27671.775
1352.44163	28663.775
1355.92738	29656.775
1359.41078	30865.875
1362.89183	31928.175
1366.37053	31203.775
1369.84688	28646.675
1373.32088	26187.275
1376.79254	24593.075
1380.26186	23686.175
1383.72883	23163.475
1387.19347	22771.075
1390.65578	22338.975
1394.11575	21938.775
1397.57339	21644.575
1401.0287	21465.675
1404.48168	21347.575
1407.93234	21235.475
1411.38068	21267.975
1414.82669	21126.475
1418.27039	20913.775
1421.71177	20733.775
1425.15083	20621.975
1428.58758	20484.475
1432.02203	20575.475
1435.45416	20784.275
1438.88399	20980.075
1442.31151	21265.675
1445.73673	21503.075
1449.15965	21891.875
1452.58027	22249.875
1455.9986	22559.575
1459.41463	22919.575
1462.82837	23379.075
1466.23982	23751.675
1469.64898	23992.175
1473.05586	24130.175
1476.46045	23975.475
1479.86276	23759.075
1483.26279	23523.275
1486.66054	23343.775
1490.05602	23300.675
1493.44922	23486.275
1496.84016	24014.675
1500.22882	25049.675
1503.61521	26544.175
1506.99934	28055.075
1510.38121	29090.075
1513.76081	29164.575
1517.13816	28139.275
1520.51324	26519.275
1523.88607	25037.575
1527.25665	23984.375
1530.62498	23400.375
1533.99105	23042.775
1537.35488	22895.875
1540.71647	22720.975
1544.07581	22650.875
1547.4329	22567.075
1550.78776	22486.075
1554.14038	22398.775
1557.49077	22362.975
1560.83892	22468.675
1564.18484	22726.475
1567.52853	23010.875
1570.86999	23297.075
1574.20922	23459.075
1577.54624	23381.675
1580.88103	22920.775
1584.2136	22306.975
1587.54395	21933.775
1590.87208	21975.575
1594.19801	22367.975
1597.52172	23086.375
1600.84321	23402.775
1604.16251	23160.575
1607.47959	22559.275
1610.79447	21814.375
1614.10715	20917.275
1617.41763	20122.775
1620.7259	19545.375
1624.03199	19163.375
1627.33587	19065.175
1630.63757	19143.875
1633.93707	19506.875
1637.23439	20153.075
1640.52951	21244.175
1643.82246	22561.075
1647.11321	23812.275
1650.40179	24492.275
1653.68819	24006.975
1656.97241	22437.475
1660.25446	20766.975
1663.53433	19517.775
1666.81203	18748.175
1670.08756	18295.675
1673.36092	17979.775
1676.63211	17742.875
1679.90115	17559.575
1683.16801	17358.975
1686.43272	17219.375
1689.69527	17102.175
1692.95567	16946.975
1696.2139	16838.575
1699.46999	16738.775
1702.72392	16642.175
1705.97571	16553.475
1709.22535	16494.275
1712.47284	16422.475
1715.71819	16360.975
1718.96139	16281.175
1722.20246	16222.875
1725.44139	16129.275
1728.67818	16055.575
1731.91284	15953.275
1735.14537	15858.675
1738.37576	15751.475
1741.60403	15682.175
1744.83017	15583.075
1748.05418	15537.175
1751.27607	15467.675
1754.49584	15416.275
1757.71349	15348.075
1760.92903	15369.075
1764.14244	15308.175
1767.35375	15336.375
1770.56294	15290.775
1773.77002	15272.575
1776.97499	15248.575
1780.17785	15190.775
1783.37861	15164.475
1786.57727	15158.275
1789.77382	15096.875
1792.96828	15069.275
1796.16064	15014.075
1799.3509	15013.175
1802.53907	14986.275
1805.72514	14975.575
1808.90913	14935.375
1812.09102	14895.375
1815.27083	14851.675
1818.44856	14827.075
1821.6242	14792.175
1824.79776	14784.975
1827.96924	14798.275
1831.13864	14752.375
1834.30597	14685.775
1837.47122	14699.875
1840.6344	14674.675
1843.7955	14695.075
1846.95454	14717.075
1850.11151	14705.475
1853.26642	14688.475
1856.41926	14657.775
1859.57004	14645.275
1862.71876	14611.175
1865.86542	14636.275
1869.01003	14591.375
1872.15258	14625.675
1875.29308	14599.275
1878.43152	14562.175
1881.56792	14544.575
1884.70227	14541.375
1887.83457	14564.175
1890.96482	14538.375
1894.09304	14526.475
1897.21921	14514.175
1900.34335	14503.775
1903.46544	14509.875
1906.58551	14538.675
1909.70353	14468.375
1912.81953	14488.975
1915.93349	14462.475
1919.04543	14419.175
1922.15534	14400.375
1925.26322	14392.675
1928.36908	14357.875
1931.47292	14330.175
1934.57473	14301.475
1937.67453	14286.775
1940.77232	14247.275
1943.86808	14174.475
1946.96184	14176.675
1950.05358	14112.275
1953.14331	14126.075
1956.23103	14090.475
1959.31675	14005.075
1962.40046	14021.075
1965.48217	13967.175
1968.56188	13925.875
1971.63959	13868.875
1974.7153	13831.875
1977.78901	13804.775
1980.86073	13818.075
1983.93046	13751.075
1986.99819	13717.475
1990.06394	13651.575
1993.1277	13616.475
1996.18947	13592.575
1999.24925	13553.675
2002.30706	13518.975
2005.36288	13484.275
2008.41672	13455.675
2011.46859	13418.275
2014.51848	13384.875
2017.56639	13357.075
2020.61233	13318.375
2023.6563	13312.975
2026.6983	13272.475
2029.73833	13246.475
2032.7764	13207.375
2035.8125	13148.675
2038.84664	13152.575
2041.87881	13133.275
2044.90903	13131.975
2047.93729	13111.275
2050.96359	13117.575
2053.98794	13107.975
2057.01034	13095.775
2060.03078	13113.875
2063.04927	13073.075
2066.06582	13105.275
2069.08042	13154.875
2072.09307	13146.575
2075.10378	13153.275
2078.11255	13171.575
2081.11938	13210.475
2084.12426	13209.775
2087.12722	13247.375
2090.12824	13245.675
2093.12732	13283.375
2096.12447	13268.075
2099.11969	13272.475
2102.11299	13301.975
2105.10435	13312.375
2108.09379	13345.575
2111.08131	13360.575
2114.0669	13377.075
2117.05057	13349.675
2120.03233	13374.675
2123.01216	13398.975
2125.99008	13392.775
2128.96609	13400.275
2131.94018	13420.775
2134.91236	13438.475
2137.88263	13381.175
2140.851	13373.975
2143.81746	13378.275
2146.78201	13337.675
2149.74466	13333.175
2152.7054	13298.675
2155.66425	13276.875
2158.6212	13255.175
2161.57625	13245.875
2164.52941	13217.375
2167.48067	13203.175
2170.43004	13196.675
2173.37752	13210.875
2176.32311	13197.175
2179.26681	13202.975
2182.20863	13172.975
2185.14856	13202.375
2188.08661	13162.875
2191.02278	13166.275
2193.95707	13169.975
2196.88948	13156.675
2199.82001	13208.275
2202.74867	13160.075
2205.67545	13161.075
2208.60037	13143.175
2211.52341	13134.475
2214.44458	13105.375
2217.36388	13067.775
2220.28132	13026.475
2223.1969	13027.575
2226.11061	13009.575
2229.02246	12981.275
2231.93245	12947.775
2234.84058	12935.475
2237.74686	12950.975
2240.65128	12922.275
2243.55385	12905.375
2246.45456	12880.875
2249.35343	12861.375
2252.25044	12971.075
2255.14561	12871.575
2258.03893	12862.775
2260.93041	12842.575
2263.82004	12833.175
2266.70783	12826.575
2269.59378	12766.075
2272.4779	12745.475
2275.36017	12704.275
2278.24061	12689.075
2281.11922	12696.575
2283.996	12651.675
2286.87094	12602.475
2289.74405	12589.975
2292.61534	12585.575
2295.4848	12589.475
2298.35243	12577.975
2301.21824	12570.875
2304.08223	12599.475
2306.94439	12564.275
2309.80474	12557.875
2312.66327	12563.175
2315.51999	12539.675
2318.37489	12525.875
2321.22797	12535.275
2324.07925	12490.375
2326.92871	12506.975
2329.77637	12514.275
2332.62222	12453.875
2335.46626	12465.975
2338.3085	12442.075
2341.14893	12434.375
2343.98756	12441.575
2346.8244	12433.075
2349.65943	12450.475
2352.49267	12438.575
2355.32411	12423.975
2358.15376	12425.675
2360.98161	12444.075
2363.80768	12433.575
2366.63195	12447.975
2369.45444	12413.175
2372.27514	12414.575
2375.09405	12391.175
2377.91118	12365.175
2380.72652	12381.875
2383.54009	12345.475
2386.35187	12367.675
2389.16188	12300.175
2391.97011	12285.075
2394.77657	12261.375
2397.58125	12242.775
2400.38416	12233.675
2403.18529	12199.575
2405.98466	12197.275
2408.78226	12185.575
2411.57809	12198.075
2414.37216	12194.775
2417.16446	12208.175
2419.955	12192.075
2422.74378	12153.175
2425.5308	12137.875
2428.31606	12127.675
2431.09956	12138.475
2433.88131	12116.875
2436.6613	12128.975
2439.43954	12131.775
2442.21603	12130.875
2444.99077	12084.775
2447.76377	12108.575
2450.53501	12094.175
2453.30451	12099.375
2456.07226	12094.175
2458.83827	12068.475
2461.60254	12067.875
2464.36507	12038.575
2467.12586	12037.575
2469.88492	12017.975
2472.64224	12041.975
2475.39782	12039.875
2478.15167	12043.275
2480.90379	12052.875
2483.65417	12035.175
2486.40283	12066.375
2489.14976	12060.175
2491.89497	12059.575
2494.63845	12048.075
2497.3802	12029.475
2500.12024	12038.375
2502.85855	12028.775
2505.59514	12011.475
2508.33002	11985.275
2511.06318	11979.975
2513.79462	11956.475
2516.52435	11953.375
2519.25237	11938.475
2521.97867	11930.875
2524.70327	11931.275
2527.42616	11901.575
2530.14734	11927.675
2532.86681	11917.075
2535.58458	11889.275
2538.30065	11922.575
2541.01501	11883.375
2543.72768	11881.575
2546.43864	11859.875
2549.14791	11849.475
2551.85548	11841.175
2554.56136	11841.075
2557.26554	11807.575
2559.96803	11775.175
2562.66883	11766.475
2565.36794	11764.275
2568.06536	11751.475
2570.7611	11737.875
2573.45514	11737.675
2576.14751	11710.375
2578.83819	11715.175
2581.52719	11692.975
2584.21451	11667.475
2586.90015	11640.075
2589.58411	11631.675
2592.2664	11603.375
2594.94701	11624.975
2597.62594	11608.075
2600.30321	11587.875
2602.9788	11569.875
2605.65273	11560.375
2608.32498	11594.075
2610.99557	11551.975
2613.66449	11538.075
2616.33175	11541.275
2618.99734	11559.375
2621.66128	11521.775
2624.32355	11508.375
2626.98416	11483.675
2629.64311	11480.675
2632.30041	11480.175
2634.95605	11462.775
2637.61004	11432.975
2640.26238	11464.775
2642.91306	11449.175
2645.56209	11428.775
2648.20948	11420.575
2650.85521	11422.475
2653.4993	11407.175
2656.14175	11349.175
2658.78255	11405.475
2661.42171	11440.475
2664.05923	11446.675
2666.6951	11426.175
2669.32934	11464.475
2671.96194	11455.875
2674.59291	11454.275
2677.22224	11442.575
2679.84993	11468.975
2682.476	11458.575
2685.10043	11448.775
2687.72324	11460.475
2690.34441	11461.475
2692.96396	11482.475
2695.58188	11492.775
2698.19818	11512.475
2700.81285	11499.175
2703.4259	11493.175
2706.03733	11518.175
2708.64714	11518.975
2711.25533	11527.975
2713.86191	11521.075
2716.46687	11540.375
2719.07021	11505.375
2721.67194	11552.275
2724.27206	11532.675
2726.87057	11572.275
2729.46747	11544.175
2732.06276	11584.475
2734.65644	11572.675
2737.24852	11570.075
2739.83899	11542.075
2742.42786	11542.375
2745.01513	11528.175
2747.60079	11534.675
2750.18486	11515.075
2752.76733	11501.575
2755.3482	11479.875
2757.92747	11499.875
2760.50515	11471.875
2763.08123	11480.475
2765.65573	11475.675
2768.22863	11449.275
2770.79994	11431.375
2773.36967	11443.675
2775.9378	11457.975
2778.50435	11429.475
2781.06932	11377.975
2783.6327	11423.975
2786.1945	11373.875
2788.75471	11352.575
2791.31335	11326.475
2793.87041	11333.475
2796.42589	11301.275
2798.97979	11278.975
2801.53212	11288.775
2804.08288	11264.675
2806.63206	11226.275
2809.17967	11231.575
2811.72571	11188.275
2814.27018	11204.875
2816.81308	11140.975
2819.35442	11117.875
2821.89419	11085.075
2824.43239	11133.275
2826.96904	11104.175
2829.50412	11087.175
2832.03763	11042.775
2834.56959	11092.875
2837.1	11074.375
2839.62884	11073.375
2842.15613	11072.075
2844.68186	11076.675
2847.20604	11054.875
2849.72867	11067.675
2852.24974	11047.475
2854.76927	11044.575
2857.28724	11038.275
2859.80367	11039.975
2862.31855	11016.175
2864.83189	11032.875
2867.34368	11000.075
2869.85393	11000.975
2872.36264	11000.075
2874.8698	10997.875
2877.37543	10998.875
2879.87952	11025.975
2882.38207	11026.775
2884.88308	11031.075
2887.38256	11043.775
2889.88051	11021.875
2892.37692	11038.075
2894.8718	11017.975
2897.36515	11066.275
2899.85698	11053.675
2902.34727	11073.975
2904.83604	11093.675
2907.32328	11147.175
2909.809	11111.675
2912.29319	11124.775
2914.77587	11127.375
2917.25702	11151.875
2919.73665	11155.275
2922.21476	11183.175
2924.69136	11153.275
2927.16644	11185.575
2929.64	11141.575
2932.11205	11165.075
2934.58258	11102.375
2937.05161	11136.775
2939.51912	11102.975
2941.98513	11092.175
2944.44962	11064.975
2946.91261	11056.475
2949.37409	11082.475
2951.83407	11092.275
2954.29254	11091.875
2956.74951	11067.175
2959.20498	11063.575
2961.65895	11076.075
2964.11142	11099.275
2966.56239	11051.975
2969.01186	11071.975
2971.45984	11046.275
2973.90632	11039.675
2976.35131	11005.175
2978.7948	11019.375
2981.23681	10988.675
2983.67732	10979.375
2986.11635	10943.175
2988.55388	10941.675
2990.98993	10958.675
2993.4245	10928.175
2995.85758	10920.975
2998.28917	10887.875
3000.71928	10905.175
3003.14791	10871.375
3005.57506	10838.175
3008.00073	10820.975
3010.42493	10817.575
3012.84764	10812.675
3015.26888	10834.075
3017.68865	10806.775
3020.10694	10780.575
3022.52376	10761.375
3024.9391	10744.575
3027.35298	10745.975
3029.76539	10773.175
3032.17632	10737.275
3034.5858	10740.875
3036.9938	10729.475
3039.40034	10708.075
3041.80542	10707.475
3044.20903	10698.375
3046.61118	10683.375
3049.01187	10679.975
3051.4111	10654.575
3053.80888	10657.675
3056.20519	10653.175
3058.60005	10618.175
3060.99345	10631.075
3063.3854	10593.675
3065.7759	10588.375
3068.16494	10566.175
3070.55254	10524.575
3072.93868	10576.975
3075.32338	10521.075
3077.70662	10508.975
3080.08842	10497.875
3082.46878	10502.675
3084.84769	10498.375
3087.22515	10466.375
3089.60118	10450.575
3091.97576	10467.375
3094.3489	10504.475
3096.72061	10474.575
3099.09087	10502.475
3101.4597	10497.275
3103.82709	10529.375
3106.19305	10516.075
3108.55757	10543.175
3110.92066	10518.375
3113.28232	10493.675
3115.64255	10466.375
3118.00134	10431.775
3120.35871	10449.275
3122.71466	10434.475
3125.06917	10419.775
3127.42226	10373.775
3129.77393	10375.575
