Data from AgNPs_APTES_FTO_UA_100uM_CRN_0uM_R6G_10uM_Scan_RamanShift__33__16-21-12-964.txt Node

Date: Mon Jul 11 16:21:12 BST 2022
User: TCL
Spectrometer: QEP01345
Trigger mode: 4
Integration Time (sec): 7.000000E0
Scans to average: 10
Electric dark correction enabled: true
Nonlinearity correction enabled: false
Boxcar width: 0
XAxis mode: Raman Shifts
Number of Pixels in Spectrum: 1044
>>>>>Begin Spectral Data<<<<<
46.04893	0.425
50.45542	0.225
54.85868	0.725
59.25871	-1.875
63.6555	39.625
68.04907	40.925
72.43941	43.925
76.82654	44.725
81.21044	50.125
85.59113	52.325
89.96862	53.925
94.34289	56.225
98.71396	57.225
103.08183	57.125
107.4465	60.525
111.80798	60.125
116.16626	60.525
120.52136	62.925
124.87327	65.625
129.222	72.425
133.56755	73.625
137.90993	80.625
142.24913	87.025
146.58517	95.325
150.91804	106.225
155.24774	133.025
159.57429	162.425
163.89768	206.725
168.21792	272.025
172.53501	367.825
176.84895	503.425
181.15975	698.725
185.46741	981.625
189.77193	1352.625
194.07331	1811.325
198.37157	2326.525
202.6667	2874.625
206.9587	3422.025
211.24758	3991.025
215.53334	4572.425
219.81599	5214.125
224.09553	5919.325
228.37195	6708.325
232.64527	7532.825
236.91549	8361.425
241.18261	9068.725
245.44663	9618.925
249.70755	10067.725
253.96539	10452.225
258.22014	10756.825
262.4718	11006.825
266.72039	11164.125
270.96589	11139.325
275.20832	11006.525
279.44768	10763.925
283.68397	10520.225
287.91719	10397.225
292.14735	10452.125
296.37445	10749.725
300.59849	11275.325
304.81948	11888.225
309.03742	12246.725
313.25231	12157.925
317.46415	11499.925
321.67296	10565.725
325.87872	9799.525
330.08145	9512.725
334.28114	9542.325
338.47781	9720.625
342.67145	10055.925
346.86207	10582.925
351.04966	11374.525
355.23424	12146.525
359.4158	12726.725
363.59435	13004.425
367.76989	13081.525
371.94243	13082.725
376.11196	13053.725
380.27849	12991.325
384.44203	12838.325
388.60257	12647.125
392.76012	12540.125
396.91468	12671.525
401.06626	12973.925
405.21485	13094.625
409.36047	12671.225
413.50311	11926.925
417.64277	11258.225
421.77947	10865.425
425.9132	10576.425
430.04396	10552.725
434.17176	10608.125
438.2966	10802.325
442.41849	11119.525
446.53742	11455.425
450.6534	11720.225
454.76644	11877.525
458.87653	11856.325
462.98368	11760.025
467.08789	11525.825
471.18916	11251.025
475.2875	10996.925
479.38291	10822.025
483.4754	10752.225
487.56496	10757.225
491.6516	10787.725
495.73531	10808.025
499.81612	10793.025
503.89401	10855.125
507.96899	10977.625
512.04106	11213.025
516.11023	11493.625
520.1765	11732.525
524.23987	11778.525
528.30034	11635.725
532.35792	11459.125
536.41261	11213.025
540.46441	10890.225
544.51333	10680.525
548.55936	10693.025
552.60252	10869.725
556.64279	11053.325
560.6802	11121.725
564.71473	11372.925
568.7464	11874.925
572.7752	11884.725
576.80114	11328.825
580.82422	10893.825
584.84444	10771.425
588.86181	10919.325
592.87633	11114.025
596.888	11359.225
600.89682	11968.625
604.9028	13948.825
608.90594	18856.225
612.90624	23964.825
616.90371	21544.425
620.89834	15153.325
624.89015	12912.225
628.87913	12891.725
632.86528	13419.225
636.84862	13713.225
640.82913	13282.625
644.80683	12386.425
648.78172	11661.725
652.75379	11453.925
656.72306	11734.625
660.68952	12057.225
664.65319	11692.925
668.61405	11085.325
672.57211	10899.625
676.52738	10894.925
680.47986	10942.525
684.42955	10974.325
688.37646	11066.625
692.32058	11110.625
696.26192	11133.725
700.20048	11129.925
704.13626	11064.325
708.06928	10872.625
711.99952	10691.425
715.927	10667.025
719.85171	10784.825
723.77365	10930.725
727.69284	10928.225
731.60928	10887.725
735.52295	10773.025
739.43388	10695.625
743.34206	10661.025
747.24749	10686.325
751.15017	10738.325
755.05012	10950.125
758.94733	11610.425
762.8418	13208.625
766.73354	15598.925
770.62254	17929.525
774.50882	19004.725
778.39237	17915.325
782.27321	15263.625
786.15132	12864.425
790.02671	11574.125
793.89938	11041.125
797.76935	10866.725
801.6366	10929.125
805.50115	11111.025
809.36299	11309.825
813.22213	11393.225
817.07857	11243.125
820.93231	11047.425
824.78336	10860.925
828.63172	10720.225
832.47738	10638.425
836.32036	10575.125
840.16066	10520.625
843.99827	10461.825
847.8332	10442.525
851.66546	10424.725
855.49504	10415.325
859.32195	10402.025
863.1462	10348.425
866.96777	10356.425
870.78668	10495.025
874.60293	10657.225
878.41652	10937.425
882.22745	11194.525
886.03573	11312.825
889.84136	11320.025
893.64433	11136.125
897.44466	10881.425
901.24235	10630.225
905.0374	10436.525
908.8298	10216.425
912.61957	10124.025
916.40671	10081.625
920.19121	10120.225
923.97308	10205.725
927.75233	10409.225
931.52895	10591.925
935.30295	10488.525
939.07433	10168.425
942.84309	9917.525
946.60924	9782.825
950.37278	9724.525
954.13371	9682.225
957.89203	9652.225
961.64774	9612.025
965.40086	9597.925
969.15137	9512.725
972.89929	9474.125
976.64461	9463.425
980.38733	9472.225
984.12747	9506.125
987.86502	9579.525
991.59999	9677.725
995.33237	9847.025
999.06217	10164.025
1002.78939	10560.325
1006.51404	10857.225
1010.23611	11127.225
1013.95561	11320.625
1017.67255	11371.525
1021.38692	11284.125
1025.09872	11125.025
1028.80796	11064.225
1032.51465	11130.525
1036.21877	11188.625
1039.92035	11091.225
1043.61937	10986.325
1047.31584	10771.425
1051.00976	10594.925
1054.70114	10492.925
1058.38998	10475.325
1062.07627	10505.725
1065.76003	10566.425
1069.44126	10653.825
1073.11995	10757.025
1076.79611	10875.925
1080.46974	11099.225
1084.14085	11401.825
1087.80943	11668.925
1091.47549	11678.225
1095.13903	11326.025
1098.80005	10941.925
1102.45857	10710.025
1106.11456	10694.125
1109.76805	10934.425
1113.41903	11374.125
1117.06751	12005.325
1120.71348	12840.425
1124.35696	13806.425
1127.99793	14571.125
1131.63641	14570.025
1135.2724	13997.225
1138.90589	13394.525
1142.5369	12824.925
1146.16542	12235.925
1149.79145	11734.725
1153.415	11416.125
1157.03607	11268.825
1160.65467	11320.725
1164.27079	11634.125
1167.88443	12217.525
1171.49561	13194.025
1175.10432	14867.125
1178.71056	17119.525
1182.31434	18924.525
1185.91565	19377.025
1189.51451	18792.025
1193.11091	17578.025
1196.70485	16380.725
1200.29634	15713.125
1203.88538	15161.025
1207.47197	14279.725
1211.05612	13429.125
1214.63782	12792.025
1218.21708	12390.925
1221.79391	12121.625
1225.36829	12015.625
1228.94024	11914.125
1232.50976	11763.725
1236.07685	11735.425
1239.6415	11800.425
1243.20374	11922.825
1246.76355	12038.725
1250.32093	12216.125
1253.8759	12435.925
1257.42845	12830.925
1260.97859	13255.825
1264.52631	13609.825
1268.07163	13996.425
1271.61453	14264.225
1275.15503	14455.125
1278.69312	14550.625
1282.22882	14730.525
1285.76211	15106.025
1289.29301	15641.525
1292.82151	16204.325
1296.34761	16848.925
1299.87133	17957.525
1303.39266	19877.125
1306.9116	22613.425
1310.42815	25267.825
1313.94233	26006.525
1317.45412	24432.425
1320.96354	21987.725
1324.47058	19765.125
1327.97525	18106.325
1331.47754	17307.425
1334.97747	17145.425
1338.47502	17539.025
1341.97022	18433.225
1345.46305	19737.825
1348.95352	21408.025
1352.44163	23543.325
1355.92738	26553.025
1359.41078	30988.425
1362.89183	34203.225
1366.37053	31976.525
1369.84688	26118.325
1373.32088	21282.325
1376.79254	18407.325
1380.26186	16883.225
1383.72883	15994.925
1387.19347	15333.325
1390.65578	14711.925
1394.11575	14201.125
1397.57339	13952.525
1401.0287	13868.725
1404.48168	13823.525
1407.93234	13863.325
1411.38068	14001.925
1414.82669	14072.725
1418.27039	14003.025
1421.71177	13770.725
1425.15083	13511.925
1428.58758	13493.725
1432.02203	13680.625
1435.45416	13872.825
1438.88399	13912.125
1442.31151	13916.125
1445.73673	14070.325
1449.15965	14223.925
1452.58027	14252.025
1455.9986	14168.225
1459.41463	14180.525
1462.82837	14358.825
1466.23982	14687.425
1469.64898	14914.525
1473.05586	15089.225
1476.46045	15130.125
1479.86276	15253.725
1483.26279	15524.625
1486.66054	15939.125
1490.05602	16528.225
1493.44922	17494.925
1496.84016	19046.925
1500.22882	21492.225
1503.61521	24792.125
1506.99934	28437.625
1510.38121	31078.325
1513.76081	31135.725
1517.13816	28270.525
1520.51324	24022.325
1523.88607	20365.025
1527.25665	18040.625
1530.62498	16785.925
1533.99105	16076.925
1537.35488	15672.325
1540.71647	15514.925
1544.07581	15551.425
1547.4329	15635.325
1550.78776	15771.825
1554.14038	15874.125
1557.49077	15984.525
1560.83892	16253.825
1564.18484	16673.125
1567.52853	17246.325
1570.86999	17700.425
1574.20922	17912.625
1577.54624	17672.025
1580.88103	16626.525
1584.2136	15411.525
1587.54395	14790.025
1590.87208	14926.925
1594.19801	15795.025
1597.52172	16954.925
1600.84321	17498.825
1604.16251	17095.125
1607.47959	16146.625
1610.79447	15059.925
1614.10715	14013.025
1617.41763	13248.125
1620.7259	12734.125
1624.03199	12539.525
1627.33587	12577.525
1630.63757	12904.025
1633.93707	13525.625
1637.23439	14539.125
1640.52951	16066.125
1643.82246	18157.225
1647.11321	20560.725
1650.40179	22027.425
1653.68819	21069.825
1656.97241	18326.825
1660.25446	15509.325
1663.53433	13563.225
1666.81203	12387.225
1670.08756	11694.625
1673.36092	11247.225
1676.63211	10892.625
1679.90115	10679.725
1683.16801	10456.025
1686.43272	10287.925
1689.69527	10129.825
1692.95567	10007.725
1696.2139	9911.225
1699.46999	9804.825
1702.72392	9699.225
1705.97571	9598.825
1709.22535	9513.425
1712.47284	9472.425
1715.71819	9435.725
1718.96139	9377.625
1722.20246	9290.825
1725.44139	9201.725
1728.67818	9074.925
1731.91284	8999.125
1735.14537	8878.525
1738.37576	8819.025
1741.60403	8794.825
1744.83017	8739.725
1748.05418	8722.225
1751.27607	8707.825
1754.49584	8648.625
1757.71349	8634.725
1760.92903	8633.125
1764.14244	8592.325
1767.35375	8579.425
1770.56294	8543.025
1773.77002	8496.825
1776.97499	8472.725
1780.17785	8455.125
1783.37861	8429.025
1786.57727	8403.425
1789.77382	8370.425
1792.96828	8367.125
1796.16064	8332.925
1799.3509	8356.125
1802.53907	8315.425
1805.72514	8287.025
1808.90913	8259.725
1812.09102	8240.125
1815.27083	8205.025
1818.44856	8213.025
1821.6242	8180.825
1824.79776	8149.125
1827.96924	8181.225
1831.13864	8163.225
1834.30597	8153.925
1837.47122	8119.025
1840.6344	8096.925
1843.7955	8107.925
1846.95454	8109.825
1850.11151	8083.125
1853.26642	8080.525
1856.41926	8056.925
1859.57004	8077.625
1862.71876	8074.725
1865.86542	8061.825
1869.01003	8072.525
1872.15258	8061.325
1875.29308	8055.525
1878.43152	8068.325
1881.56792	8045.425
1884.70227	8034.125
1887.83457	8025.625
1890.96482	8046.925
1894.09304	8007.125
1897.21921	8002.225
1900.34335	7984.325
1903.46544	7987.625
1906.58551	8018.825
1909.70353	7987.125
1912.81953	7989.125
1915.93349	7989.025
1919.04543	7952.025
1922.15534	7987.025
1925.26322	7931.325
1928.36908	7923.625
1931.47292	7913.825
1934.57473	7878.525
1937.67453	7875.325
1940.77232	7838.525
1943.86808	7826.125
1946.96184	7822.925
1950.05358	7801.125
1953.14331	7778.625
1956.23103	7745.625
1959.31675	7714.425
1962.40046	7735.525
1965.48217	7717.825
1968.56188	7691.125
1971.63959	7642.725
1974.7153	7637.425
1977.78901	7635.825
1980.86073	7632.625
1983.93046	7583.525
1986.99819	7558.325
1990.06394	7506.025
1993.1277	7492.325
1996.18947	7451.425
1999.24925	7443.025
2002.30706	7427.925
2005.36288	7397.325
2008.41672	7378.525
2011.46859	7361.525
2014.51848	7343.025
2017.56639	7328.025
2020.61233	7308.125
2023.6563	7293.825
2026.6983	7296.325
2029.73833	7256.625
2032.7764	7258.325
2035.8125	7238.625
2038.84664	7215.825
2041.87881	7227.725
2044.90903	7210.525
2047.93729	7187.025
2050.96359	7182.925
2053.98794	7170.125
2057.01034	7155.825
2060.03078	7181.425
2063.04927	7151.625
2066.06582	7157.425
2069.08042	7158.925
2072.09307	7121.425
2075.10378	7151.625
2078.11255	7132.725
2081.11938	7146.825
2084.12426	7147.825
2087.12722	7135.425
2090.12824	7104.725
2093.12732	7131.125
2096.12447	7133.425
2099.11969	7127.525
2102.11299	7131.425
2105.10435	7125.925
2108.09379	7165.425
2111.08131	7148.225
2114.0669	7140.725
2117.05057	7146.025
2120.03233	7155.725
2123.01216	7165.025
2125.99008	7145.125
2128.96609	7178.725
2131.94018	7188.525
2134.91236	7186.825
2137.88263	7185.825
2140.851	7164.225
2143.81746	7176.825
2146.78201	7189.625
2149.74466	7165.725
2152.7054	7178.525
2155.66425	7161.025
2158.6212	7166.525
2161.57625	7154.825
2164.52941	7147.725
2167.48067	7140.725
2170.43004	7163.225
2173.37752	7156.525
2176.32311	7173.625
2179.26681	7161.725
2182.20863	7180.825
2185.14856	7178.225
2188.08661	7146.925
2191.02278	7148.925
2193.95707	7165.325
2196.88948	7151.425
2199.82001	7147.725
2202.74867	7124.025
2205.67545	7149.325
2208.60037	7127.825
2211.52341	7134.425
2214.44458	7136.925
2217.36388	7108.325
2220.28132	7082.025
2223.1969	7099.125
2226.11061	7085.125
2229.02246	7057.925
2231.93245	7049.925
2234.84058	7022.225
2237.74686	7029.225
2240.65128	7030.425
2243.55385	7010.425
2246.45456	7007.525
2249.35343	6997.125
2252.25044	7011.125
2255.14561	6983.725
2258.03893	7006.125
2260.93041	7000.525
2263.82004	7004.225
2266.70783	7004.925
2269.59378	6978.125
2272.4779	6942.525
2275.36017	6915.325
2278.24061	6921.125
2281.11922	6896.625
2283.996	6899.025
2286.87094	6864.825
2289.74405	6844.125
2292.61534	6835.225
2295.4848	6810.125
2298.35243	6822.125
2301.21824	6809.525
2304.08223	6829.525
2306.94439	6840.125
2309.80474	6826.625
2312.66327	6825.025
2315.51999	6807.525
2318.37489	6809.625
2321.22797	6829.325
2324.07925	6802.825
2326.92871	6811.025
2329.77637	6807.625
2332.62222	6786.725
2335.46626	6799.025
2338.3085	6796.125
2341.14893	6789.025
2343.98756	6814.525
2346.8244	6804.125
2349.65943	6828.125
2352.49267	6805.125
2355.32411	6825.825
2358.15376	6842.625
2360.98161	6824.425
2363.80768	6826.425
2366.63195	6842.725
2369.45444	6841.425
2372.27514	6837.925
2375.09405	6808.425
2377.91118	6800.725
2380.72652	6777.125
2383.54009	6752.425
2386.35187	6748.425
2389.16188	6736.325
2391.97011	6713.025
2394.77657	6688.525
2397.58125	6679.125
2400.38416	6660.625
2403.18529	6645.225
2405.98466	6602.725
2408.78226	6600.025
2411.57809	6578.125
2414.37216	6570.725
2417.16446	6586.325
2419.955	6565.725
2422.74378	6572.425
2425.5308	6554.525
2428.31606	6566.625
2431.09956	6548.725
2433.88131	6554.025
2436.6613	6565.725
2439.43954	6548.925
2442.21603	6560.425
2444.99077	6538.525
2447.76377	6552.125
2450.53501	6554.725
2453.30451	6564.625
2456.07226	6543.925
2458.83827	6536.925
2461.60254	6517.625
2464.36507	6533.425
2467.12586	6517.625
2469.88492	6524.225
2472.64224	6530.525
2475.39782	6526.825
2478.15167	6542.325
2480.90379	6560.525
2483.65417	6571.825
2486.40283	6575.225
2489.14976	6592.725
2491.89497	6596.925
2494.63845	6607.725
2497.3802	6588.325
2500.12024	6594.225
2502.85855	6580.225
2505.59514	6565.925
2508.33002	6553.725
2511.06318	6517.425
2513.79462	6502.925
2516.52435	6476.825
2519.25237	6439.925
2521.97867	6430.825
2524.70327	6420.625
2527.42616	6419.625
2530.14734	6410.925
2532.86681	6410.725
2535.58458	6416.625
2538.30065	6404.025
2541.01501	6433.925
2543.72768	6407.225
2546.43864	6415.225
2549.14791	6413.825
2551.85548	6415.825
2554.56136	6395.325
2557.26554	6390.725
2559.96803	6360.925
2562.66883	6367.525
2565.36794	6363.625
2568.06536	6357.625
2570.7611	6347.725
2573.45514	6347.725
2576.14751	6328.225
2578.83819	6292.025
2581.52719	6324.025
2584.21451	6299.025
2586.90015	6294.625
2589.58411	6281.625
2592.2664	6291.125
2594.94701	6287.725
2597.62594	6284.325
2600.30321	6272.725
2602.9788	6245.725
2605.65273	6265.025
2608.32498	6271.525
2610.99557	6260.625
2613.66449	6255.725
2616.33175	6242.725
2618.99734	6271.225
2621.66128	6258.425
2624.32355	6257.225
2626.98416	6240.825
2629.64311	6240.325
2632.30041	6236.925
2634.95605	6229.025
2637.61004	6213.025
2640.26238	6201.225
2642.91306	6191.125
2645.56209	6175.625
2648.20948	6182.825
2650.85521	6162.225
2653.4993	6171.025
2656.14175	6188.125
2658.78255	6171.525
2661.42171	6179.525
2664.05923	6186.525
2666.6951	6203.825
2669.32934	6233.225
2671.96194	6208.825
2674.59291	6227.825
2677.22224	6205.925
2679.84993	6227.525
2682.476	6214.625
2685.10043	6219.625
2687.72324	6188.325
2690.34441	6208.625
2692.96396	6188.525
2695.58188	6219.325
2698.19818	6215.625
2700.81285	6213.525
2703.4259	6200.025
2706.03733	6238.325
2708.64714	6225.925
2711.25533	6230.325
2713.86191	6242.525
2716.46687	6247.625
2719.07021	6240.725
2721.67194	6251.325
2724.27206	6238.925
2726.87057	6239.125
2729.46747	6236.925
2732.06276	6252.525
2734.65644	6259.825
2737.24852	6256.125
2739.83899	6223.025
2742.42786	6214.625
2745.01513	6221.325
2747.60079	6200.525
2750.18486	6206.325
2752.76733	6193.025
2755.3482	6197.725
2757.92747	6186.025
2760.50515	6166.525
2763.08123	6186.325
2765.65573	6161.125
2768.22863	6157.725
2770.79994	6137.425
2773.36967	6142.425
2775.9378	6155.425
2778.50435	6159.325
2781.06932	6138.625
2783.6327	6145.325
2786.1945	6127.825
2788.75471	6133.125
2791.31335	6131.625
2793.87041	6111.225
2796.42589	6093.625
2798.97979	6121.825
2801.53212	6085.325
2804.08288	6109.425
2806.63206	6074.425
2809.17967	6097.225
2811.72571	6069.525
2814.27018	6068.225
2816.81308	6053.625
2819.35442	6071.525
2821.89419	6072.525
2824.43239	6069.425
2826.96904	6089.825
2829.50412	6090.525
2832.03763	6050.325
2834.56959	6080.425
2837.1	6059.525
2839.62884	6080.425
2842.15613	6059.625
2844.68186	6086.125
2847.20604	6114.125
2849.72867	6122.425
2852.24974	6110.425
2854.76927	6111.325
2857.28724	6093.625
2859.80367	6115.925
2862.31855	6078.125
2864.83189	6092.525
2867.34368	6088.925
2869.85393	6110.925
2872.36264	6115.125
2874.8698	6110.525
2877.37543	6111.325
2879.87952	6116.325
2882.38207	6086.425
2884.88308	6094.325
2887.38256	6087.825
2889.88051	6080.525
2892.37692	6088.025
2894.8718	6088.725
2897.36515	6098.325
2899.85698	6101.725
2902.34727	6125.625
2904.83604	6115.325
2907.32328	6134.325
2909.809	6136.225
2912.29319	6135.425
2914.77587	6109.125
2917.25702	6136.125
2919.73665	6135.725
2922.21476	6130.825
2924.69136	6098.825
2927.16644	6118.125
2929.64	6097.825
2932.11205	6075.525
2934.58258	6057.825
2937.05161	6063.525
2939.51912	6060.925
2941.98513	6060.725
2944.44962	6041.125
2946.91261	6026.725
2949.37409	6028.425
2951.83407	6015.625
2954.29254	6021.525
2956.74951	6013.225
2959.20498	6008.925
2961.65895	5998.925
2964.11142	5999.825
2966.56239	5974.225
2969.01186	5994.725
2971.45984	5970.625
2973.90632	5951.125
2976.35131	5937.725
2978.7948	5940.925
2981.23681	5917.325
2983.67732	5911.625
2986.11635	5890.025
2988.55388	5885.325
2990.98993	5881.225
2993.4245	5883.025
2995.85758	5877.125
2998.28917	5870.725
3000.71928	5860.925
3003.14791	5844.825
3005.57506	5853.325
3008.00073	5826.425
3010.42493	5838.925
3012.84764	5822.025
3015.26888	5808.325
3017.68865	5804.825
3020.10694	5793.125
3022.52376	5791.725
3024.9391	5783.725
3027.35298	5775.825
3029.76539	5778.225
3032.17632	5761.925
3034.5858	5761.325
3036.9938	5763.425
3039.40034	5741.225
3041.80542	5751.025
3044.20903	5726.025
3046.61118	5748.025
3049.01187	5719.725
3051.4111	5711.625
3053.80888	5710.225
3056.20519	5692.225
3058.60005	5682.225
3060.99345	5693.525
3063.3854	5677.625
3065.7759	5657.625
3068.16494	5638.125
3070.55254	5601.625
3072.93868	5624.325
3075.32338	5607.025
3077.70662	5605.725
3080.08842	5579.925
3082.46878	5577.125
3084.84769	5567.025
3087.22515	5536.025
3089.60118	5561.525
3091.97576	5581.225
3094.3489	5555.225
3096.72061	5584.825
3099.09087	5587.425
3101.4597	5598.925
3103.82709	5610.725
3106.19305	5607.525
3108.55757	5590.225
3110.92066	5596.225
3113.28232	5580.725
3115.64255	5588.525
3118.00134	5571.525
3120.35871	5575.425
3122.71466	5571.725
3125.06917	5546.025
3127.42226	5550.025
3129.77393	5554.025
3132.12417	5549.225
3134.47299	5559.125
3136.82039	5556.025
3139.16636	5584.025
3141.51092	5564.625
3143.85406	5563.625
3146.19579	5564.825
3148.53609	5574.725
3150.87499	5571.125
3153.21246	5589.825
3155.54853	5604.025
3157.88318	5606.625
3160.21642	5622.825
3162.54826	5621.725
3164.87868	5622.925
3167.2077	5618.525
3169.5353	5627.525
3171.86151	5626.325
3174.18631	5617.425
3176.5097	5616.525
3178.83169	5608.925
3181.15228	5628.525
3183.47147	5606.025
3185.78926	5606.325
3188.10565	5596.325
3190.42065	5603.125
3192.73424	5616.225
3195.04645	5624.825
