Data from AgNPs_APTES_FTO_UA_100uM_CRN_0uM_R6G_10uM_Scan_RamanShift__62__16-55-02-998.txt Node

Date: Mon Jul 11 16:55:02 BST 2022
User: TCL
Spectrometer: QEP01345
Trigger mode: 4
Integration Time (sec): 7.000000E0
Scans to average: 10
Electric dark correction enabled: true
Nonlinearity correction enabled: false
Boxcar width: 0
XAxis mode: Raman Shifts
Number of Pixels in Spectrum: 1044
>>>>>Begin Spectral Data<<<<<
46.04893	-1.5875
50.45542	1.3125
54.85868	-0.7875
59.25871	-2.5875
63.6555	45.7125
68.04907	48.9125
72.43941	51.3125
76.82654	50.9125
81.21044	55.0125
85.59113	59.0125
89.96862	62.5125
94.34289	59.9125
98.71396	61.2125
103.08183	67.2125
107.4465	67.7125
111.80798	69.9125
116.16626	69.8125
120.52136	74.7125
124.87327	77.0125
129.222	79.6125
133.56755	80.8125
137.90993	84.6125
142.24913	97.6125
146.58517	105.0125
150.91804	118.8125
155.24774	138.5125
159.57429	168.0125
163.89768	212.5125
168.21792	273.5125
172.53501	368.2125
176.84895	514.7125
181.15975	722.5125
185.46741	1015.8125
189.77193	1410.3125
194.07331	1886.1125
198.37157	2421.0125
202.6667	3006.4125
206.9587	3573.6125
211.24758	4133.5125
215.53334	4661.9125
219.81599	5230.7125
224.09553	5839.3125
228.37195	6514.9125
232.64527	7260.3125
236.91549	8083.9125
241.18261	8947.5125
245.44663	9790.2125
249.70755	10622.2125
253.96539	11351.2125
258.22014	11940.9125
262.4718	12388.1125
266.72039	12644.2125
270.96589	12780.1125
275.20832	12742.3125
279.44768	12639.2125
283.68397	12451.4125
287.91719	12279.8125
292.14735	12083.0125
296.37445	11948.7125
300.59849	11814.2125
304.81948	11755.3125
309.03742	11659.6125
313.25231	11646.1125
317.46415	11615.9125
321.67296	11616.5125
325.87872	11674.5125
330.08145	11747.2125
334.28114	11863.4125
338.47781	12000.6125
342.67145	12139.0125
346.86207	12303.8125
351.04966	12469.2125
355.23424	12627.4125
359.4158	12814.5125
363.59435	12971.8125
367.76989	13149.2125
371.94243	13320.1125
376.11196	13457.6125
380.27849	13573.5125
384.44203	13717.6125
388.60257	13868.6125
392.76012	14000.1125
396.91468	14147.4125
401.06626	14270.2125
405.21485	14410.1125
409.36047	14461.1125
413.50311	14529.2125
417.64277	14575.7125
421.77947	14609.8125
425.9132	14688.3125
430.04396	14800.9125
434.17176	14898.2125
438.2966	15069.0125
442.41849	15203.5125
446.53742	15338.6125
450.6534	15528.4125
454.76644	15646.6125
458.87653	15778.7125
462.98368	15865.9125
467.08789	15901.5125
471.18916	15930.2125
475.2875	15941.5125
479.38291	15980.1125
483.4754	15985.6125
487.56496	16037.4125
491.6516	16061.5125
495.73531	16086.4125
499.81612	16090.3125
503.89401	16195.1125
507.96899	16262.7125
512.04106	16323.9125
516.11023	16350.0125
520.1765	16389.1125
524.23987	16451.9125
528.30034	16492.0125
532.35792	16557.5125
536.41261	16584.0125
540.46441	16601.5125
544.51333	16660.5125
548.55936	16690.0125
552.60252	16768.0125
556.64279	16869.2125
560.6802	17018.0125
564.71473	17089.6125
568.7464	17084.3125
572.7752	17070.5125
576.80114	17081.4125
580.82422	17143.3125
584.84444	17227.5125
588.86181	17343.9125
592.87633	17411.8125
596.888	17468.3125
600.89682	17562.9125
604.9028	17850.4125
608.90594	18326.4125
612.90624	18628.0125
616.90371	18379.0125
620.89834	17902.9125
624.89015	17744.9125
628.87913	17791.6125
632.86528	17890.0125
636.84862	17982.9125
640.82913	17970.5125
644.80683	17958.7125
648.78172	17965.0125
652.75379	18014.7125
656.72306	18086.1125
660.68952	18227.0125
664.65319	18286.2125
668.61405	18305.3125
672.57211	18411.8125
676.52738	18497.3125
680.47986	18554.6125
684.42955	18577.7125
688.37646	18700.5125
692.32058	18788.3125
696.26192	18921.1125
700.20048	18980.6125
704.13626	19030.5125
708.06928	18983.7125
711.99952	18965.3125
715.927	18969.5125
719.85171	18991.4125
723.77365	18980.7125
727.69284	18921.1125
731.60928	18921.5125
735.52295	18921.1125
739.43388	18976.5125
743.34206	19041.2125
747.24749	19076.5125
751.15017	19095.9125
755.05012	19139.7125
758.94733	19212.5125
762.8418	19318.0125
766.73354	19556.7125
770.62254	19819.0125
774.50882	19995.5125
778.39237	20036.4125
782.27321	19909.7125
786.15132	19710.5125
790.02671	19651.2125
793.89938	19508.8125
797.76935	19454.1125
801.6366	19480.3125
805.50115	19447.5125
809.36299	19514.4125
813.22213	19480.5125
817.07857	19532.6125
820.93231	19543.5125
824.78336	19601.4125
828.63172	19592.5125
832.47738	19632.5125
836.32036	19622.5125
840.16066	19699.1125
843.99827	19727.9125
847.8332	19781.0125
851.66546	19806.7125
855.49504	19832.6125
859.32195	19867.9125
863.1462	19912.9125
866.96777	19957.7125
870.78668	20000.8125
874.60293	20072.0125
878.41652	20098.9125
882.22745	20164.1125
886.03573	20156.8125
889.84136	20219.9125
893.64433	20204.4125
897.44466	20239.5125
901.24235	20246.1125
905.0374	20317.2125
908.8298	20302.4125
912.61957	20294.1125
916.40671	20355.7125
920.19121	20339.4125
923.97308	20310.9125
927.75233	20306.5125
931.52895	20290.5125
935.30295	20283.4125
939.07433	20269.0125
942.84309	20236.1125
946.60924	20220.4125
950.37278	20158.9125
954.13371	20130.2125
957.89203	20191.2125
961.64774	20165.0125
965.40086	20175.7125
969.15137	20149.4125
972.89929	20148.4125
976.64461	20125.3125
980.38733	20151.8125
984.12747	20172.9125
987.86502	20206.4125
991.59999	20278.4125
995.33237	20306.8125
999.06217	20377.3125
1002.78939	20465.1125
1006.51404	20546.8125
1010.23611	20637.0125
1013.95561	20718.1125
1017.67255	20752.4125
1021.38692	20770.3125
1025.09872	20691.3125
1028.80796	20657.5125
1032.51465	20625.3125
1036.21877	20631.0125
1039.92035	20679.3125
1043.61937	20694.9125
1047.31584	20744.5125
1051.00976	20758.3125
1054.70114	20795.7125
1058.38998	20810.8125
1062.07627	20830.9125
1065.76003	20928.6125
1069.44126	20954.7125
1073.11995	21083.2125
1076.79611	21258.9125
1080.46974	21293.5125
1084.14085	21275.4125
1087.80943	21259.8125
1091.47549	21254.0125
1095.13903	21305.2125
1098.80005	21354.0125
1102.45857	21359.5125
1106.11456	21355.8125
1109.76805	21276.4125
1113.41903	21206.2125
1117.06751	21154.9125
1120.71348	21176.7125
1124.35696	21179.3125
1127.99793	21124.0125
1131.63641	21178.3125
1135.2724	21220.6125
1138.90589	21166.0125
1142.5369	21156.3125
1146.16542	21135.6125
1149.79145	21114.2125
1153.415	21056.9125
1157.03607	20950.0125
1160.65467	20935.8125
1164.27079	21010.9125
1167.88443	21053.4125
1171.49561	21211.0125
1175.10432	21353.7125
1178.71056	21590.5125
1182.31434	21800.0125
1185.91565	22002.4125
1189.51451	22184.6125
1193.11091	22305.5125
1196.70485	22337.3125
1200.29634	22271.7125
1203.88538	22205.1125
1207.47197	22057.3125
1211.05612	21996.6125
1214.63782	21850.0125
1218.21708	21744.4125
1221.79391	21640.6125
1225.36829	21551.7125
1228.94024	21531.7125
1232.50976	21495.8125
1236.07685	21499.5125
1239.6415	21511.0125
1243.20374	21589.6125
1246.76355	21638.2125
1250.32093	21735.8125
1253.8759	21788.6125
1257.42845	21943.9125
1260.97859	22072.2125
1264.52631	22157.8125
1268.07163	22182.0125
1271.61453	22226.0125
1275.15503	22261.7125
1278.69312	22262.8125
1282.22882	22261.5125
1285.76211	22238.3125
1289.29301	22198.6125
1292.82151	22242.6125
1296.34761	22349.7125
1299.87133	22451.9125
1303.39266	22607.7125
1306.9116	22739.7125
1310.42815	22996.1125
1313.94233	23130.5125
1317.45412	23212.9125
1320.96354	23200.0125
1324.47058	23089.6125
1327.97525	22878.3125
1331.47754	22763.2125
1334.97747	22674.4125
1338.47502	22779.8125
1341.97022	23033.2125
1345.46305	23344.4125
1348.95352	23649.2125
1352.44163	23729.0125
1355.92738	23713.3125
1359.41078	23681.7125
1362.89183	23514.5125
1366.37053	23183.0125
1369.84688	22755.1125
1373.32088	22351.5125
1376.79254	22011.9125
1380.26186	21778.3125
1383.72883	21614.2125
1387.19347	21494.4125
1390.65578	21315.3125
1394.11575	21196.5125
1397.57339	21052.9125
1401.0287	20992.0125
1404.48168	20931.1125
1407.93234	20917.2125
1411.38068	20937.0125
1414.82669	20967.6125
1418.27039	20841.5125
1421.71177	20790.2125
1425.15083	20711.2125
1428.58758	20705.6125
1432.02203	20695.3125
1435.45416	20621.4125
1438.88399	20619.3125
1442.31151	20605.0125
1445.73673	20606.2125
1449.15965	20629.2125
1452.58027	20638.8125
1455.9986	20608.8125
1459.41463	20640.1125
1462.82837	20737.7125
1466.23982	20851.0125
1469.64898	20977.5125
1473.05586	21082.7125
1476.46045	21134.6125
1479.86276	21155.5125
1483.26279	21208.0125
1486.66054	21184.8125
1490.05602	21252.8125
1493.44922	21341.8125
1496.84016	21482.8125
1500.22882	21712.0125
1503.61521	21931.5125
1506.99934	22123.9125
1510.38121	22124.5125
1513.76081	22036.5125
1517.13816	21850.7125
1520.51324	21731.2125
1523.88607	21622.2125
1527.25665	21561.3125
1530.62498	21531.9125
1533.99105	21524.3125
1537.35488	21551.7125
1540.71647	21575.3125
1544.07581	21631.1125
1547.4329	21610.9125
1550.78776	21615.8125
1554.14038	21552.1125
1557.49077	21497.1125
1560.83892	21495.0125
1564.18484	21530.3125
1567.52853	21575.7125
1570.86999	21574.8125
1574.20922	21599.2125
1577.54624	21611.2125
1580.88103	21510.3125
1584.2136	21421.8125
1587.54395	21401.7125
1590.87208	21449.3125
1594.19801	21566.3125
1597.52172	21746.1125
1600.84321	21873.7125
1604.16251	21894.1125
1607.47959	21831.6125
1610.79447	21621.8125
1614.10715	21306.8125
1617.41763	21002.8125
1620.7259	20767.6125
1624.03199	20628.4125
1627.33587	20565.7125
1630.63757	20540.4125
1633.93707	20543.3125
1637.23439	20684.8125
1640.52951	20902.9125
1643.82246	21202.9125
1647.11321	21402.1125
1650.40179	21368.4125
1653.68819	21196.2125
1656.97241	20810.9125
1660.25446	20463.2125
1663.53433	20219.9125
1666.81203	20035.3125
1670.08756	19923.4125
1673.36092	19829.3125
1676.63211	19741.5125
1679.90115	19704.1125
1683.16801	19639.2125
1686.43272	19607.6125
1689.69527	19539.7125
1692.95567	19543.7125
1696.2139	19538.0125
1699.46999	19550.0125
1702.72392	19518.9125
1705.97571	19538.3125
1709.22535	19528.6125
1712.47284	19514.6125
1715.71819	19520.0125
1718.96139	19486.3125
1722.20246	19438.0125
1725.44139	19402.7125
1728.67818	19362.8125
1731.91284	19325.7125
1735.14537	19270.4125
1738.37576	19238.3125
1741.60403	19170.1125
1744.83017	19123.5125
1748.05418	19076.6125
1751.27607	19049.2125
1754.49584	19040.7125
1757.71349	19005.8125
1760.92903	18993.3125
1764.14244	18984.9125
1767.35375	19012.8125
1770.56294	18991.2125
1773.77002	18972.9125
1776.97499	18965.2125
1780.17785	18927.6125
1783.37861	18921.1125
1786.57727	18887.5125
1789.77382	18884.7125
1792.96828	18846.1125
1796.16064	18845.0125
1799.3509	18800.6125
1802.53907	18784.1125
1805.72514	18741.6125
1808.90913	18698.1125
1812.09102	18684.2125
1815.27083	18633.7125
1818.44856	18602.9125
1821.6242	18599.6125
1824.79776	18531.3125
1827.96924	18571.9125
1831.13864	18550.7125
1834.30597	18533.3125
1837.47122	18504.0125
1840.6344	18485.8125
1843.7955	18449.9125
1846.95454	18466.0125
1850.11151	18460.0125
1853.26642	18471.2125
1856.41926	18422.6125
1859.57004	18454.7125
1862.71876	18449.1125
1865.86542	18410.6125
1869.01003	18379.2125
1872.15258	18353.9125
1875.29308	18352.0125
1878.43152	18327.2125
1881.56792	18297.8125
1884.70227	18251.3125
1887.83457	18235.3125
1890.96482	18216.4125
1894.09304	18178.3125
1897.21921	18177.5125
1900.34335	18124.1125
1903.46544	18138.4125
1906.58551	18103.9125
1909.70353	18063.7125
1912.81953	18073.0125
1915.93349	18052.5125
1919.04543	17985.0125
1922.15534	17949.4125
1925.26322	17904.8125
1928.36908	17937.7125
1931.47292	17876.4125
1934.57473	17839.4125
1937.67453	17780.7125
1940.77232	17737.9125
1943.86808	17732.5125
1946.96184	17705.0125
1950.05358	17670.6125
1953.14331	17625.4125
1956.23103	17545.0125
1959.31675	17486.0125
1962.40046	17428.5125
1965.48217	17425.9125
1968.56188	17380.4125
1971.63959	17286.2125
1974.7153	17263.5125
1977.78901	17218.5125
1980.86073	17152.7125
1983.93046	17089.5125
1986.99819	17029.5125
1990.06394	16984.2125
1993.1277	16992.5125
1996.18947	16922.3125
1999.24925	16886.0125
2002.30706	16830.4125
2005.36288	16753.2125
2008.41672	16760.3125
2011.46859	16687.6125
2014.51848	16641.7125
2017.56639	16574.0125
2020.61233	16547.6125
2023.6563	16474.5125
2026.6983	16411.9125
2029.73833	16379.4125
2032.7764	16332.2125
2035.8125	16318.4125
2038.84664	16271.6125
2041.87881	16286.4125
2044.90903	16231.2125
2047.93729	16184.7125
2050.96359	16174.4125
2053.98794	16102.1125
2057.01034	16150.4125
2060.03078	16092.8125
2063.04927	16085.4125
2066.06582	16072.1125
2069.08042	16065.9125
2072.09307	16056.2125
2075.10378	16060.7125
2078.11255	16057.1125
2081.11938	16058.3125
2084.12426	16040.0125
2087.12722	16019.4125
2090.12824	15990.1125
2093.12732	16018.5125
2096.12447	16004.0125
2099.11969	16005.4125
2102.11299	16012.1125
2105.10435	15997.7125
2108.09379	16013.1125
2111.08131	16009.6125
2114.0669	16065.9125
2117.05057	16046.6125
2120.03233	16048.2125
2123.01216	16036.7125
2125.99008	16042.7125
2128.96609	16090.6125
2131.94018	16088.4125
2134.91236	16126.9125
2137.88263	16103.7125
2140.851	16095.1125
2143.81746	16134.3125
2146.78201	16155.1125
2149.74466	16164.8125
2152.7054	16154.9125
2155.66425	16145.0125
2158.6212	16106.7125
2161.57625	16114.7125
2164.52941	16089.0125
2167.48067	16087.4125
2170.43004	16096.7125
2173.37752	16084.6125
2176.32311	16060.6125
2179.26681	16070.0125
2182.20863	16056.2125
2185.14856	16083.9125
2188.08661	16066.8125
2191.02278	16084.0125
2193.95707	16029.1125
2196.88948	16027.2125
2199.82001	16034.8125
2202.74867	16022.3125
2205.67545	16010.4125
2208.60037	15971.8125
2211.52341	15952.3125
2214.44458	15907.8125
2217.36388	15837.3125
2220.28132	15827.0125
2223.1969	15773.8125
2226.11061	15739.8125
2229.02246	15748.3125
2231.93245	15717.1125
2234.84058	15651.7125
2237.74686	15633.0125
2240.65128	15594.8125
2243.55385	15612.1125
2246.45456	15612.7125
2249.35343	15586.3125
2252.25044	15562.0125
2255.14561	15516.8125
2258.03893	15498.1125
2260.93041	15453.2125
2263.82004	15455.2125
2266.70783	15393.9125
2269.59378	15375.1125
2272.4779	15332.8125
2275.36017	15278.0125
2278.24061	15287.3125
2281.11922	15242.7125
2283.996	15215.2125
2286.87094	15157.4125
2289.74405	15123.5125
2292.61534	15105.5125
2295.4848	15081.6125
2298.35243	15084.1125
2301.21824	15039.6125
2304.08223	15076.3125
2306.94439	15044.7125
2309.80474	15002.7125
2312.66327	15007.6125
2315.51999	14974.8125
2318.37489	14952.0125
2321.22797	14915.7125
2324.07925	14881.0125
2326.92871	14862.4125
2329.77637	14862.7125
2332.62222	14809.9125
2335.46626	14763.6125
2338.3085	14730.6125
2341.14893	14736.8125
2343.98756	14719.8125
2346.8244	14694.9125
2349.65943	14691.5125
2352.49267	14682.4125
2355.32411	14645.7125
2358.15376	14612.9125
2360.98161	14591.3125
2363.80768	14620.5125
2366.63195	14614.3125
2369.45444	14571.1125
2372.27514	14536.4125
2375.09405	14516.6125
2377.91118	14508.8125
2380.72652	14511.4125
2383.54009	14483.5125
2386.35187	14452.3125
2389.16188	14415.5125
2391.97011	14349.7125
2394.77657	14346.4125
2397.58125	14310.9125
2400.38416	14308.6125
2403.18529	14262.7125
2405.98466	14262.0125
2408.78226	14212.7125
2411.57809	14196.8125
2414.37216	14151.0125
2417.16446	14158.4125
2419.955	14123.2125
2422.74378	14131.7125
2425.5308	14140.6125
2428.31606	14122.2125
2431.09956	14079.9125
2433.88131	14057.0125
2436.6613	14070.0125
2439.43954	14047.1125
2442.21603	14020.6125
2444.99077	14005.9125
2447.76377	14001.0125
2450.53501	13967.5125
2453.30451	13941.7125
2456.07226	13901.8125
2458.83827	13881.3125
2461.60254	13851.2125
2464.36507	13842.6125
2467.12586	13812.5125
2469.88492	13806.4125
2472.64224	13826.0125
2475.39782	13766.7125
2478.15167	13779.5125
2480.90379	13759.6125
2483.65417	13755.8125
2486.40283	13747.1125
2489.14976	13721.3125
2491.89497	13696.4125
2494.63845	13699.1125
2497.3802	13672.5125
2500.12024	13648.1125
2502.85855	13611.1125
2505.59514	13603.5125
2508.33002	13587.5125
2511.06318	13573.7125
2513.79462	13535.0125
2516.52435	13520.7125
2519.25237	13492.4125
2521.97867	13453.0125
2524.70327	13484.0125
2527.42616	13432.2125
2530.14734	13466.4125
2532.86681	13394.5125
2535.58458	13377.2125
2538.30065	13379.7125
2541.01501	13355.0125
2543.72768	13318.9125
2546.43864	13302.3125
2549.14791	13292.8125
2551.85548	13263.8125
2554.56136	13212.9125
2557.26554	13187.8125
2559.96803	13177.4125
2562.66883	13146.0125
2565.36794	13088.9125
2568.06536	13078.8125
2570.7611	13063.4125
2573.45514	13009.2125
2576.14751	12990.9125
2578.83819	12965.8125
2581.52719	12948.0125
2584.21451	12935.2125
2586.90015	12920.6125
2589.58411	12874.1125
2592.2664	12841.3125
2594.94701	12813.8125
2597.62594	12803.7125
2600.30321	12818.1125
2602.9788	12786.4125
2605.65273	12719.8125
2608.32498	12732.4125
2610.99557	12719.9125
2613.66449	12684.4125
2616.33175	12621.7125
2618.99734	12645.2125
2621.66128	12587.9125
2624.32355	12586.0125
2626.98416	12552.2125
2629.64311	12532.4125
2632.30041	12523.9125
2634.95605	12485.1125
2637.61004	12466.5125
2640.26238	12423.8125
2642.91306	12419.0125
2645.56209	12376.4125
2648.20948	12370.9125
2650.85521	12356.4125
2653.4993	12373.9125
2656.14175	12319.0125
2658.78255	12368.5125
2661.42171	12345.2125
2664.05923	12341.2125
2666.6951	12334.8125
2669.32934	12336.1125
2671.96194	12316.0125
2674.59291	12329.5125
2677.22224	12329.9125
2679.84993	12307.6125
2682.476	12294.5125
2685.10043	12292.4125
2687.72324	12286.8125
2690.34441	12262.3125
2692.96396	12280.1125
2695.58188	12274.1125
2698.19818	12273.3125
2700.81285	12250.8125
2703.4259	12238.8125
2706.03733	12230.4125
2708.64714	12214.1125
2711.25533	12204.6125
2713.86191	12208.7125
2716.46687	12219.0125
2719.07021	12235.5125
2721.67194	12230.7125
2724.27206	12176.6125
2726.87057	12194.4125
2729.46747	12191.2125
2732.06276	12192.8125
2734.65644	12192.4125
2737.24852	12235.9125
2739.83899	12170.4125
2742.42786	12169.9125
2745.01513	12138.2125
2747.60079	12125.5125
2750.18486	12079.9125
2752.76733	12063.0125
2755.3482	12014.4125
2757.92747	12057.8125
2760.50515	12014.4125
2763.08123	11991.4125
2765.65573	11963.6125
2768.22863	11969.4125
2770.79994	11916.3125
2773.36967	11912.7125
2775.9378	11881.3125
2778.50435	11866.5125
2781.06932	11845.1125
2783.6327	11839.8125
2786.1945	11798.2125
2788.75471	11801.2125
2791.31335	11744.0125
2793.87041	11727.1125
2796.42589	11714.4125
2798.97979	11711.6125
2801.53212	11638.6125
2804.08288	11626.1125
2806.63206	11582.2125
2809.17967	11553.3125
2811.72571	11498.3125
2814.27018	11502.0125
2816.81308	11478.4125
2819.35442	11441.4125
2821.89419	11394.6125
2824.43239	11380.9125
2826.96904	11352.1125
2829.50412	11338.9125
2832.03763	11309.9125
2834.56959	11306.2125
2837.1	11280.9125
2839.62884	11277.3125
2842.15613	11251.4125
2844.68186	11263.7125
2847.20604	11243.3125
2849.72867	11235.0125
2852.24974	11200.6125
2854.76927	11198.1125
2857.28724	11162.2125
2859.80367	11155.1125
2862.31855	11098.2125
2864.83189	11100.9125
2867.34368	11063.3125
2869.85393	11076.3125
2872.36264	11057.2125
2874.8698	11032.8125
2877.37543	11021.6125
2879.87952	11007.8125
2882.38207	10988.8125
2884.88308	10995.2125
2887.38256	10998.7125
2889.88051	10977.0125
2892.37692	10976.0125
2894.8718	10949.6125
2897.36515	10977.4125
2899.85698	10962.3125
2902.34727	10976.0125
2904.83604	10980.7125
2907.32328	11003.4125
2909.809	10952.4125
2912.29319	11001.1125
2914.77587	10941.2125
2917.25702	10942.2125
2919.73665	10938.4125
2922.21476	10915.2125
2924.69136	10902.7125
2927.16644	10904.2125
2929.64	10902.5125
2932.11205	10880.4125
2934.58258	10876.6125
2937.05161	10870.5125
2939.51912	10849.0125
2941.98513	10845.1125
2944.44962	10837.7125
2946.91261	10802.4125
2949.37409	10822.9125
2951.83407	10814.0125
2954.29254	10819.0125
2956.74951	10804.5125
2959.20498	10815.4125
2961.65895	10795.1125
2964.11142	10802.7125
2966.56239	10808.3125
2969.01186	10824.3125
2971.45984	10780.9125
2973.90632	10787.9125
2976.35131	10739.1125
2978.7948	10740.7125
2981.23681	10718.4125
2983.67732	10704.7125
2986.11635	10682.5125
2988.55388	10644.6125
2990.98993	10641.6125
2993.4245	10635.6125
2995.85758	10598.3125
2998.28917	10578.3125
3000.71928	10554.0125
3003.14791	10508.6125
3005.57506	10496.6125
3008.00073	10464.8125
3010.42493	10492.5125
3012.84764	10421.9125
3015.26888	10449.7125
3017.68865	10422.4125
3020.10694	10412.6125
3022.52376	10418.1125
3024.9391	10362.3125
3027.35298	10378.8125
