Data from AgNPs_APTES_FTO_UA_100uM_CRN_0uM_R6G_10uM_Scan_RamanShift__2__15-45-02-928.txt Node

Date: Mon Jul 11 15:45:02 BST 2022
User: TCL
Spectrometer: QEP01345
Trigger mode: 4
Integration Time (sec): 7.000000E0
Scans to average: 10
Electric dark correction enabled: true
Nonlinearity correction enabled: false
Boxcar width: 0
XAxis mode: Raman Shifts
Number of Pixels in Spectrum: 1044
>>>>>Begin Spectral Data<<<<<
46.04893	-0.4
50.45542	-0.8
54.85868	-0.5
59.25871	-2.8
63.6555	57.3
68.04907	60.2
72.43941	61.4
76.82654	61.8
81.21044	70.4
85.59113	68.9
89.96862	75.3
94.34289	75.9
98.71396	77.6
103.08183	81.1
107.4465	82.1
111.80798	84
116.16626	86.1
120.52136	90.5
124.87327	98.2
129.222	100.4
133.56755	104.3
137.90993	116.6
142.24913	130.8
146.58517	146.5
150.91804	170.3
155.24774	203.4
159.57429	250.6
163.89768	324.5
168.21792	431.8
172.53501	583.9
176.84895	821.4
181.15975	1154.5
185.46741	1625.7
189.77193	2246.8
194.07331	3034.8
198.37157	3913.4
202.6667	4842.8
206.9587	5774.4
211.24758	6715.9
215.53334	7654.4
219.81599	8637.5
224.09553	9715.4
228.37195	10873.2
232.64527	12172.6
236.91549	13502.1
241.18261	14885.1
245.44663	16135
249.70755	17209.4
253.96539	18122.1
258.22014	18848.1
262.4718	19255.4
266.72039	19518.3
270.96589	19484.8
275.20832	19283.3
279.44768	18875.5
283.68397	18415.7
287.91719	17986.6
292.14735	17653.8
296.37445	17439.8
300.59849	17369
304.81948	17329
309.03742	17240
313.25231	17043.3
317.46415	16729.1
321.67296	16406.6
325.87872	16160.9
330.08145	16156.1
334.28114	16204.4
338.47781	16320.6
342.67145	16534.9
346.86207	16794
351.04966	17152
355.23424	17503.7
359.4158	17870.1
363.59435	18142
367.76989	18399.2
371.94243	18599.4
376.11196	18742.1
380.27849	18889.8
384.44203	18991.2
388.60257	19153.1
392.76012	19265.2
396.91468	19487
401.06626	19659.8
405.21485	19790.1
409.36047	19717.2
413.50311	19506.5
417.64277	19274.6
421.77947	19118.3
425.9132	19136.9
430.04396	19154.7
434.17176	19236.7
438.2966	19403.9
442.41849	19643.6
446.53742	19901.9
450.6534	20183.3
454.76644	20420.2
458.87653	20570.7
462.98368	20656
467.08789	20660.3
471.18916	20581.4
475.2875	20452.3
479.38291	20448.5
483.4754	20364.4
487.56496	20308.6
491.6516	20305.4
495.73531	20302.4
499.81612	20304.8
503.89401	20441.8
507.96899	20532
512.04106	20593.7
516.11023	20633.4
520.1765	20687.3
524.23987	20688.9
528.30034	20610.8
532.35792	20620.9
536.41261	20568.4
540.46441	20452.5
544.51333	20388
548.55936	20451.4
552.60252	20560.9
556.64279	20805.3
560.6802	21030.4
564.71473	21129
568.7464	21125.5
572.7752	21085.6
576.80114	20920.2
580.82422	20950.2
584.84444	21003.7
588.86181	21072.3
592.87633	21119.6
596.888	21211.9
600.89682	21552.9
604.9028	22601.3
608.90594	24817.2
612.90624	26855.2
616.90371	25536.8
620.89834	22626.3
624.89015	21459.8
628.87913	21386
632.86528	21676.2
636.84862	21957.3
640.82913	21906.2
644.80683	21570.2
648.78172	21370.6
652.75379	21395.6
656.72306	21677.1
660.68952	22021.6
664.65319	22059.5
668.61405	22054.1
672.57211	22283.4
676.52738	22598.3
680.47986	23034.7
684.42955	23600.2
688.37646	24044.3
692.32058	24095
696.26192	23868.3
700.20048	23550.5
704.13626	23377.9
708.06928	23222.1
711.99952	23103.4
715.927	22752.4
719.85171	22479.2
723.77365	22182
727.69284	21967.2
731.60928	21859.9
735.52295	21869.1
739.43388	21842.1
743.34206	21840.8
747.24749	21789.3
751.15017	21739.7
755.05012	21846.6
758.94733	22024.3
762.8418	22722.6
766.73354	23835.5
770.62254	25066.9
774.50882	25716.8
778.39237	25360.9
782.27321	24286.8
786.15132	23311.2
790.02671	22598.7
793.89938	22217.2
797.76935	22010.2
801.6366	21829.9
805.50115	21708.1
809.36299	21589
813.22213	21514.3
817.07857	21466.5
820.93231	21473.6
824.78336	21526.2
828.63172	21543.5
832.47738	21475.6
836.32036	21454.6
840.16066	21446.9
843.99827	21476.9
847.8332	21452.1
851.66546	21526
855.49504	21573.5
859.32195	21613.6
863.1462	21677.7
866.96777	21643.6
870.78668	21639
874.60293	21696.7
878.41652	21779
882.22745	21750.8
886.03573	21787.2
889.84136	21780.8
893.64433	21748
897.44466	21683.5
901.24235	21624.1
905.0374	21585.7
908.8298	21635.5
912.61957	21560.8
916.40671	21574.7
920.19121	21644.7
923.97308	21647.8
927.75233	21679.3
931.52895	21690.8
935.30295	21689.2
939.07433	21579
942.84309	21447.6
946.60924	21435.6
950.37278	21427.2
954.13371	21457.7
957.89203	21433.9
961.64774	21422.6
965.40086	21330.6
969.15137	21252.1
972.89929	21229.9
976.64461	21178.6
980.38733	21151
984.12747	21170.8
987.86502	21172.5
991.59999	21246.5
995.33237	21364.9
999.06217	21431.1
1002.78939	21556.8
1006.51404	21749.9
1010.23611	21943.2
1013.95561	22151.2
1017.67255	22197.7
1021.38692	22135.8
1025.09872	21949.9
1028.80796	21768.3
1032.51465	21660.4
1036.21877	21682
1039.92035	21775.9
1043.61937	21881.3
1047.31584	21929.2
1051.00976	22012.1
1054.70114	22037.3
1058.38998	22090.4
1062.07627	22144.1
1065.76003	22251.6
1069.44126	22443.5
1073.11995	22672.2
1076.79611	22993.2
1080.46974	23110.6
1084.14085	23161.6
1087.80943	23250.5
1091.47549	23332.7
1095.13903	23302
1098.80005	23276.9
1102.45857	23151.8
1106.11456	23048
1109.76805	22957.2
1113.41903	22932.6
1117.06751	23050.3
1120.71348	23209.9
1124.35696	23455.4
1127.99793	23716.3
1131.63641	23861.2
1135.2724	23777.9
1138.90589	23643.1
1142.5369	23485.3
1146.16542	23341.2
1149.79145	23137.4
1153.415	22971.9
1157.03607	22815.9
1160.65467	22811
1164.27079	23061
1167.88443	23444.5
1171.49561	23988.7
1175.10432	24800
1178.71056	25908
1182.31434	26906.4
1185.91565	27477
1189.51451	27598.8
1193.11091	27482.5
1196.70485	27084.7
1200.29634	26597.2
1203.88538	26096.4
1207.47197	25503.6
1211.05612	24979.1
1214.63782	24639.4
1218.21708	24281.3
1221.79391	23978.2
1225.36829	23751.5
1228.94024	23669.2
1232.50976	23620.1
1236.07685	23599.4
1239.6415	23615.4
1243.20374	23655.9
1246.76355	23739.7
1250.32093	23910.7
1253.8759	24118.7
1257.42845	24456.5
1260.97859	24820.8
1264.52631	25176.9
1268.07163	25454.3
1271.61453	25686.9
1275.15503	25909.8
1278.69312	26086.1
1282.22882	26200.7
1285.76211	26321.1
1289.29301	26563.8
1292.82151	27005.1
1296.34761	27410.5
1299.87133	28071.5
1303.39266	28846.6
1306.9116	29865.5
1310.42815	31021.5
1313.94233	31589.9
1317.45412	31422.9
1320.96354	30858.3
1324.47058	30210
1327.97525	29441.2
1331.47754	28795
1334.97747	28647.8
1338.47502	28792
1341.97022	29390.4
1345.46305	30205.3
1348.95352	31116.2
1352.44163	31985.7
1355.92738	32782.5
1359.41078	33798
1362.89183	34714.1
1366.37053	34067.9
1369.84688	31792.6
1373.32088	29435
1376.79254	27949.1
1380.26186	27104.9
1383.72883	26581.8
1387.19347	26170.1
1390.65578	25757.7
1394.11575	25327
1397.57339	25030.6
1401.0287	24804.9
1404.48168	24714.9
1407.93234	24649
1411.38068	24632.2
1414.82669	24546.2
1418.27039	24360.5
1421.71177	24217.7
1425.15083	24035.1
1428.58758	23902.6
1432.02203	23958.5
1435.45416	24088
1438.88399	24195
1442.31151	24361.4
1445.73673	24611.7
1449.15965	24884.7
1452.58027	25163.2
1455.9986	25382.4
1459.41463	25716.5
1462.82837	26066.1
1466.23982	26386.8
1469.64898	26699.4
1473.05586	26841.4
1476.46045	26792.8
1479.86276	26699.7
1483.26279	26540.6
1486.66054	26420.7
1490.05602	26489.9
1493.44922	26745.8
1496.84016	27340.2
1500.22882	28390.8
1503.61521	29837.4
1506.99934	31343
1510.38121	32276.5
1513.76081	32272.8
1517.13816	31254.1
1520.51324	29704.7
1523.88607	28318
1527.25665	27344.6
1530.62498	26797
1533.99105	26489.2
1537.35488	26369.6
1540.71647	26248
1544.07581	26195.3
1547.4329	26139.7
1550.78776	26087.4
1554.14038	25890.6
1557.49077	25872
1560.83892	25935.2
1564.18484	26143.4
1567.52853	26387.9
1570.86999	26654.7
1574.20922	26866
1577.54624	26731.3
1580.88103	26308.7
1584.2136	25746.3
1587.54395	25324.5
1590.87208	25325.6
1594.19801	25649.7
1597.52172	26197.1
1600.84321	26540.7
1604.16251	26370.5
1607.47959	25982.6
1610.79447	25341.6
1614.10715	24476.9
1617.41763	23706.5
1620.7259	23145.6
1624.03199	22810.4
1627.33587	22633.8
1630.63757	22645.6
1633.93707	22917.2
1637.23439	23427.9
1640.52951	24338.9
1643.82246	25519.7
1647.11321	26705.2
1650.40179	27408.8
1653.68819	26939.5
1656.97241	25563.5
1660.25446	24065.6
1663.53433	22949.2
1666.81203	22196.6
1670.08756	21822.6
1673.36092	21529.7
1676.63211	21263.2
1679.90115	21091.1
1683.16801	20910.6
1686.43272	20751.8
1689.69527	20650.9
1692.95567	20502.8
1696.2139	20441.7
1699.46999	20332.5
1702.72392	20241.6
1705.97571	20194.8
1709.22535	20104
1712.47284	20050.2
1715.71819	20031.2
1718.96139	19939.7
1722.20246	19893.9
1725.44139	19780.2
1728.67818	19683.8
1731.91284	19604.1
1735.14537	19492.4
1738.37576	19400.6
1741.60403	19317.8
1744.83017	19200.4
1748.05418	19135.6
1751.27607	19052.6
1754.49584	19018.9
1757.71349	18977.9
1760.92903	18976.3
1764.14244	18930.2
1767.35375	18967
1770.56294	18893.2
1773.77002	18874.1
1776.97499	18829.4
1780.17785	18785.9
1783.37861	18783.3
1786.57727	18740.4
1789.77382	18701.2
1792.96828	18630.9
1796.16064	18627.2
1799.3509	18567.4
1802.53907	18552.8
1805.72514	18530
1808.90913	18469.3
1812.09102	18397.7
1815.27083	18391.2
1818.44856	18363.3
1821.6242	18324.2
1824.79776	18340.5
1827.96924	18287.8
1831.13864	18261.6
1834.30597	18201.1
1837.47122	18207.6
1840.6344	18169.8
1843.7955	18179.3
1846.95454	18195.4
1850.11151	18184.9
1853.26642	18143.6
1856.41926	18133.2
1859.57004	18101.1
1862.71876	18051.3
1865.86542	18075.7
1869.01003	18049.7
1872.15258	18043.7
1875.29308	18056.6
1878.43152	18023.1
1881.56792	17987
1884.70227	17970.7
1887.83457	17974.8
1890.96482	17917.5
1894.09304	17911.6
1897.21921	17897.3
1900.34335	17901.6
1903.46544	17905.5
1906.58551	17881.1
1909.70353	17853.7
1912.81953	17846.8
1915.93349	17801.2
1919.04543	17777.2
1922.15534	17708.7
1925.26322	17715.1
1928.36908	17700
1931.47292	17634.2
1934.57473	17598.3
1937.67453	17599.6
1940.77232	17548.2
1943.86808	17470.7
1946.96184	17436.7
1950.05358	17418.4
1953.14331	17395.7
1956.23103	17321
1959.31675	17296.8
1962.40046	17250.3
1965.48217	17200.5
1968.56188	17097.6
1971.63959	17058.6
1974.7153	17015.3
1977.78901	16991
1980.86073	16946.5
1983.93046	16914.3
1986.99819	16831.9
1990.06394	16757.6
1993.1277	16742.9
1996.18947	16695.2
1999.24925	16668.7
2002.30706	16605.8
2005.36288	16565.6
2008.41672	16510.9
2011.46859	16448.2
2014.51848	16428.5
2017.56639	16407
2020.61233	16362.8
2023.6563	16319.4
2026.6983	16286.1
2029.73833	16245.1
2032.7764	16204
2035.8125	16129.8
2038.84664	16116.1
2041.87881	16112.4
2044.90903	16074.4
2047.93729	16071.8
2050.96359	16083
2053.98794	16047.3
2057.01034	16039.3
2060.03078	16030.3
2063.04927	16026.7
2066.06582	16039.6
2069.08042	16056.3
2072.09307	16039.9
2075.10378	16053.2
2078.11255	16062.8
2081.11938	16094.7
2084.12426	16112.6
2087.12722	16130.7
2090.12824	16112.5
2093.12732	16159
2096.12447	16157.7
2099.11969	16159.1
2102.11299	16154.5
2105.10435	16186.1
2108.09379	16181.5
2111.08131	16202.1
2114.0669	16186.7
2117.05057	16230.8
2120.03233	16209.8
2123.01216	16229.8
2125.99008	16221.5
2128.96609	16257
2131.94018	16238.2
2134.91236	16267.7
2137.88263	16233.2
2140.851	16241.6
2143.81746	16220
2146.78201	16197.2
2149.74466	16214.7
2152.7054	16194.1
2155.66425	16178.7
2158.6212	16178.2
2161.57625	16112.6
2164.52941	16108.6
2167.48067	16118.3
2170.43004	16102.9
2173.37752	16121.5
2176.32311	16126.1
2179.26681	16088.3
2182.20863	16061.6
2185.14856	16047.1
2188.08661	16021.8
2191.02278	15998.1
2193.95707	16036.7
2196.88948	16013.4
2199.82001	16018.9
2202.74867	16011.2
2205.67545	16001.5
2208.60037	15954.8
2211.52341	15955.9
2214.44458	15917.4
2217.36388	15871.4
2220.28132	15857.4
2223.1969	15824.6
2226.11061	15779.2
2229.02246	15791.3
2231.93245	15746.9
2234.84058	15718.4
2237.74686	15712
2240.65128	15706
2243.55385	15650
2246.45456	15650.9
2249.35343	15599.6
2252.25044	15601.6
2255.14561	15584.5
2258.03893	15584.1
2260.93041	15565.1
2263.82004	15531.7
2266.70783	15537.8
2269.59378	15503
2272.4779	15436.6
2275.36017	15357.9
2278.24061	15378.7
2281.11922	15351.7
2283.996	15318.2
2286.87094	15266.4
2289.74405	15248.3
2292.61534	15220.1
2295.4848	15209.6
2298.35243	15225.8
2301.21824	15200
2304.08223	15220.6
2306.94439	15229.7
2309.80474	15232.7
2312.66327	15189.8
2315.51999	15178.6
2318.37489	15144.7
2321.22797	15102.8
2324.07925	15103.9
2326.92871	15076.8
2329.77637	15073.3
2332.62222	15045.2
2335.46626	15012.7
2338.3085	15018
2341.14893	14983.6
2343.98756	14975.6
2346.8244	14962.1
2349.65943	14985
2352.49267	14956.7
2355.32411	14951.4
2358.15376	14930.8
2360.98161	14946.4
2363.80768	14939.7
2366.63195	14951.5
2369.45444	14932.1
2372.27514	14902.3
2375.09405	14892.4
2377.91118	14870.4
2380.72652	14859.4
2383.54009	14833.7
2386.35187	14822.7
2389.16188	14745.8
2391.97011	14734.4
2394.77657	14721.8
2397.58125	14710.4
2400.38416	14679.3
2403.18529	14631
2405.98466	14629.3
2408.78226	14610.4
2411.57809	14588.5
2414.37216	14584.9
2417.16446	14613.2
2419.955	14576.3
2422.74378	14574.4
2425.5308	14530
2428.31606	14559
2431.09956	14551.7
2433.88131	14489.7
2436.6613	14535.8
2439.43954	14504
2442.21603	14481.5
2444.99077	14422.7
2447.76377	14448.1
2450.53501	14440.2
2453.30451	14476.6
2456.07226	14398
2458.83827	14382.8
2461.60254	14391.9
2464.36507	14385.3
2467.12586	14317.3
2469.88492	14334.7
2472.64224	14334.5
2475.39782	14334.5
2478.15167	14331
2480.90379	14321.3
2483.65417	14335.9
2486.40283	14362.9
2489.14976	14335.5
2491.89497	14307.1
2494.63845	14332.5
2497.3802	14290.6
2500.12024	14298.8
2502.85855	14274.7
2505.59514	14242.9
2508.33002	14267.8
2511.06318	14218.9
2513.79462	14209.5
2516.52435	14199.3
2519.25237	14164.5
2521.97867	14140.5
2524.70327	14145.3
2527.42616	14119.6
2530.14734	14145.2
2532.86681	14137.8
2535.58458	14100.5
2538.30065	14087.7
2541.01501	14080.5
2543.72768	14053.1
2546.43864	14059.2
2549.14791	14027.4
2551.85548	14022.5
2554.56136	14010.3
2557.26554	13948.6
2559.96803	13933.9
2562.66883	13914.8
2565.36794	13916.4
2568.06536	13872.5
2570.7611	13865.7
2573.45514	13849.3
2576.14751	13841.8
2578.83819	13792.4
2581.52719	13775.6
2584.21451	13746.4
2586.90015	13723.2
2589.58411	13703.2
2592.2664	13680.8
2594.94701	13644.6
2597.62594	13643.7
2600.30321	13654.6
2602.9788	13623.4
2605.65273	13603.1
2608.32498	13615.9
2610.99557	13574.7
2613.66449	13552.6
2616.33175	13540.1
2618.99734	13532.5
2621.66128	13526.2
2624.32355	13483.5
2626.98416	13471.2
2629.64311	13441.9
2632.30041	13436.7
2634.95605	13430.7
2637.61004	13413.2
2640.26238	13420.8
2642.91306	13396.9
2645.56209	13394.5
2648.20948	13345.5
2650.85521	13351.7
2653.4993	13369.3
2656.14175	13326.5
2658.78255	13341.4
2661.42171	13347.3
2664.05923	13395.5
2666.6951	13366.9
2669.32934	13372.5
2671.96194	13378.5
2674.59291	13391
2677.22224	13384.7
2679.84993	13393.2
2682.476	13349.5
2685.10043	13400.6
2687.72324	13373.2
2690.34441	13357.1
2692.96396	13369
2695.58188	13426.5
2698.19818	13401.6
2700.81285	13391.6
2703.4259	13385.5
2706.03733	13411.9
2708.64714	13407.2
2711.25533	13425.5
2713.86191	13396.6
2716.46687	13400.8
2719.07021	13408.8
2721.67194	13439.5
2724.27206	13410.5
2726.87057	13430.9
2729.46747	13425.1
2732.06276	13449.9
2734.65644	13453.9
2737.24852	13442.7
2739.83899	13405.2
2742.42786	13409.6
2745.01513	13390.3
2747.60079	13358.6
2750.18486	13321.6
2752.76733	13310.6
2755.3482	13337.4
2757.92747	13300.4
2760.50515	13272.3
2763.08123	13314.8
2765.65573	13255.2
2768.22863	13248.3
2770.79994	13204
2773.36967	13252.4
2775.9378	13255.3
2778.50435	13225.9
2781.06932	13176.3
2783.6327	13172.7
2786.1945	13140.7
2788.75471	13143.5
2791.31335	13058.2
2793.87041	13079.8
2796.42589	13015.1
2798.97979	13033
2801.53212	13001.7
2804.08288	13002.4
2806.63206	12955.4
2809.17967	12949.7
2811.72571	12918.3
2814.27018	12877.7
2816.81308	12794.1
2819.35442	12788
2821.89419	12801.8
2824.43239	12788.3
2826.96904	12777.3
2829.50412	12768
2832.03763	12709.8
2834.56959	12721.1
2837.1	12712
2839.62884	12700.2
2842.15613	12706.4
2844.68186	12689.6
2847.20604	12686.1
2849.72867	12679.7
2852.24974	12698
2854.76927	12672.3
2857.28724	12663.3
2859.80367	12666.1
2862.31855	12659.6
2864.83189	12610.3
2867.34368	12579.4
2869.85393	12594.4
2872.36264	12600.2
2874.8698	12608.7
2877.37543	12565.5
2879.87952	12603.6
2882.38207	12590.4
2884.88308	12612.2
2887.38256	12607
2889.88051	12589.2
2892.37692	12576.3
2894.8718	12608.8
2897.36515	12607
2899.85698	12606.7
2902.34727	12643.6
2904.83604	12667.2
2907.32328	12673.2
2909.809	12660.7
2912.29319	12659.6
2914.77587	12642
2917.25702	12690.4
2919.73665	12674.5
2922.21476	12690
2924.69136	12657.5
2927.16644	12687.6
2929.64	12666.5
2932.11205	12644.7
2934.58258	12619.5
2937.05161	12644.9
2939.51912	12607.1
2941.98513	12588.7
2944.44962	12591.5
2946.91261	12544.4
2949.37409	12570.8
2951.83407	12570.9
2954.29254	12569.3
2956.74951	12586.5
2959.20498	12573.3
2961.65895	12570.4
2964.11142	12577.6
2966.56239	12573.9
2969.01186	12587
2971.45984	12544.1
2973.90632	12526.4
2976.35131	12516.2
2978.7948	12483.2
2981.23681	12441.5
2983.67732	12434.7
2986.11635	12439.9
2988.55388	12416.5
2990.98993	12439.4
2993.4245	12401.3
2995.85758	12362.9
2998.28917	12344.2
3000.71928	12333.2
3003.14791	12310
3005.57506	12267.6
3008.00073	12237.4
3010.42493	12254.2
3012.84764	12258.3
3015.26888	12239.7
3017.68865	12227.9
3020.10694	12187.5
3022.52376	12159.6
3024.9391	12157.6
3027.35298	12158.7
3029.76539	12171.4
3032.17632	12129.1
3034.5858	12096.6
3036.9938	12096.2
3039.40034	12092.9
3041.80542	12106.8
3044.20903	12060.9
3046.61118	12081.8
3049.01187	12034.6
3051.4111	12007.5
3053.80888	12017.5
3056.20519	12029.9
3058.60005	11996.8
3060.99345	11961.8
3063.3854	11948.8
3065.7759	11905.7
3068.16494	11896.6
3070.55254	11894.2
3072.93868	11894.8
3075.32338	11845.3
3077.70662	11832.3
3080.08842	11800.9
3082.46878	11814.2
3084.84769	11770.2
3087.22515	11757.9
3089.60118	11764
3091.97576	11772.2
3094.3489	11813.5
3096.72061	11793.7
3099.09087	11815.5
3101.4597	11792.8
3103.82709	11817.8
3106.19305	11808.1
3108.55757	11840.7
3110.92066	11799
3113.28232	11801.3
3115.64255	11747.2
3118.00134	11728.7
3120.35871	11713.4
3122.71466	11692.2
3125.06917	11648.9
3127.42226	11644.9
3129.77393	11640.5
3132.12417	11607.7
3134.47299	11643.8
3136.82039	11648.3
3139.16636	11673.7
3141.51092	11674.2
3143.85406	11641.2
3146.19579	11636.1
3148.53609	11657.2
3150.87499	11675.4
3153.21246	11667.4
3155.54853	11680.2
3157.88318	11685.9
3160.21642	11742.5
3162.54826	11714.3
3164.87868	11715.6
3167.2077	11706.4
3169.5353	11716.2
3171.86151	11731.5
3174.18631	11709.9
3176.5097	11680.6
3178.83169	11679.5
3181.15228	11674
3183.47147	11639.2
3185.78926	11636.8
3188.10565	11629.9
3190.42065	11606.5
3192.73424	11617.5
3195.04645	11627
3197.35725	11615.2
3199.66667	11644.8
3201.97469	11644.4
3204.28132	11635.4
3206.58656	11654.4
3208.8904	11646.2
3211.19287	11646.5
3213.49394	11666.1
3215.79363	11694.6
3218.09193	11684.8
3220.38884	11670.5
3222.68438	11692.3
3224.97853	11670.7
3227.2713	11690
3229.56269	11673.9
3231.8527	11673.6
3234.14133	11626
3236.42858	11607.2
3238.71446	11611.2
3240.99896	11560.9
3243.28209	11567.8
3245.56384	11547.9
3247.84423	11541
3250.12324	11550.7
3252.40088	11551.2
3254.67715	11570.6
3256.95205	11552.6
3259.22558	11531
3261.49775	11525.1
3263.76855	11563.3
3266.03799	11572.2
3268.30606	11557.6
3270.57277	11528.8
3272.83812	11496
3275.10211	11453.6
3277.36474	11443.5
3279.62601	11458.9
3281.88593	11421.8
3284.14448	11459.6
3286.40168	11448.2
3288.65753	11464.1
3290.91202	11491.7
3293.16516	11444
3295.41695	11426.8
3297.66738	11360.5
3299.91647	11302.2
3302.16421	11236.2
3304.4106	11209.8
3306.65564	11153.8
3308.89933	11117.5
3311.14169	11044.3
3313.38269	10972.4
3315.62236	10926
3317.86068	10848.4
3320.09766	10793.5
3322.3333	10762.7
3324.5676	10745.5
3326.80056	10602.1
3329.03219	10544
3331.26248	5.2
3333.49143	0.1
3335.71905	-0.5
