Data from AgNPs_APTES_FTO_UA_100uM_CRN_0uM_R6G_10uM_Scan_RamanShift__37__16-25-52-969.txt Node

Date: Mon Jul 11 16:25:52 BST 2022
User: TCL
Spectrometer: QEP01345
Trigger mode: 4
Integration Time (sec): 7.000000E0
Scans to average: 10
Electric dark correction enabled: true
Nonlinearity correction enabled: false
Boxcar width: 0
XAxis mode: Raman Shifts
Number of Pixels in Spectrum: 1044
>>>>>Begin Spectral Data<<<<<
46.04893	0.2125
50.45542	0.1125
54.85868	-0.5875
59.25871	-2.4875
63.6555	37.5125
68.04907	42.8125
72.43941	46.0125
76.82654	45.7125
81.21044	51.6125
85.59113	56.6125
89.96862	58.6125
94.34289	58.0125
98.71396	58.8125
103.08183	64.0125
107.4465	62.4125
111.80798	61.0125
116.16626	66.3125
120.52136	65.2125
124.87327	70.9125
129.222	72.7125
133.56755	80.5125
137.90993	84.4125
142.24913	94.5125
146.58517	99.3125
150.91804	115.0125
155.24774	143.6125
159.57429	176.6125
163.89768	225.4125
168.21792	300.7125
172.53501	410.4125
176.84895	562.6125
181.15975	789.3125
185.46741	1101.4125
189.77193	1519.8125
194.07331	2033.0125
198.37157	2614.3125
202.6667	3229.6125
206.9587	3838.5125
211.24758	4493.7125
215.53334	5165.0125
219.81599	5921.3125
224.09553	6780.9125
228.37195	7749.8125
232.64527	8757.5125
236.91549	9716.2125
241.18261	10512.0125
245.44663	11127.6125
249.70755	11567.7125
253.96539	11917.1125
258.22014	12199.8125
262.4718	12405.2125
266.72039	12530.0125
270.96589	12495.8125
275.20832	12254.4125
279.44768	11952.5125
283.68397	11571.9125
287.91719	11449.9125
292.14735	11602.1125
296.37445	12154.0125
300.59849	13040.7125
304.81948	14013.4125
309.03742	14680.9125
313.25231	14589.9125
317.46415	13557.4125
321.67296	12061.8125
325.87872	10908.5125
330.08145	10440.6125
334.28114	10444.6125
338.47781	10748.2125
342.67145	11221.6125
346.86207	12023.8125
351.04966	13176.9125
355.23424	14405.9125
359.4158	15233.0125
363.59435	15553.1125
367.76989	15631.1125
371.94243	15480.5125
376.11196	15370.0125
380.27849	15165.5125
384.44203	14859.5125
388.60257	14489.2125
392.76012	14261.3125
396.91468	14341.9125
401.06626	14786.0125
405.21485	14910.8125
409.36047	14224.3125
413.50311	12959.8125
417.64277	11870.8125
421.77947	11217.8125
425.9132	10891.1125
430.04396	10818.4125
434.17176	10866.8125
438.2966	11125.4125
442.41849	11526.7125
446.53742	11981.1125
450.6534	12311.0125
454.76644	12472.3125
458.87653	12379.2125
462.98368	12154.3125
467.08789	11880.2125
471.18916	11504.2125
475.2875	11105.6125
479.38291	10837.3125
483.4754	10720.7125
487.56496	10676.7125
491.6516	10694.6125
495.73531	10708.1125
499.81612	10738.4125
503.89401	10878.9125
507.96899	11150.9125
512.04106	11554.4125
516.11023	12019.5125
520.1765	12374.8125
524.23987	12428.4125
528.30034	12162.1125
532.35792	11854.3125
536.41261	11444.4125
540.46441	10972.7125
544.51333	10694.7125
548.55936	10673.7125
552.60252	10927.4125
556.64279	11200.0125
560.6802	11330.3125
564.71473	11752.9125
568.7464	12524.8125
572.7752	12580.2125
576.80114	11630.0125
580.82422	10825.6125
584.84444	10574.5125
588.86181	10644.9125
592.87633	10859.3125
596.888	11212.1125
600.89682	12059.8125
604.9028	15064.5125
608.90594	22490.1125
612.90624	30318.9125
616.90371	26650.3125
620.89834	16778.3125
624.89015	13177.4125
628.87913	12953.8125
632.86528	13615.5125
636.84862	14076.8125
640.82913	13471.7125
644.80683	12299.4125
648.78172	11404.9125
652.75379	11234.1125
656.72306	11772.4125
660.68952	12313.0125
664.65319	11704.6125
668.61405	10725.6125
672.57211	10350.4125
676.52738	10321.8125
680.47986	10302.0125
684.42955	10264.0125
688.37646	10277.2125
692.32058	10340.4125
696.26192	10457.8125
700.20048	10536.4125
704.13626	10538.9125
708.06928	10339.9125
711.99952	10164.8125
715.927	10206.4125
719.85171	10377.8125
723.77365	10537.9125
727.69284	10550.8125
731.60928	10450.9125
735.52295	10339.0125
739.43388	10284.4125
743.34206	10268.7125
747.24749	10272.8125
751.15017	10312.2125
755.05012	10601.8125
758.94733	11624.2125
762.8418	14014.9125
766.73354	17686.0125
770.62254	21073.8125
774.50882	22750.2125
778.39237	21318.1125
782.27321	17261.0125
786.15132	13564.6125
790.02671	11604.7125
793.89938	10807.9125
797.76935	10533.6125
801.6366	10513.1125
805.50115	10737.0125
809.36299	10973.1125
813.22213	11012.2125
817.07857	10892.5125
820.93231	10628.7125
824.78336	10430.8125
828.63172	10315.5125
832.47738	10215.1125
836.32036	10081.0125
840.16066	9933.5125
843.99827	9876.3125
847.8332	9800.7125
851.66546	9773.3125
855.49504	9790.1125
859.32195	9792.3125
863.1462	9731.2125
866.96777	9777.4125
870.78668	9875.6125
874.60293	10142.1125
878.41652	10436.7125
882.22745	10785.6125
886.03573	10998.1125
889.84136	10929.9125
893.64433	10715.9125
897.44466	10473.6125
901.24235	10218.1125
905.0374	9925.9125
908.8298	9668.8125
912.61957	9527.7125
916.40671	9451.6125
920.19121	9477.4125
923.97308	9613.6125
927.75233	9891.3125
931.52895	10160.4125
935.30295	10000.6125
939.07433	9541.9125
942.84309	9151.6125
946.60924	8966.1125
950.37278	8872.6125
954.13371	8822.6125
957.89203	8812.2125
961.64774	8788.3125
965.40086	8743.7125
969.15137	8703.3125
972.89929	8663.5125
976.64461	8659.9125
980.38733	8668.0125
984.12747	8682.8125
987.86502	8744.7125
991.59999	8838.3125
995.33237	9034.4125
999.06217	9341.1125
1002.78939	9724.4125
1006.51404	10096.3125
1010.23611	10411.3125
1013.95561	10642.2125
1017.67255	10666.4125
1021.38692	10516.5125
1025.09872	10269.8125
1028.80796	10115.8125
1032.51465	10097.7125
1036.21877	10127.6125
1039.92035	10099.4125
1043.61937	10061.8125
1047.31584	9941.8125
1051.00976	9811.2125
1054.70114	9727.8125
1058.38998	9717.3125
1062.07627	9752.4125
1065.76003	9821.0125
1069.44126	9889.3125
1073.11995	9999.4125
1076.79611	10256.8125
1080.46974	10650.2125
1084.14085	11148.5125
1087.80943	11588.0125
1091.47549	11598.4125
1095.13903	11135.4125
1098.80005	10520.5125
1102.45857	10171.7125
1106.11456	10193.0125
1109.76805	10543.5125
1113.41903	11189.9125
1117.06751	12121.6125
1120.71348	13330.8125
1124.35696	14755.3125
1127.99793	15694.5125
1131.63641	15426.8125
1135.2724	14379.7125
1138.90589	13386.7125
1142.5369	12605.6125
1146.16542	11909.7125
1149.79145	11315.3125
1153.415	10962.3125
1157.03607	10815.5125
1160.65467	10922.1125
1164.27079	11380.6125
1167.88443	12196.6125
1171.49561	13581.3125
1175.10432	15959.5125
1178.71056	19230.7125
1182.31434	21665.6125
1185.91565	22099.7125
1189.51451	20967.6125
1193.11091	19098.6125
1196.70485	17428.1125
1200.29634	16444.4125
1203.88538	15655.1125
1207.47197	14418.6125
1211.05612	13247.7125
1214.63782	12402.3125
1218.21708	11832.3125
1221.79391	11529.7125
1225.36829	11362.6125
1228.94024	11217.0125
1232.50976	11100.8125
1236.07685	11078.9125
1239.6415	11202.6125
1243.20374	11361.2125
1246.76355	11485.6125
1250.32093	11665.3125
1253.8759	11976.4125
1257.42845	12430.1125
1260.97859	12968.6125
1264.52631	13552.1125
1268.07163	14052.7125
1271.61453	14424.5125
1275.15503	14580.5125
1278.69312	14580.7125
1282.22882	14715.9125
1285.76211	15226.4125
1289.29301	15999.1125
1292.82151	16743.7125
1296.34761	17625.1125
1299.87133	19145.7125
1303.39266	21855.3125
1306.9116	25834.3125
1310.42815	29542.4125
1313.94233	30382.7125
1317.45412	27823.6125
1320.96354	24108.7125
1324.47058	20827.6125
1327.97525	18417.5125
1331.47754	17198.6125
1334.97747	16990.8125
1338.47502	17506.9125
1341.97022	18783.0125
1345.46305	20774.0125
1348.95352	23444.9125
1352.44163	26781.7125
1355.92738	31445.5125
1359.41078	38107.6125
1362.89183	42657.3125
1366.37053	39022.9125
1369.84688	30792.2125
1373.32088	24006.5125
1376.79254	19916.9125
1380.26186	17724.5125
1383.72883	16411.9125
1387.19347	15411.1125
1390.65578	14423.6125
1394.11575	13654.1125
1397.57339	13241.4125
1401.0287	13074.4125
1404.48168	12995.9125
1407.93234	13030.5125
1411.38068	13190.4125
1414.82669	13380.4125
1418.27039	13371.0125
1421.71177	13191.7125
1425.15083	12994.9125
1428.58758	12998.4125
1432.02203	13260.1125
1435.45416	13512.4125
1438.88399	13536.5125
1442.31151	13556.2125
1445.73673	13708.6125
1449.15965	13872.5125
1452.58027	13842.1125
1455.9986	13677.6125
1459.41463	13695.3125
1462.82837	13892.7125
1466.23982	14223.1125
1469.64898	14594.3125
1473.05586	14744.7125
1476.46045	14793.7125
1479.86276	15024.4125
1483.26279	15442.6125
1486.66054	16093.3125
1490.05602	17071.9125
1493.44922	18561.3125
1496.84016	21006.9125
1500.22882	24876.8125
1503.61521	30063.9125
1506.99934	35678.7125
1510.38121	39507.8125
1513.76081	39451.8125
1517.13816	34841.6125
1520.51324	28333.4125
1523.88607	22856.5125
1527.25665	19422.9125
1530.62498	17627.6125
1533.99105	16584.8125
1537.35488	16000.3125
1540.71647	15792.0125
1544.07581	15914.3125
1547.4329	16140.3125
1550.78776	16375.3125
1554.14038	16497.4125
1557.49077	16620.0125
1560.83892	16985.1125
1564.18484	17702.8125
1567.52853	18662.0125
1570.86999	19491.4125
1574.20922	19857.2125
1577.54624	19383.5125
1580.88103	17749.5125
1584.2136	15812.6125
1587.54395	14714.7125
1590.87208	14722.6125
1594.19801	15707.2125
1597.52172	17134.7125
1600.84321	17734.9125
1604.16251	17138.1125
1607.47959	16039.0125
1610.79447	14764.0125
1614.10715	13520.3125
1617.41763	12590.4125
1620.7259	12029.2125
1624.03199	11817.5125
1627.33587	11864.2125
1630.63757	12249.6125
1633.93707	13052.2125
1637.23439	14344.3125
1640.52951	16403.5125
1643.82246	19399.6125
1647.11321	22964.4125
1650.40179	25237.8125
1653.68819	24071.3125
1656.97241	20149.9125
1660.25446	16203.8125
1663.53433	13567.0125
1666.81203	12003.7125
1670.08756	11077.4125
1673.36092	10473.9125
1676.63211	10079.9125
1679.90115	9763.1125
1683.16801	9507.9125
1686.43272	9296.0125
1689.69527	9150.6125
1692.95567	8997.1125
1696.2139	8902.4125
1699.46999	8792.9125
1702.72392	8710.0125
1705.97571	8638.9125
1709.22535	8579.4125
1712.47284	8546.3125
1715.71819	8519.2125
1718.96139	8469.3125
1722.20246	8372.2125
1725.44139	8263.9125
1728.67818	8144.8125
1731.91284	8018.9125
1735.14537	7945.6125
1738.37576	7882.0125
1741.60403	7844.3125
1744.83017	7791.9125
1748.05418	7754.0125
1751.27607	7710.5125
1754.49584	7652.6125
1757.71349	7656.9125
1760.92903	7630.3125
1764.14244	7604.9125
1767.35375	7579.0125
1770.56294	7528.5125
1773.77002	7486.5125
1776.97499	7448.5125
1780.17785	7406.5125
1783.37861	7406.7125
1786.57727	7372.6125
1789.77382	7335.0125
1792.96828	7321.6125
1796.16064	7295.2125
1799.3509	7308.2125
1802.53907	7289.6125
1805.72514	7267.8125
1808.90913	7225.5125
1812.09102	7183.5125
1815.27083	7150.3125
1818.44856	7152.1125
1821.6242	7120.2125
1824.79776	7104.9125
1827.96924	7099.1125
1831.13864	7071.5125
1834.30597	7059.9125
1837.47122	7038.7125
1840.6344	7032.1125
1843.7955	7014.2125
1846.95454	7015.2125
1850.11151	7010.7125
1853.26642	6981.3125
1856.41926	6981.7125
1859.57004	6989.7125
1862.71876	6988.2125
1865.86542	6984.8125
1869.01003	6983.9125
1872.15258	6992.4125
1875.29308	6989.5125
1878.43152	6964.5125
1881.56792	6957.6125
1884.70227	6941.9125
1887.83457	6921.1125
1890.96482	6930.6125
1894.09304	6922.1125
1897.21921	6918.5125
1900.34335	6926.2125
1903.46544	6917.0125
1906.58551	6908.8125
1909.70353	6913.8125
1912.81953	6893.8125
1915.93349	6900.0125
1919.04543	6871.1125
1922.15534	6861.6125
1925.26322	6848.5125
1928.36908	6832.1125
1931.47292	6818.0125
1934.57473	6798.7125
1937.67453	6764.9125
1940.77232	6741.4125
1943.86808	6721.1125
1946.96184	6694.8125
1950.05358	6701.8125
1953.14331	6655.5125
1956.23103	6646.2125
1959.31675	6648.9125
1962.40046	6621.2125
1965.48217	6627.5125
1968.56188	6598.7125
1971.63959	6589.1125
1974.7153	6563.8125
1977.78901	6557.7125
1980.86073	6543.6125
1983.93046	6496.3125
1986.99819	6470.9125
1990.06394	6434.4125
1993.1277	6426.2125
1996.18947	6378.0125
1999.24925	6375.4125
2002.30706	6364.4125
2005.36288	6332.8125
2008.41672	6310.2125
2011.46859	6265.3125
2014.51848	6236.6125
2017.56639	6232.4125
2020.61233	6247.1125
2023.6563	6215.2125
2026.6983	6199.3125
2029.73833	6196.4125
2032.7764	6169.7125
2035.8125	6147.5125
2038.84664	6131.7125
2041.87881	6152.5125
2044.90903	6135.3125
2047.93729	6122.8125
2050.96359	6111.6125
2053.98794	6096.8125
2057.01034	6096.4125
2060.03078	6088.9125
2063.04927	6064.6125
2066.06582	6071.6125
2069.08042	6072.1125
2072.09307	6044.9125
2075.10378	6040.0125
2078.11255	6047.7125
2081.11938	6046.9125
2084.12426	6046.3125
2087.12722	6051.2125
2090.12824	6034.2125
2093.12732	6045.9125
2096.12447	6056.7125
2099.11969	6038.2125
2102.11299	6031.9125
2105.10435	6030.8125
2108.09379	6045.3125
2111.08131	6045.9125
2114.0669	6044.2125
2117.05057	6058.5125
2120.03233	6053.9125
2123.01216	6074.0125
2125.99008	6061.7125
2128.96609	6090.3125
2131.94018	6082.7125
2134.91236	6088.5125
2137.88263	6080.0125
2140.851	6082.7125
2143.81746	6077.3125
2146.78201	6067.8125
2149.74466	6042.0125
2152.7054	6054.8125
2155.66425	6039.8125
2158.6212	6021.2125
2161.57625	6005.9125
2164.52941	6013.7125
2167.48067	6025.3125
2170.43004	6012.8125
2173.37752	6016.6125
2176.32311	6014.1125
2179.26681	6031.3125
2182.20863	6011.1125
2185.14856	6022.9125
2188.08661	6017.6125
2191.02278	6030.3125
2193.95707	6010.4125
2196.88948	5994.8125
2199.82001	5983.7125
2202.74867	5976.3125
2205.67545	5982.5125
2208.60037	5948.3125
2211.52341	5986.5125
2214.44458	5957.3125
2217.36388	5951.3125
2220.28132	5925.4125
2223.1969	5898.6125
2226.11061	5893.3125
2229.02246	5900.1125
2231.93245	5866.2125
2234.84058	5857.0125
2237.74686	5871.2125
2240.65128	5834.7125
2243.55385	5846.5125
2246.45456	5847.7125
2249.35343	5862.5125
2252.25044	5822.3125
2255.14561	5835.5125
2258.03893	5866.7125
2260.93041	5863.9125
2263.82004	5856.3125
2266.70783	5870.7125
2269.59378	5820.5125
2272.4779	5811.4125
2275.36017	5788.1125
2278.24061	5780.0125
2281.11922	5783.4125
2283.996	5753.9125
2286.87094	5732.6125
2289.74405	5706.0125
2292.61534	5693.4125
2295.4848	5702.2125
2298.35243	5680.6125
2301.21824	5682.2125
2304.08223	5670.4125
2306.94439	5671.0125
2309.80474	5681.5125
2312.66327	5675.1125
2315.51999	5658.0125
2318.37489	5661.2125
2321.22797	5656.4125
2324.07925	5658.2125
2326.92871	5644.2125
2329.77637	5636.4125
2332.62222	5630.9125
2335.46626	5636.8125
2338.3085	5628.6125
2341.14893	5633.8125
2343.98756	5631.4125
2346.8244	5652.4125
2349.65943	5671.7125
2352.49267	5678.8125
2355.32411	5666.6125
2358.15376	5690.9125
2360.98161	5690.3125
2363.80768	5710.9125
2366.63195	5726.4125
2369.45444	5719.1125
2372.27514	5722.5125
2375.09405	5716.7125
2377.91118	5689.0125
2380.72652	5678.0125
2383.54009	5650.1125
2386.35187	5644.1125
2389.16188	5617.6125
2391.97011	5588.1125
2394.77657	5549.7125
2397.58125	5514.8125
2400.38416	5512.9125
2403.18529	5498.3125
2405.98466	5494.4125
2408.78226	5454.7125
2411.57809	5472.9125
2414.37216	5437.7125
2417.16446	5451.2125
2419.955	5419.2125
2422.74378	5427.7125
2425.5308	5422.6125
2428.31606	5411.0125
2431.09956	5418.6125
2433.88131	5412.3125
2436.6613	5421.9125
2439.43954	5422.2125
2442.21603	5425.0125
2444.99077	5427.5125
2447.76377	5443.0125
2450.53501	5450.4125
2453.30451	5444.8125
2456.07226	5423.2125
2458.83827	5435.2125
2461.60254	5427.3125
2464.36507	5425.9125
2467.12586	5422.4125
2469.88492	5421.5125
2472.64224	5419.5125
2475.39782	5444.1125
2478.15167	5448.7125
2480.90379	5453.5125
2483.65417	5481.9125
2486.40283	5503.5125
2489.14976	5528.9125
2491.89497	5524.9125
2494.63845	5526.3125
2497.3802	5524.8125
2500.12024	5513.0125
2502.85855	5506.6125
2505.59514	5472.5125
2508.33002	5444.8125
2511.06318	5415.7125
2513.79462	5367.2125
2516.52435	5334.3125
2519.25237	5330.1125
2521.97867	5300.6125
2524.70327	5289.3125
2527.42616	5288.1125
2530.14734	5268.0125
2532.86681	5270.5125
2535.58458	5261.9125
2538.30065	5281.1125
2541.01501	5279.6125
2543.72768	5283.4125
2546.43864	5274.6125
2549.14791	5270.7125
2551.85548	5264.7125
2554.56136	5270.0125
2557.26554	5265.1125
2559.96803	5250.8125
2562.66883	5254.3125
2565.36794	5205.8125
2568.06536	5231.0125
2570.7611	5222.0125
2573.45514	5233.4125
2576.14751	5215.4125
2578.83819	5209.2125
2581.52719	5172.0125
2584.21451	5158.4125
2586.90015	5179.9125
2589.58411	5149.6125
2592.2664	5148.6125
2594.94701	5153.6125
2597.62594	5148.3125
2600.30321	5154.6125
2602.9788	5148.4125
2605.65273	5143.7125
2608.32498	5134.3125
2610.99557	5135.8125
2613.66449	5141.5125
2616.33175	5132.0125
2618.99734	5130.8125
2621.66128	5153.3125
2624.32355	5128.6125
2626.98416	5133.0125
2629.64311	5106.2125
2632.30041	5103.8125
2634.95605	5073.0125
2637.61004	5076.6125
2640.26238	5067.9125
2642.91306	5066.9125
2645.56209	5048.4125
2648.20948	5049.5125
2650.85521	5041.1125
2653.4993	5033.2125
2656.14175	5033.0125
2658.78255	5059.8125
2661.42171	5056.3125
2664.05923	5075.6125
2666.6951	5081.6125
2669.32934	5093.7125
2671.96194	5079.3125
2674.59291	5104.1125
2677.22224	5093.6125
2679.84993	5102.4125
2682.476	5105.2125
2685.10043	5097.1125
2687.72324	5090.3125
2690.34441	5087.3125
2692.96396	5091.8125
2695.58188	5101.4125
2698.19818	5086.5125
2700.81285	5090.4125
2703.4259	5074.5125
2706.03733	5090.7125
2708.64714	5091.1125
2711.25533	5128.7125
2713.86191	5105.8125
2716.46687	5129.4125
2719.07021	5111.9125
2721.67194	5122.1125
2724.27206	5123.5125
2726.87057	5119.9125
2729.46747	5120.7125
2732.06276	5111.0125
2734.65644	5119.7125
2737.24852	5105.7125
2739.83899	5086.7125
2742.42786	5084.1125
2745.01513	5066.8125
2747.60079	5075.1125
2750.18486	5051.2125
2752.76733	5037.3125
2755.3482	5036.0125
2757.92747	5033.3125
2760.50515	5032.5125
2763.08123	5008.0125
2765.65573	5005.7125
2768.22863	5002.1125
2770.79994	4991.1125
2773.36967	5004.0125
2775.9378	5005.1125
2778.50435	4992.8125
2781.06932	4989.9125
2783.6327	4999.6125
2786.1945	5008.0125
2788.75471	5016.3125
2791.31335	5002.8125
2793.87041	4984.6125
2796.42589	4986.2125
2798.97979	4991.4125
2801.53212	4987.7125
2804.08288	4986.5125
2806.63206	4989.4125
2809.17967	4971.5125
2811.72571	4964.8125
2814.27018	4966.1125
2816.81308	4975.7125
2819.35442	4981.7125
2821.89419	4995.1125
2824.43239	5005.8125
2826.96904	5023.0125
2829.50412	5028.3125
2832.03763	5000.5125
2834.56959	5006.7125
2837.1	5000.3125
2839.62884	5014.2125
2842.15613	5027.4125
2844.68186	5049.7125
2847.20604	5050.1125
2849.72867	5070.6125
2852.24974	5083.8125
2854.76927	5107.1125
2857.28724	5077.2125
2859.80367	5086.9125
2862.31855	5092.2125
2864.83189	5090.5125
2867.34368	5079.2125
2869.85393	5105.2125
2872.36264	5100.1125
2874.8698	5089.4125
2877.37543	5093.0125
2879.87952	5084.3125
2882.38207	5088.9125
2884.88308	5072.3125
2887.38256	5075.0125
2889.88051	5055.3125
2892.37692	5060.6125
2894.8718	5059.0125
2897.36515	5080.7125
2899.85698	5086.7125
2902.34727	5097.7125
2904.83604	5076.9125
2907.32328	5119.7125
2909.809	5097.7125
2912.29319	5076.7125
2914.77587	5083.0125
2917.25702	5090.2125
2919.73665	5083.4125
2922.21476	5077.3125
2924.69136	5079.2125
2927.16644	5054.5125
2929.64	5035.4125
2932.11205	5021.5125
2934.58258	5001.2125
2937.05161	4999.3125
2939.51912	5007.7125
2941.98513	4990.9125
2944.44962	4955.7125
2946.91261	4940.1125
2949.37409	4945.7125
2951.83407	4945.6125
2954.29254	4933.3125
2956.74951	4930.7125
2959.20498	4918.8125
2961.65895	4907.7125
2964.11142	4915.3125
2966.56239	4901.1125
2969.01186	4905.0125
2971.45984	4877.4125
2973.90632	4870.0125
2976.35131	4848.9125
2978.7948	4837.0125
2981.23681	4846.0125
2983.67732	4835.2125
2986.11635	4827.5125
2988.55388	4811.4125
2990.98993	4792.5125
2993.4245	4799.5125
2995.85758	4784.7125
2998.28917	4793.1125
3000.71928	4773.7125
3003.14791	4767.2125
3005.57506	4759.1125
3008.00073	4757.5125
3010.42493	4760.8125
3012.84764	4757.1125
3015.26888	4741.1125
3017.68865	4747.9125
3020.10694	4747.2125
3022.52376	4711.3125
3024.9391	4720.1125
3027.35298	4712.0125
3029.76539	4707.9125
3032.17632	4693.2125
3034.5858	4656.1125
3036.9938	4672.4125
3039.40034	4664.5125
3041.80542	4675.7125
3044.20903	4659.1125
3046.61118	4644.7125
3049.01187	4640.0125
3051.4111	4631.3125
3053.80888	4628.5125
3056.20519	4633.3125
3058.60005	4614.8125
3060.99345	4599.9125
3063.3854	4591.4125
3065.7759	4575.9125
3068.16494	4575.3125
3070.55254	4550.7125
3072.93868	4567.0125
3075.32338	4548.6125
3077.70662	4549.8125
3080.08842	4516.7125
3082.46878	4519.1125
3084.84769	4512.9125
3087.22515	4510.4125
