Data from AgNPs_APTES_FTO_UA_100uM_CRN_0uM_R6G_10uM_Scan_RamanShift__60__16-52-42-996.txt Node

Date: Mon Jul 11 16:52:42 BST 2022
User: TCL
Spectrometer: QEP01345
Trigger mode: 4
Integration Time (sec): 7.000000E0
Scans to average: 10
Electric dark correction enabled: true
Nonlinearity correction enabled: false
Boxcar width: 0
XAxis mode: Raman Shifts
Number of Pixels in Spectrum: 1044
>>>>>Begin Spectral Data<<<<<
46.04893	0.4875
50.45542	-0.6125
54.85868	0.1875
59.25871	-2.0125
63.6555	48.7875
68.04907	49.1875
72.43941	54.7875
76.82654	49.5875
81.21044	58.0875
85.59113	58.8875
89.96862	62.2875
94.34289	61.1875
98.71396	67.7875
103.08183	65.6875
107.4465	69.4875
111.80798	67.1875
116.16626	70.4875
120.52136	75.2875
124.87327	77.5875
129.222	79.8875
133.56755	79.6875
137.90993	87.8875
142.24913	99.9875
146.58517	111.1875
150.91804	119.9875
155.24774	143.8875
159.57429	173.2875
163.89768	221.3875
168.21792	285.3875
172.53501	390.1875
176.84895	541.7875
181.15975	752.2875
185.46741	1057.4875
189.77193	1464.0875
194.07331	1959.4875
198.37157	2518.4875
202.6667	3126.0875
206.9587	3719.4875
211.24758	4305.8875
215.53334	4854.1875
219.81599	5433.0875
224.09553	6081.1875
228.37195	6799.8875
232.64527	7569.4875
236.91549	8422.1875
241.18261	9328.2875
245.44663	10196.9875
249.70755	11058.2875
253.96539	11821.2875
258.22014	12418.9875
262.4718	12920.1875
266.72039	13178.8875
270.96589	13298.1875
275.20832	13273.6875
279.44768	13164.2875
283.68397	12946.0875
287.91719	12737.2875
292.14735	12587.9875
296.37445	12426.7875
300.59849	12283.1875
304.81948	12195.1875
309.03742	12153.0875
313.25231	12105.6875
317.46415	12094.7875
321.67296	12107.5875
325.87872	12119.6875
330.08145	12209.0875
334.28114	12339.3875
338.47781	12481.5875
342.67145	12622.7875
346.86207	12782.8875
351.04966	12951.6875
355.23424	13136.0875
359.4158	13300.1875
363.59435	13478.5875
367.76989	13628.2875
371.94243	13776.0875
376.11196	13934.7875
380.27849	14097.2875
384.44203	14238.7875
388.60257	14362.5875
392.76012	14511.6875
396.91468	14637.6875
401.06626	14760.0875
405.21485	14899.1875
409.36047	14996.7875
413.50311	15081.9875
417.64277	15096.8875
421.77947	15146.6875
425.9132	15228.6875
430.04396	15354.1875
434.17176	15429.5875
438.2966	15585.7875
442.41849	15726.2875
446.53742	15888.9875
450.6534	16057.1875
454.76644	16205.3875
458.87653	16313.2875
462.98368	16436.4875
467.08789	16462.3875
471.18916	16510.3875
475.2875	16507.6875
479.38291	16497.2875
483.4754	16533.9875
487.56496	16587.4875
491.6516	16592.3875
495.73531	16633.0875
499.81612	16669.0875
503.89401	16774.9875
507.96899	16816.6875
512.04106	16884.9875
516.11023	16942.4875
520.1765	16983.3875
524.23987	17035.6875
528.30034	17088.6875
532.35792	17151.4875
536.41261	17138.2875
540.46441	17135.3875
544.51333	17185.0875
548.55936	17286.3875
552.60252	17333.3875
556.64279	17455.1875
560.6802	17557.0875
564.71473	17637.0875
568.7464	17643.3875
572.7752	17642.9875
576.80114	17671.3875
580.82422	17708.7875
584.84444	17799.3875
588.86181	17907.7875
592.87633	18016.7875
596.888	18094.8875
600.89682	18190.4875
604.9028	18467.1875
608.90594	18891.2875
612.90624	19247.7875
616.90371	18935.4875
620.89834	18497.3875
624.89015	18316.2875
628.87913	18388.4875
632.86528	18471.4875
636.84862	18517.7875
640.82913	18549.4875
644.80683	18547.2875
648.78172	18539.6875
652.75379	18583.8875
656.72306	18701.4875
660.68952	18804.8875
664.65319	18864.9875
668.61405	18925.7875
672.57211	19009.0875
676.52738	19088.5875
680.47986	19130.6875
684.42955	19185.9875
688.37646	19303.6875
692.32058	19397.3875
696.26192	19501.8875
700.20048	19589.8875
704.13626	19623.7875
708.06928	19610.1875
711.99952	19609.9875
715.927	19584.2875
719.85171	19602.2875
723.77365	19600.9875
727.69284	19562.1875
731.60928	19534.6875
735.52295	19557.9875
739.43388	19572.0875
743.34206	19616.8875
747.24749	19685.7875
751.15017	19742.0875
755.05012	19749.8875
758.94733	19831.2875
762.8418	19947.0875
766.73354	20188.5875
770.62254	20410.4875
774.50882	20592.5875
778.39237	20619.2875
782.27321	20521.8875
786.15132	20346.8875
790.02671	20227.9875
793.89938	20098.0875
797.76935	20082.0875
801.6366	20043.8875
805.50115	20067.1875
809.36299	20070.6875
813.22213	20098.4875
817.07857	20091.5875
820.93231	20155.5875
824.78336	20169.9875
828.63172	20201.8875
832.47738	20227.4875
836.32036	20304.4875
840.16066	20313.0875
843.99827	20329.6875
847.8332	20373.5875
851.66546	20421.2875
855.49504	20428.3875
859.32195	20467.8875
863.1462	20526.6875
866.96777	20562.7875
870.78668	20592.5875
874.60293	20678.0875
878.41652	20690.9875
882.22745	20738.7875
886.03573	20783.3875
889.84136	20781.0875
893.64433	20821.4875
897.44466	20837.4875
901.24235	20873.4875
905.0374	20879.1875
908.8298	20893.7875
912.61957	20905.9875
916.40671	20938.5875
920.19121	20950.4875
923.97308	20903.7875
927.75233	20912.3875
931.52895	20905.8875
935.30295	20902.4875
939.07433	20840.7875
942.84309	20815.3875
946.60924	20817.7875
950.37278	20782.5875
954.13371	20773.1875
957.89203	20790.2875
961.64774	20799.7875
965.40086	20788.5875
969.15137	20755.3875
972.89929	20740.3875
976.64461	20718.8875
980.38733	20709.5875
984.12747	20771.1875
987.86502	20805.3875
991.59999	20847.2875
995.33237	20885.2875
999.06217	20988.6875
1002.78939	21077.9875
1006.51404	21133.1875
1010.23611	21232.5875
1013.95561	21304.2875
1017.67255	21358.6875
1021.38692	21372.5875
1025.09872	21327.2875
1028.80796	21273.2875
1032.51465	21222.5875
1036.21877	21209.4875
1039.92035	21268.8875
1043.61937	21298.7875
1047.31584	21326.3875
1051.00976	21313.4875
1054.70114	21410.6875
1058.38998	21371.2875
1062.07627	21465.7875
1065.76003	21507.0875
1069.44126	21600.6875
1073.11995	21727.4875
1076.79611	21858.3875
1080.46974	21893.3875
1084.14085	21896.5875
1087.80943	21861.0875
1091.47549	21826.9875
1095.13903	21908.0875
1098.80005	21917.9875
1102.45857	21939.4875
1106.11456	21917.7875
1109.76805	21867.5875
1113.41903	21804.9875
1117.06751	21787.8875
1120.71348	21778.0875
1124.35696	21713.0875
1127.99793	21760.2875
1131.63641	21826.2875
1135.2724	21803.2875
1138.90589	21802.6875
1142.5369	21785.0875
1146.16542	21747.9875
1149.79145	21729.1875
1153.415	21664.8875
1157.03607	21568.3875
1160.65467	21540.7875
1164.27079	21618.4875
1167.88443	21698.2875
1171.49561	21807.5875
1175.10432	21962.5875
1178.71056	22224.0875
1182.31434	22414.3875
1185.91565	22634.4875
1189.51451	22785.6875
1193.11091	22914.3875
1196.70485	22932.6875
1200.29634	22881.6875
1203.88538	22844.9875
1207.47197	22691.3875
1211.05612	22595.3875
1214.63782	22502.1875
1218.21708	22399.0875
1221.79391	22293.8875
1225.36829	22205.3875
1228.94024	22197.1875
1232.50976	22153.7875
1236.07685	22157.6875
1239.6415	22161.5875
1243.20374	22208.9875
1246.76355	22261.4875
1250.32093	22362.7875
1253.8759	22461.6875
1257.42845	22565.0875
1260.97859	22697.7875
1264.52631	22831.1875
1268.07163	22834.8875
1271.61453	22909.5875
1275.15503	22888.0875
1278.69312	22917.3875
1282.22882	22909.1875
1285.76211	22903.9875
1289.29301	22901.7875
1292.82151	22950.7875
1296.34761	23035.3875
1299.87133	23157.8875
1303.39266	23300.9875
1306.9116	23481.8875
1310.42815	23676.9875
1313.94233	23839.3875
1317.45412	23904.2875
1320.96354	23869.8875
1324.47058	23795.8875
1327.97525	23606.0875
1331.47754	23416.7875
1334.97747	23374.4875
1338.47502	23453.2875
1341.97022	23696.1875
1345.46305	24030.3875
1348.95352	24292.6875
1352.44163	24433.1875
1355.92738	24413.2875
1359.41078	24340.9875
1362.89183	24184.4875
1366.37053	23860.8875
1369.84688	23416.8875
1373.32088	23027.4875
1376.79254	22676.8875
1380.26186	22452.4875
1383.72883	22281.0875
1387.19347	22171.1875
1390.65578	22009.8875
1394.11575	21899.2875
1397.57339	21720.7875
1401.0287	21716.9875
1404.48168	21589.8875
1407.93234	21616.8875
1411.38068	21567.7875
1414.82669	21617.1875
1418.27039	21492.0875
1421.71177	21435.0875
1425.15083	21366.5875
1428.58758	21315.3875
1432.02203	21317.6875
1435.45416	21293.0875
1438.88399	21247.8875
1442.31151	21227.7875
1445.73673	21235.3875
1449.15965	21307.6875
1452.58027	21280.9875
1455.9986	21273.1875
1459.41463	21324.4875
1462.82837	21398.1875
1466.23982	21552.3875
1469.64898	21654.1875
1473.05586	21761.2875
1476.46045	21782.2875
1479.86276	21828.6875
1483.26279	21885.5875
1486.66054	21857.1875
1490.05602	21958.3875
1493.44922	22055.5875
1496.84016	22183.1875
1500.22882	22381.1875
1503.61521	22573.6875
1506.99934	22755.2875
1510.38121	22763.5875
1513.76081	22679.3875
1517.13816	22521.5875
1520.51324	22413.3875
1523.88607	22284.5875
1527.25665	22230.0875
1530.62498	22229.0875
1533.99105	22203.6875
1537.35488	22218.3875
1540.71647	22262.9875
1544.07581	22299.5875
1547.4329	22314.8875
1550.78776	22243.8875
1554.14038	22181.0875
1557.49077	22229.5875
1560.83892	22195.9875
1564.18484	22257.5875
1567.52853	22293.3875
1570.86999	22283.8875
1574.20922	22292.0875
1577.54624	22288.0875
1580.88103	22221.2875
1584.2136	22137.1875
1587.54395	22128.5875
1590.87208	22144.5875
1594.19801	22298.0875
1597.52172	22495.0875
1600.84321	22618.9875
1604.16251	22616.9875
1607.47959	22549.1875
1610.79447	22328.4875
1614.10715	21948.9875
1617.41763	21675.5875
1620.7259	21449.5875
1624.03199	21311.0875
1627.33587	21233.0875
1630.63757	21191.0875
1633.93707	21214.4875
1637.23439	21357.7875
1640.52951	21605.7875
1643.82246	21850.7875
1647.11321	22073.1875
1650.40179	22072.6875
1653.68819	21862.0875
1656.97241	21492.4875
1660.25446	21124.0875
1663.53433	20861.9875
1666.81203	20680.1875
1670.08756	20540.6875
1673.36092	20468.7875
1676.63211	20345.3875
1679.90115	20303.2875
1683.16801	20224.8875
1686.43272	20181.6875
1689.69527	20172.8875
1692.95567	20139.9875
1696.2139	20145.6875
1699.46999	20155.2875
1702.72392	20168.7875
1705.97571	20140.8875
1709.22535	20156.8875
1712.47284	20115.5875
1715.71819	20136.1875
1718.96139	20131.3875
1722.20246	20052.7875
1725.44139	20011.2875
1728.67818	19972.6875
1731.91284	19926.7875
1735.14537	19868.0875
1738.37576	19865.9875
1741.60403	19772.4875
1744.83017	19691.7875
1748.05418	19660.5875
1751.27607	19651.5875
1754.49584	19605.1875
1757.71349	19630.5875
1760.92903	19611.6875
1764.14244	19573.7875
1767.35375	19598.7875
1770.56294	19555.0875
1773.77002	19552.5875
1776.97499	19545.9875
1780.17785	19525.1875
1783.37861	19509.3875
1786.57727	19487.4875
1789.77382	19469.2875
1792.96828	19448.0875
1796.16064	19421.5875
1799.3509	19395.6875
1802.53907	19389.8875
1805.72514	19357.1875
1808.90913	19303.7875
1812.09102	19247.8875
1815.27083	19219.9875
1818.44856	19190.8875
1821.6242	19166.0875
1824.79776	19133.9875
1827.96924	19151.0875
1831.13864	19112.2875
1834.30597	19057.7875
1837.47122	19081.1875
1840.6344	19053.2875
1843.7955	19037.8875
1846.95454	19033.6875
1850.11151	19008.9875
1853.26642	19037.6875
1856.41926	18998.9875
1859.57004	19033.2875
1862.71876	19013.4875
1865.86542	19018.5875
1869.01003	18948.6875
1872.15258	18940.2875
1875.29308	18916.6875
1878.43152	18901.0875
1881.56792	18858.4875
1884.70227	18833.4875
1887.83457	18836.9875
1890.96482	18781.6875
1894.09304	18777.5875
1897.21921	18728.7875
1900.34335	18725.4875
1903.46544	18722.1875
1906.58551	18673.5875
1909.70353	18654.4875
1912.81953	18635.9875
1915.93349	18583.8875
1919.04543	18560.6875
1922.15534	18528.0875
1925.26322	18513.8875
1928.36908	18500.8875
1931.47292	18460.9875
1934.57473	18421.8875
1937.67453	18357.8875
1940.77232	18319.4875
1943.86808	18277.8875
1946.96184	18232.2875
1950.05358	18215.7875
1953.14331	18176.3875
1956.23103	18109.3875
1959.31675	18066.4875
1962.40046	17978.2875
1965.48217	17968.3875
1968.56188	17916.7875
1971.63959	17842.5875
1974.7153	17795.0875
1977.78901	17758.9875
1980.86073	17706.7875
1983.93046	17648.3875
1986.99819	17583.7875
1990.06394	17537.2875
1993.1277	17499.7875
1996.18947	17451.1875
1999.24925	17425.7875
2002.30706	17344.6875
2005.36288	17306.6875
2008.41672	17266.7875
2011.46859	17210.3875
2014.51848	17158.7875
2017.56639	17109.1875
2020.61233	17043.7875
2023.6563	16996.2875
2026.6983	16975.1875
2029.73833	16934.0875
2032.7764	16856.6875
2035.8125	16848.0875
2038.84664	16786.4875
2041.87881	16761.9875
2044.90903	16754.3875
2047.93729	16712.1875
2050.96359	16652.0875
2053.98794	16645.5875
2057.01034	16621.3875
2060.03078	16642.9875
2063.04927	16641.4875
2066.06582	16585.7875
2069.08042	16593.0875
2072.09307	16586.7875
2075.10378	16594.4875
2078.11255	16575.4875
2081.11938	16559.5875
2084.12426	16581.7875
2087.12722	16513.0875
2090.12824	16489.9875
2093.12732	16531.7875
2096.12447	16575.2875
2099.11969	16524.6875
2102.11299	16498.9875
2105.10435	16521.1875
2108.09379	16546.7875
2111.08131	16545.7875
2114.0669	16552.1875
2117.05057	16564.8875
2120.03233	16583.2875
2123.01216	16572.1875
2125.99008	16575.2875
2128.96609	16575.2875
2131.94018	16624.6875
2134.91236	16654.0875
2137.88263	16625.6875
2140.851	16601.8875
2143.81746	16683.6875
2146.78201	16688.4875
2149.74466	16670.3875
2152.7054	16665.7875
2155.66425	16653.3875
2158.6212	16687.6875
2161.57625	16620.8875
2164.52941	16639.8875
2167.48067	16613.9875
2170.43004	16612.8875
2173.37752	16607.0875
2176.32311	16609.5875
2179.26681	16580.4875
2182.20863	16558.9875
2185.14856	16609.7875
2188.08661	16616.5875
2191.02278	16618.9875
2193.95707	16574.4875
2196.88948	16590.7875
2199.82001	16543.3875
2202.74867	16520.3875
2205.67545	16535.4875
2208.60037	16490.2875
2211.52341	16446.0875
2214.44458	16427.1875
2217.36388	16384.7875
2220.28132	16340.3875
2223.1969	16267.2875
2226.11061	16263.1875
2229.02246	16235.9875
2231.93245	16212.8875
2234.84058	16204.0875
2237.74686	16143.0875
2240.65128	16137.3875
2243.55385	16118.0875
2246.45456	16093.7875
2249.35343	16107.8875
2252.25044	16041.3875
2255.14561	16026.8875
2258.03893	16031.8875
2260.93041	15984.3875
2263.82004	15919.6875
2266.70783	15900.5875
2269.59378	15854.1875
2272.4779	15821.2875
2275.36017	15784.7875
2278.24061	15772.9875
2281.11922	15728.9875
2283.996	15671.9875
2286.87094	15641.4875
2289.74405	15629.7875
2292.61534	15599.4875
2295.4848	15581.9875
2298.35243	15591.8875
2301.21824	15583.6875
2304.08223	15549.5875
2306.94439	15527.0875
2309.80474	15530.4875
2312.66327	15503.8875
2315.51999	15500.1875
2318.37489	15439.7875
2321.22797	15425.0875
2324.07925	15385.4875
2326.92871	15354.8875
2329.77637	15342.7875
2332.62222	15293.0875
2335.46626	15265.0875
2338.3085	15250.9875
2341.14893	15193.7875
2343.98756	15216.2875
2346.8244	15191.8875
2349.65943	15161.4875
2352.49267	15152.1875
2355.32411	15158.3875
2358.15376	15094.8875
2360.98161	15104.1875
2363.80768	15091.0875
2366.63195	15066.1875
2369.45444	15062.4875
2372.27514	15048.3875
2375.09405	14981.2875
2377.91118	14988.2875
2380.72652	14970.2875
2383.54009	14952.3875
2386.35187	14929.8875
2389.16188	14865.7875
2391.97011	14832.1875
2394.77657	14788.6875
2397.58125	14813.9875
2400.38416	14762.3875
2403.18529	14743.0875
2405.98466	14720.6875
2408.78226	14689.3875
2411.57809	14656.1875
2414.37216	14622.4875
2417.16446	14596.4875
2419.955	14626.7875
2422.74378	14622.4875
2425.5308	14595.7875
2428.31606	14591.3875
2431.09956	14560.8875
2433.88131	14535.8875
2436.6613	14545.4875
2439.43954	14514.0875
2442.21603	14495.8875
2444.99077	14457.4875
2447.76377	14449.0875
2450.53501	14438.7875
2453.30451	14405.7875
2456.07226	14368.4875
2458.83827	14329.4875
2461.60254	14316.7875
2464.36507	14293.1875
2467.12586	14297.7875
2469.88492	14285.4875
2472.64224	14245.0875
2475.39782	14231.8875
2478.15167	14231.9875
2480.90379	14195.2875
2483.65417	14223.3875
2486.40283	14201.3875
2489.14976	14198.0875
2491.89497	14164.2875
2494.63845	14131.5875
2497.3802	14115.0875
2500.12024	14122.6875
2502.85855	14090.1875
2505.59514	14070.4875
2508.33002	14059.0875
2511.06318	14019.1875
2513.79462	13989.9875
2516.52435	13981.1875
2519.25237	13975.0875
2521.97867	13923.8875
2524.70327	13936.9875
2527.42616	13871.2875
2530.14734	13910.0875
2532.86681	13853.8875
2535.58458	13868.2875
2538.30065	13808.9875
2541.01501	13772.9875
2543.72768	13783.9875
2546.43864	13746.4875
2549.14791	13712.6875
2551.85548	13697.3875
2554.56136	13645.0875
2557.26554	13646.2875
2559.96803	13589.1875
2562.66883	13551.9875
2565.36794	13536.5875
2568.06536	13519.4875
2570.7611	13479.0875
2573.45514	13461.4875
2576.14751	13432.9875
2578.83819	13388.1875
2581.52719	13396.7875
2584.21451	13339.6875
2586.90015	13331.2875
2589.58411	13279.2875
2592.2664	13283.2875
2594.94701	13243.2875
2597.62594	13227.7875
2600.30321	13224.0875
2602.9788	13184.3875
2605.65273	13182.4875
2608.32498	13173.6875
2610.99557	13119.1875
2613.66449	13107.2875
2616.33175	13073.9875
2618.99734	13061.1875
2621.66128	13002.8875
2624.32355	12985.2875
2626.98416	12971.6875
2629.64311	12937.0875
2632.30041	12939.3875
2634.95605	12932.9875
2637.61004	12865.6875
2640.26238	12832.2875
2642.91306	12830.5875
2645.56209	12820.1875
2648.20948	12807.3875
2650.85521	12771.7875
2653.4993	12752.4875
2656.14175	12751.7875
2658.78255	12744.7875
2661.42171	12753.3875
2664.05923	12747.8875
2666.6951	12746.7875
2669.32934	12785.8875
2671.96194	12769.9875
2674.59291	12759.2875
2677.22224	12737.7875
2679.84993	12736.6875
2682.476	12691.1875
2685.10043	12708.0875
2687.72324	12695.9875
2690.34441	12652.2875
2692.96396	12661.8875
2695.58188	12688.6875
2698.19818	12647.9875
2700.81285	12676.7875
2703.4259	12650.7875
2706.03733	12666.8875
2708.64714	12610.9875
2711.25533	12597.5875
2713.86191	12603.2875
2716.46687	12645.9875
2719.07021	12619.6875
2721.67194	12624.2875
2724.27206	12615.6875
2726.87057	12626.1875
2729.46747	12593.1875
2732.06276	12599.3875
2734.65644	12625.1875
2737.24852	12593.1875
2739.83899	12586.6875
2742.42786	12568.6875
2745.01513	12534.2875
2747.60079	12526.0875
2750.18486	12497.3875
2752.76733	12474.1875
2755.3482	12425.1875
2757.92747	12485.9875
2760.50515	12439.3875
2763.08123	12418.4875
2765.65573	12368.3875
2768.22863	12371.6875
2770.79994	12324.7875
2773.36967	12330.5875
2775.9378	12298.4875
2778.50435	12287.7875
2781.06932	12270.8875
2783.6327	12240.7875
2786.1945	12198.2875
2788.75471	12182.2875
2791.31335	12132.8875
2793.87041	12135.8875
2796.42589	12102.4875
2798.97979	12084.8875
2801.53212	12024.3875
2804.08288	12002.9875
2806.63206	11968.1875
2809.17967	11942.6875
2811.72571	11899.0875
2814.27018	11866.7875
2816.81308	11866.2875
2819.35442	11798.5875
2821.89419	11780.3875
2824.43239	11777.4875
2826.96904	11751.8875
2829.50412	11699.1875
2832.03763	11692.8875
2834.56959	11693.7875
2837.1	11665.3875
2839.62884	11660.5875
2842.15613	11619.4875
2844.68186	11652.8875
2847.20604	11605.8875
2849.72867	11631.6875
2852.24974	11576.6875
2854.76927	11563.6875
2857.28724	11548.2875
2859.80367	11516.9875
2862.31855	11476.5875
2864.83189	11482.1875
2867.34368	11446.1875
2869.85393	11434.4875
2872.36264	11442.9875
2874.8698	11431.0875
2877.37543	11377.5875
2879.87952	11379.1875
2882.38207	11370.1875
2884.88308	11358.3875
2887.38256	11376.0875
2889.88051	11343.1875
2892.37692	11333.4875
2894.8718	11330.1875
2897.36515	11346.5875
2899.85698	11320.7875
2902.34727	11373.4875
2904.83604	11331.1875
2907.32328	11355.5875
2909.809	11324.6875
2912.29319	11347.0875
2914.77587	11316.4875
2917.25702	11326.9875
2919.73665	11321.2875
2922.21476	11292.6875
2924.69136	11278.1875
2927.16644	11292.1875
2929.64	11263.0875
2932.11205	11250.9875
2934.58258	11223.2875
2937.05161	11207.2875
2939.51912	11205.9875
2941.98513	11208.4875
2944.44962	11173.0875
2946.91261	11153.1875
2949.37409	11168.4875
2951.83407	11172.3875
2954.29254	11187.6875
2956.74951	11167.1875
2959.20498	11167.8875
2961.65895	11150.5875
2964.11142	11169.1875
2966.56239	11178.5875
2969.01186	11146.4875
2971.45984	11144.0875
2973.90632	11140.3875
2976.35131	11117.6875
2978.7948	11061.1875
2981.23681	11073.7875
2983.67732	11051.7875
2986.11635	11043.2875
2988.55388	11029.2875
2990.98993	11003.3875
2993.4245	10983.1875
2995.85758	10975.4875
2998.28917	10911.5875
3000.71928	10871.5875
3003.14791	10875.3875
3005.57506	10836.3875
3008.00073	10797.3875
3010.42493	10814.7875
3012.84764	10779.7875
3015.26888	10779.2875
3017.68865	10773.8875
3020.10694	10761.5875
3022.52376	10759.6875
3024.9391	10711.1875
3027.35298	10718.6875
