Data from AgNPs_APTES_FTO_UA_100uM_CRN_0uM_R6G_10uM_Scan_RamanShift__45__16-35-12-979.txt Node

Date: Mon Jul 11 16:35:12 BST 2022
User: TCL
Spectrometer: QEP01345
Trigger mode: 4
Integration Time (sec): 7.000000E0
Scans to average: 10
Electric dark correction enabled: true
Nonlinearity correction enabled: false
Boxcar width: 0
XAxis mode: Raman Shifts
Number of Pixels in Spectrum: 1044
>>>>>Begin Spectral Data<<<<<
46.04893	-0.225
50.45542	-0.325
54.85868	0.375
59.25871	-1.325
63.6555	59.175
68.04907	65.075
72.43941	70.075
76.82654	71.275
81.21044	77.175
85.59113	76.375
89.96862	82.475
94.34289	81.875
98.71396	87.875
103.08183	85.475
107.4465	87.475
111.80798	95.375
116.16626	94.775
120.52136	102.775
124.87327	100.075
129.222	108.675
133.56755	117.275
137.90993	129.675
142.24913	140.475
146.58517	157.475
150.91804	182.175
155.24774	222.675
159.57429	272.475
163.89768	350.875
168.21792	466.975
172.53501	636.675
176.84895	889.675
181.15975	1250.375
185.46741	1751.675
189.77193	2411.775
194.07331	3243.875
198.37157	4170.575
202.6667	5145.375
206.9587	6137.875
211.24758	7096.975
215.53334	8061.875
219.81599	9102.375
224.09553	10246.875
228.37195	11503.675
232.64527	12907.375
236.91549	14332.275
241.18261	15734.575
245.44663	17001.975
249.70755	18079.475
253.96539	19046.975
258.22014	19789.675
262.4718	20315.775
266.72039	20650.275
270.96589	20696.375
275.20832	20545.675
279.44768	20205.175
283.68397	19809.475
287.91719	19442.175
292.14735	19208.175
296.37445	19146.175
300.59849	19226.775
304.81948	19451.575
309.03742	19568.975
313.25231	19522.875
317.46415	19238.475
321.67296	18817.175
325.87872	18504.575
330.08145	18347.975
334.28114	18336.875
338.47781	18473.275
342.67145	18740.675
346.86207	19121.775
351.04966	19593.775
355.23424	20056.075
359.4158	20451.275
363.59435	20648.875
367.76989	20794.775
371.94243	20887.075
376.11196	20901.475
380.27849	20965.975
384.44203	21039.075
388.60257	21156.775
392.76012	21342.775
396.91468	21583.875
401.06626	21897.975
405.21485	22076.275
409.36047	21941.175
413.50311	21583.275
417.64277	21319.075
421.77947	21220.175
425.9132	21275.275
430.04396	21349.375
434.17176	21472.375
438.2966	21673.475
442.41849	22123.775
446.53742	22672.975
450.6534	23202.175
454.76644	23506.675
458.87653	23490.775
462.98368	23348.075
467.08789	23061.675
471.18916	22717.375
475.2875	22278.275
479.38291	21915.575
483.4754	21719.875
487.56496	21667.075
491.6516	21694.275
495.73531	21845.975
499.81612	22016.275
503.89401	22265.675
507.96899	22388.175
512.04106	22395.775
516.11023	22405.275
520.1765	22370.575
524.23987	22344.775
528.30034	22283.675
532.35792	22161.875
536.41261	21932.475
540.46441	21675.275
544.51333	21568.175
548.55936	21671.775
552.60252	21987.575
556.64279	22367.975
560.6802	22581.175
564.71473	22684.475
568.7464	22899.175
572.7752	23168.175
576.80114	23318.975
580.82422	23709.375
584.84444	24410.375
588.86181	25305.075
592.87633	26072.475
596.888	26139.375
600.89682	25742.375
604.9028	26410.175
608.90594	29135.775
612.90624	31648.375
616.90371	29282.775
620.89834	24861.275
624.89015	23148.475
628.87913	22997.175
632.86528	23327.575
636.84862	23519.575
640.82913	23259.075
644.80683	22832.875
648.78172	22506.675
652.75379	22511.375
656.72306	22853.675
660.68952	23128.775
664.65319	22852.375
668.61405	22461.475
672.57211	22493.275
676.52738	22644.275
680.47986	22720.375
684.42955	22672.775
688.37646	22734.475
692.32058	22842.875
696.26192	22869.975
700.20048	22856.075
704.13626	22816.475
708.06928	22647.475
711.99952	22419.575
715.927	22386.775
719.85171	22503.675
723.77365	22458.975
727.69284	22285.175
731.60928	22146.475
735.52295	22252.775
739.43388	22328.275
743.34206	22424.375
747.24749	22503.075
751.15017	22580.875
755.05012	22792.175
758.94733	23376.775
762.8418	24565.375
766.73354	26400.275
770.62254	28053.875
774.50882	28433.975
778.39237	27348.975
782.27321	25605.175
786.15132	24121.375
790.02671	23179.675
793.89938	22715.675
797.76935	22555.175
801.6366	22488.175
805.50115	22438.375
809.36299	22424.575
813.22213	22332.075
817.07857	22189.375
820.93231	22046.275
824.78336	21879.175
828.63172	21825.275
832.47738	21803.075
836.32036	21809.375
840.16066	21761.075
843.99827	21748.475
847.8332	21773.975
851.66546	21807.975
855.49504	21887.675
859.32195	21930.775
863.1462	21926.575
866.96777	21909.875
870.78668	21934.575
874.60293	22024.475
878.41652	22130.875
882.22745	22232.975
886.03573	22344.975
889.84136	22366.075
893.64433	22272.475
897.44466	22155.275
901.24235	22036.775
905.0374	21934.275
908.8298	21881.575
912.61957	21761.975
916.40671	21874.575
920.19121	21977.175
923.97308	22138.575
927.75233	22246.775
931.52895	22194.875
935.30295	22006.075
939.07433	21703.475
942.84309	21488.075
946.60924	21405.075
950.37278	21403.975
954.13371	21386.475
957.89203	21382.075
961.64774	21356.775
965.40086	21364.975
969.15137	21379.675
972.89929	21389.875
976.64461	21373.175
980.38733	21413.775
984.12747	21503.275
987.86502	21598.775
991.59999	21741.775
995.33237	21905.575
999.06217	22258.775
1002.78939	22719.975
1006.51404	23169.875
1010.23611	23593.375
1013.95561	23846.175
1017.67255	23851.975
1021.38692	23586.175
1025.09872	23196.675
1028.80796	22975.775
1032.51465	22918.875
1036.21877	23011.175
1039.92035	23067.875
1043.61937	23047.975
1047.31584	22948.575
1051.00976	22863.775
1054.70114	22862.975
1058.38998	22918.375
1062.07627	23036.775
1065.76003	23252.675
1069.44126	23534.375
1073.11995	23964.575
1076.79611	24374.275
1080.46974	24670.775
1084.14085	24881.375
1087.80943	25081.075
1091.47549	25194.175
1095.13903	25036.675
1098.80005	24652.275
1102.45857	24222.975
1106.11456	24039.975
1109.76805	23950.375
1113.41903	24085.975
1117.06751	24318.275
1120.71348	24658.875
1124.35696	25166.275
1127.99793	25714.275
1131.63641	25948.775
1135.2724	25824.975
1138.90589	25619.275
1142.5369	25444.975
1146.16542	25230.775
1149.79145	25079.075
1153.415	24861.875
1157.03607	24762.375
1160.65467	24970.775
1164.27079	25449.275
1167.88443	26333.275
1171.49561	27484.075
1175.10432	29118.175
1178.71056	31232.675
1182.31434	33011.475
1185.91565	33767.075
1189.51451	33591.775
1193.11091	32779.875
1196.70485	31828.775
1200.29634	30906.275
1203.88538	30202.275
1207.47197	29621.775
1211.05612	29004.775
1214.63782	28451.975
1218.21708	28054.375
1221.79391	27804.775
1225.36829	27756.075
1228.94024	27695.875
1232.50976	27455.775
1236.07685	27129.575
1239.6415	26864.575
1243.20374	26849.275
1246.76355	27045.875
1250.32093	27316.675
1253.8759	27729.875
1257.42845	28411.575
1260.97859	29105.375
1264.52631	29894.975
1268.07163	30665.975
1271.61453	31285.675
1275.15503	31825.675
1278.69312	32070.575
1282.22882	32334.075
1285.76211	32807.575
1289.29301	33567.775
1292.82151	34530.275
1296.34761	35579.775
1299.87133	37021.175
1303.39266	38800.675
1306.9116	41075.575
1310.42815	43231.875
1313.94233	44381.975
1317.45412	43799.275
1320.96354	42148.575
1324.47058	40454.175
1327.97525	39060.775
1331.47754	38160.175
1334.97747	37829.575
1338.47502	37869.675
1341.97022	38312.775
1345.46305	39035.475
1348.95352	39845.275
1352.44163	40872.875
1355.92738	42505.975
1359.41078	44802.275
1362.89183	46664.275
1366.37053	45618.075
1369.84688	41558.275
1373.32088	37177.275
1376.79254	34463.375
1380.26186	33156.575
1383.72883	32687.875
1387.19347	32322.775
1390.65578	31812.575
1394.11575	31335.075
1397.57339	31028.175
1401.0287	30967.075
1404.48168	30909.275
1407.93234	30866.375
1411.38068	30768.575
1414.82669	30409.475
1418.27039	29969.175
1421.71177	29493.575
1425.15083	29204.575
1428.58758	29239.975
1432.02203	29670.875
1435.45416	30214.475
1438.88399	30702.975
1442.31151	30899.775
1445.73673	30930.075
1449.15965	30944.575
1452.58027	30841.875
1455.9986	30803.875
1459.41463	31011.075
1462.82837	31545.175
1466.23982	32159.875
1469.64898	32609.775
1473.05586	32930.475
1476.46045	33031.475
1479.86276	32972.075
1483.26279	32910.075
1486.66054	32948.075
1490.05602	33269.475
1493.44922	33861.075
1496.84016	34602.975
1500.22882	35831.475
1503.61521	37504.975
1506.99934	39307.775
1510.38121	40394.075
1513.76081	40270.375
1517.13816	38713.975
1520.51324	36465.375
1523.88607	34555.675
1527.25665	33509.175
1530.62498	33048.175
1533.99105	32837.775
1537.35488	32679.475
1540.71647	32324.975
1544.07581	31909.575
1547.4329	31658.675
1550.78776	31312.675
1554.14038	31079.375
1557.49077	31042.775
1560.83892	31125.475
1564.18484	31410.875
1567.52853	31654.675
1570.86999	31958.075
1574.20922	32160.575
1577.54624	32091.775
1580.88103	31484.375
1584.2136	30969.075
1587.54395	31074.375
1590.87208	31995.275
1594.19801	33502.375
1597.52172	35131.575
1600.84321	35722.775
1604.16251	34755.575
1607.47959	32934.275
1610.79447	30832.375
1614.10715	28925.175
1617.41763	27420.075
1620.7259	26405.475
1624.03199	25959.475
1627.33587	26007.275
1630.63757	26487.275
1633.93707	27654.375
1637.23439	29557.975
1640.52951	32376.975
1643.82246	35704.575
1647.11321	38144.875
1650.40179	38506.575
1653.68819	36036.075
1656.97241	32109.375
1660.25446	28550.975
1663.53433	26072.275
1666.81203	24560.475
1670.08756	23616.075
1673.36092	23019.475
1676.63211	22590.475
1679.90115	22270.975
1683.16801	21951.475
1686.43272	21697.275
1689.69527	21467.275
1692.95567	21294.575
1696.2139	21154.575
1699.46999	21019.975
1702.72392	20931.375
1705.97571	20863.475
1709.22535	20750.475
1712.47284	20681.175
1715.71819	20670.775
1718.96139	20600.875
1722.20246	20546.075
1725.44139	20406.875
1728.67818	20320.575
1731.91284	20201.375
1735.14537	20118.075
1738.37576	20044.475
1741.60403	19947.675
1744.83017	19909.875
1748.05418	19888.375
1751.27607	19782.175
1754.49584	19770.675
1757.71349	19721.375
1760.92903	19678.175
1764.14244	19622.675
1767.35375	19651.675
1770.56294	19625.875
1773.77002	19564.375
1776.97499	19596.975
1780.17785	19519.075
1783.37861	19475.875
1786.57727	19440.775
1789.77382	19443.875
1792.96828	19383.675
1796.16064	19368.975
1799.3509	19364.775
1802.53907	19335.075
1805.72514	19273.875
1808.90913	19201.875
1812.09102	19160.275
1815.27083	19127.275
1818.44856	19123.175
1821.6242	19080.775
1824.79776	19079.375
1827.96924	19109.875
1831.13864	19055.175
1834.30597	18990.975
1837.47122	19009.575
1840.6344	18993.375
1843.7955	18978.475
1846.95454	18993.275
1850.11151	18971.775
1853.26642	18983.675
1856.41926	18983.775
1859.57004	18950.475
1862.71876	18915.275
1865.86542	18900.775
1869.01003	18872.975
1872.15258	18848.375
1875.29308	18884.375
1878.43152	18867.675
1881.56792	18784.575
1884.70227	18790.875
1887.83457	18770.075
1890.96482	18787.375
1894.09304	18696.875
1897.21921	18690.975
1900.34335	18654.075
1903.46544	18615.175
1906.58551	18627.075
1909.70353	18616.175
1912.81953	18594.075
1915.93349	18598.375
1919.04543	18534.875
1922.15534	18515.375
1925.26322	18448.075
1928.36908	18426.975
1931.47292	18398.575
1934.57473	18338.575
1937.67453	18293.875
1940.77232	18264.575
1943.86808	18220.775
1946.96184	18185.575
1950.05358	18118.075
1953.14331	18090.875
1956.23103	18038.775
1959.31675	18014.275
1962.40046	17939.775
1965.48217	17913.075
1968.56188	17838.775
1971.63959	17782.475
1974.7153	17733.175
1977.78901	17681.275
1980.86073	17598.175
1983.93046	17602.275
1986.99819	17545.375
1990.06394	17498.775
1993.1277	17455.675
1996.18947	17403.875
1999.24925	17357.975
2002.30706	17335.675
2005.36288	17236.475
2008.41672	17218.875
2011.46859	17189.175
2014.51848	17129.175
2017.56639	17105.775
2020.61233	17045.375
2023.6563	17035.575
2026.6983	17004.275
2029.73833	16931.175
2032.7764	16888.975
2035.8125	16848.775
2038.84664	16797.175
2041.87881	16797.675
2044.90903	16796.275
2047.93729	16771.575
2050.96359	16750.175
2053.98794	16730.875
2057.01034	16694.075
2060.03078	16657.875
2063.04927	16661.475
2066.06582	16665.275
2069.08042	16639.475
2072.09307	16642.375
2075.10378	16609.475
2078.11255	16638.775
2081.11938	16622.975
2084.12426	16615.875
2087.12722	16590.975
2090.12824	16610.375
2093.12732	16596.975
2096.12447	16590.375
2099.11969	16603.075
2102.11299	16632.275
2105.10435	16606.075
2108.09379	16619.475
2111.08131	16613.275
2114.0669	16630.175
2117.05057	16647.375
2120.03233	16658.975
2123.01216	16661.375
2125.99008	16685.775
2128.96609	16684.175
2131.94018	16697.575
2134.91236	16690.575
2137.88263	16739.775
2140.851	16702.475
2143.81746	16739.875
2146.78201	16712.775
2149.74466	16745.475
2152.7054	16728.575
2155.66425	16751.075
2158.6212	16736.375
2161.57625	16715.975
2164.52941	16683.475
2167.48067	16708.075
2170.43004	16696.275
2173.37752	16714.075
2176.32311	16696.875
2179.26681	16685.875
2182.20863	16699.575
2185.14856	16705.175
2188.08661	16720.275
2191.02278	16714.775
2193.95707	16713.875
2196.88948	16683.575
2199.82001	16691.575
2202.74867	16665.375
2205.67545	16622.175
2208.60037	16599.075
2211.52341	16573.075
2214.44458	16564.175
2217.36388	16569.975
2220.28132	16518.375
2223.1969	16444.275
2226.11061	16428.575
2229.02246	16420.975
2231.93245	16394.875
2234.84058	16334.375
2237.74686	16315.175
2240.65128	16297.675
2243.55385	16313.775
2246.45456	16280.275
2249.35343	16262.175
2252.25044	16237.375
2255.14561	16211.775
2258.03893	16182.275
2260.93041	16178.975
2263.82004	16143.275
2266.70783	16077.575
2269.59378	16062.675
2272.4779	16027.575
2275.36017	15999.375
2278.24061	15977.575
2281.11922	15978.575
2283.996	15950.475
2286.87094	15918.675
2289.74405	15889.875
2292.61534	15866.975
2295.4848	15815.575
2298.35243	15860.675
2301.21824	15826.375
2304.08223	15840.875
2306.94439	15812.875
2309.80474	15835.375
2312.66327	15807.075
2315.51999	15793.975
2318.37489	15783.875
2321.22797	15760.175
2324.07925	15707.475
2326.92871	15731.275
2329.77637	15718.575
2332.62222	15647.675
2335.46626	15640.275
2338.3085	15602.475
2341.14893	15601.975
2343.98756	15628.575
2346.8244	15605.275
2349.65943	15577.275
2352.49267	15599.975
2355.32411	15610.475
2358.15376	15591.275
2360.98161	15592.475
2363.80768	15611.875
2366.63195	15588.575
2369.45444	15557.875
2372.27514	15544.275
2375.09405	15519.275
2377.91118	15506.075
2380.72652	15507.275
2383.54009	15429.975
2386.35187	15427.575
2389.16188	15386.575
2391.97011	15347.775
2394.77657	15322.075
2397.58125	15309.175
2400.38416	15279.075
2403.18529	15227.275
2405.98466	15239.675
2408.78226	15243.875
2411.57809	15205.975
2414.37216	15179.575
2417.16446	15137.075
2419.955	15098.075
2422.74378	15149.575
2425.5308	15110.975
2428.31606	15110.875
2431.09956	15122.375
2433.88131	15108.875
2436.6613	15105.475
2439.43954	15121.075
2442.21603	15097.075
2444.99077	15045.175
2447.76377	15076.375
2450.53501	15054.775
2453.30451	15058.175
2456.07226	15046.875
2458.83827	15021.475
2461.60254	15004.375
2464.36507	14991.475
2467.12586	15012.575
2469.88492	14989.375
2472.64224	14996.075
2475.39782	14990.975
2478.15167	14979.875
2480.90379	14973.775
2483.65417	14988.875
2486.40283	14993.175
2489.14976	14982.875
2491.89497	14983.675
2494.63845	14939.575
2497.3802	14926.675
2500.12024	14937.575
2502.85855	14927.675
2505.59514	14933.875
2508.33002	14896.675
2511.06318	14824.775
2513.79462	14823.975
2516.52435	14814.875
2519.25237	14781.575
2521.97867	14759.775
2524.70327	14763.975
2527.42616	14753.175
2530.14734	14736.575
2532.86681	14745.475
2535.58458	14761.675
2538.30065	14753.275
2541.01501	14714.175
2543.72768	14694.275
2546.43864	14734.975
2549.14791	14689.475
2551.85548	14671.675
2554.56136	14656.275
2557.26554	14609.475
2559.96803	14626.575
2562.66883	14596.675
2565.36794	14576.675
2568.06536	14562.775
2570.7611	14523.875
2573.45514	14492.375
2576.14751	14484.775
2578.83819	14502.575
2581.52719	14468.075
2584.21451	14420.075
2586.90015	14378.475
2589.58411	14373.075
2592.2664	14392.575
2594.94701	14361.075
2597.62594	14367.075
2600.30321	14354.875
2602.9788	14341.875
2605.65273	14335.875
2608.32498	14324.775
2610.99557	14314.775
2613.66449	14276.175
2616.33175	14282.975
2618.99734	14303.275
2621.66128	14256.575
2624.32355	14241.775
2626.98416	14200.975
2629.64311	14179.075
2632.30041	14172.975
2634.95605	14148.275
2637.61004	14142.475
2640.26238	14117.275
2642.91306	14086.375
2645.56209	14078.475
2648.20948	14076.775
2650.85521	14094.975
2653.4993	14119.575
2656.14175	14102.475
2658.78255	14097.875
2661.42171	14106.775
2664.05923	14137.375
2666.6951	14129.175
2669.32934	14119.475
2671.96194	14165.475
2674.59291	14151.275
2677.22224	14138.575
2679.84993	14114.875
2682.476	14162.275
2685.10043	14120.475
2687.72324	14093.475
2690.34441	14072.775
2692.96396	14057.075
2695.58188	14086.475
2698.19818	14107.075
2700.81285	14121.575
2703.4259	14073.275
2706.03733	14099.075
2708.64714	14078.575
2711.25533	14117.975
2713.86191	14124.875
2716.46687	14149.875
2719.07021	14151.375
2721.67194	14157.475
2724.27206	14130.375
2726.87057	14156.275
2729.46747	14165.375
2732.06276	14141.175
2734.65644	14141.475
2737.24852	14138.675
2739.83899	14119.775
2742.42786	14141.875
2745.01513	14096.275
2747.60079	14085.575
2750.18486	14063.375
2752.76733	14083.375
2755.3482	14015.375
2757.92747	14009.375
2760.50515	13985.375
2763.08123	13959.475
2765.65573	13944.775
2768.22863	13993.975
2770.79994	13972.175
2773.36967	13940.375
2775.9378	13909.675
2778.50435	13933.175
2781.06932	13888.975
2783.6327	13882.375
2786.1945	13853.075
2788.75471	13847.275
2791.31335	13802.675
2793.87041	13793.875
2796.42589	13749.675
2798.97979	13731.975
2801.53212	13715.575
2804.08288	13678.475
2806.63206	13646.175
2809.17967	13634.175
2811.72571	13595.575
2814.27018	13553.575
2816.81308	13568.075
2819.35442	13504.875
2821.89419	13468.575
2824.43239	13512.175
2826.96904	13478.675
2829.50412	13451.575
2832.03763	13447.675
2834.56959	13462.975
2837.1	13429.775
2839.62884	13408.875
2842.15613	13387.075
2844.68186	13383.175
2847.20604	13379.975
2849.72867	13376.475
2852.24974	13351.475
2854.76927	13346.475
2857.28724	13342.775
2859.80367	13347.575
2862.31855	13314.275
2864.83189	13311.875
2867.34368	13301.575
2869.85393	13313.975
2872.36264	13295.675
2874.8698	13252.975
2877.37543	13266.875
2879.87952	13280.075
2882.38207	13263.275
2884.88308	13250.075
2887.38256	13242.275
2889.88051	13254.675
2892.37692	13252.575
2894.8718	13239.875
2897.36515	13277.575
2899.85698	13267.375
2902.34727	13295.475
2904.83604	13294.475
2907.32328	13297.875
2909.809	13285.775
2912.29319	13312.075
2914.77587	13294.275
2917.25702	13304.175
2919.73665	13300.875
2922.21476	13282.675
2924.69136	13277.775
2927.16644	13263.675
2929.64	13226.975
2932.11205	13201.475
2934.58258	13177.675
2937.05161	13210.375
2939.51912	13186.975
2941.98513	13163.975
2944.44962	13133.375
2946.91261	13107.475
2949.37409	13113.075
2951.83407	13127.475
2954.29254	13108.775
2956.74951	13093.575
2959.20498	13081.975
2961.65895	13104.475
2964.11142	13091.375
2966.56239	13063.775
2969.01186	13068.375
2971.45984	13025.875
2973.90632	13018.175
2976.35131	13014.875
2978.7948	12987.175
2981.23681	12948.975
2983.67732	12948.675
2986.11635	12911.375
2988.55388	12886.175
2990.98993	12854.175
2993.4245	12847.175
2995.85758	12832.175
2998.28917	12766.275
3000.71928	12759.675
3003.14791	12756.075
3005.57506	12705.875
3008.00073	12676.375
3010.42493	12686.275
3012.84764	12668.075
3015.26888	12642.775
3017.68865	12638.975
3020.10694	12622.775
3022.52376	12601.475
3024.9391	12588.375
3027.35298	12570.275
3029.76539	12534.275
3032.17632	12509.475
3034.5858	12514.475
3036.9938	12479.775
3039.40034	12489.075
3041.80542	12487.275
3044.20903	12446.875
3046.61118	12486.075
3049.01187	12418.475
3051.4111	12400.975
3053.80888	12374.675
3056.20519	12362.975
3058.60005	12329.075
3060.99345	12334.675
3063.3854	12292.475
3065.7759	12258.775
3068.16494	12222.775
3070.55254	12205.475
3072.93868	12167.775
3075.32338	12151.875
3077.70662	12159.875
3080.08842	12117.875
3082.46878	12135.075
3084.84769	12073.475
3087.22515	12071.175
3089.60118	12083.275
3091.97576	12076.975
3094.3489	12066.575
3096.72061	12064.575
3099.09087	12035.175
3101.4597	12061.575
3103.82709	12051.575
3106.19305	12028.875
3108.55757	12055.775
3110.92066	12020.575
3113.28232	12024.775
3115.64255	11992.775
3118.00134	11939.475
3120.35871	11915.175
3122.71466	11879.175
3125.06917	11885.275
3127.42226	11862.875
3129.77393	11871.675
