Data from AgNPs_APTES_FTO_UA_100uM_CRN_0uM_R6G_10uM_Scan_RamanShift__27__16-14-12-958.txt Node

Date: Mon Jul 11 16:14:12 BST 2022
User: TCL
Spectrometer: QEP01345
Trigger mode: 4
Integration Time (sec): 7.000000E0
Scans to average: 10
Electric dark correction enabled: true
Nonlinearity correction enabled: false
Boxcar width: 0
XAxis mode: Raman Shifts
Number of Pixels in Spectrum: 1044
>>>>>Begin Spectral Data<<<<<
46.04893	-0.5625
50.45542	-0.0625
54.85868	-1.1625
59.25871	-1.3625
63.6555	35.3375
68.04907	41.2375
72.43941	40.3375
76.82654	40.2375
81.21044	46.3375
85.59113	46.1375
89.96862	49.8375
94.34289	52.1375
98.71396	50.6375
103.08183	54.8375
107.4465	55.6375
111.80798	54.2375
116.16626	58.3375
120.52136	60.0375
124.87327	63.3375
129.222	64.2375
133.56755	68.6375
137.90993	74.4375
142.24913	78.8375
146.58517	88.7375
150.91804	101.0375
155.24774	118.7375
159.57429	146.5375
163.89768	189.9375
168.21792	247.9375
172.53501	326.3375
176.84895	461.1375
181.15975	642.5375
185.46741	888.9375
189.77193	1223.7375
194.07331	1642.6375
198.37157	2111.5375
202.6667	2605.3375
206.9587	3109.9375
211.24758	3608.3375
215.53334	4121.7375
219.81599	4652.0375
224.09553	5258.2375
228.37195	5924.7375
232.64527	6638.1375
236.91549	7360.1375
241.18261	8027.3375
245.44663	8566.9375
249.70755	9084.1375
253.96539	9440.0375
258.22014	9755.5375
262.4718	9976.9375
266.72039	10174.5375
270.96589	10196.2375
275.20832	10104.8375
279.44768	9940.7375
283.68397	9744.6375
287.91719	9593.3375
292.14735	9601.3375
296.37445	9715.4375
300.59849	9955.1375
304.81948	10227.4375
309.03742	10342.6375
313.25231	10262.5375
317.46415	9882.1375
321.67296	9402.1375
325.87872	8978.0375
330.08145	8822.4375
334.28114	8850.2375
338.47781	8976.4375
342.67145	9181.8375
346.86207	9486.4375
351.04966	9913.9375
355.23424	10365.8375
359.4158	10728.7375
363.59435	10955.4375
367.76989	11073.3375
371.94243	11131.9375
376.11196	11183.5375
380.27849	11235.0375
384.44203	11235.3375
388.60257	11212.2375
392.76012	11195.8375
396.91468	11331.3375
401.06626	11544.7375
405.21485	11662.9375
409.36047	11480.7375
413.50311	11115.4375
417.64277	10883.1375
421.77947	10677.5375
425.9132	10363.4375
430.04396	10310.3375
434.17176	10362.9375
438.2966	10491.4375
442.41849	10739.8375
446.53742	10987.7375
450.6534	11224.5375
454.76644	11418.3375
458.87653	11463.8375
462.98368	11433.6375
467.08789	11281.7375
471.18916	11120.2375
475.2875	10962.9375
479.38291	10847.2375
483.4754	10798.5375
487.56496	10798.3375
491.6516	10812.5375
495.73531	10840.5375
499.81612	10823.7375
503.89401	10859.1375
507.96899	10921.2375
512.04106	10976.5375
516.11023	11135.2375
520.1765	11242.6375
524.23987	11288.9375
528.30034	11275.4375
532.35792	11221.3375
536.41261	11100.8375
540.46441	10922.6375
544.51333	10764.4375
548.55936	10703.6375
552.60252	10790.3375
556.64279	10885.3375
560.6802	10925.1375
564.71473	11029.1375
568.7464	11241.3375
572.7752	11273.7375
576.80114	11072.3375
580.82422	10887.5375
584.84444	10886.6375
588.86181	11013.3375
592.87633	11219.0375
596.888	11418.4375
600.89682	11795.8375
604.9028	12930.6375
608.90594	15789.4375
612.90624	18728.5375
616.90371	17196.1375
620.89834	13444.0375
624.89015	12123.9375
628.87913	12197.0375
632.86528	12575.7375
636.84862	12842.4375
640.82913	12622.9375
644.80683	12010.6375
648.78172	11478.1375
652.75379	11328.7375
656.72306	11489.1375
660.68952	11679.8375
664.65319	11564.0375
668.61405	11335.9375
672.57211	11407.4375
676.52738	11531.5375
680.47986	11677.7375
684.42955	11872.8375
688.37646	11974.7375
692.32058	11977.7375
696.26192	11818.5375
700.20048	11675.7375
704.13626	11493.8375
708.06928	11250.8375
711.99952	11033.3375
715.927	10922.4375
719.85171	10912.1375
723.77365	10965.2375
727.69284	10988.9375
731.60928	11015.5375
735.52295	10936.2375
739.43388	10870.2375
743.34206	10862.3375
747.24749	10839.4375
751.15017	10821.8375
755.05012	10909.1375
758.94733	11298.0375
762.8418	12213.9375
766.73354	13706.1375
770.62254	15282.3375
774.50882	16005.8375
778.39237	15334.9375
782.27321	13685.1375
786.15132	12216.4375
790.02671	11338.8375
793.89938	10962.1375
797.76935	10814.4375
801.6366	10807.2375
805.50115	10902.0375
809.36299	11004.8375
813.22213	11041.1375
817.07857	10954.9375
820.93231	10810.7375
824.78336	10672.9375
828.63172	10577.6375
832.47738	10544.5375
836.32036	10538.3375
840.16066	10532.3375
843.99827	10511.8375
847.8332	10530.9375
851.66546	10515.7375
855.49504	10512.9375
859.32195	10526.2375
863.1462	10531.5375
866.96777	10545.1375
870.78668	10606.1375
874.60293	10703.6375
878.41652	10808.5375
882.22745	10971.5375
886.03573	11051.5375
889.84136	11057.7375
893.64433	10935.1375
897.44466	10737.0375
901.24235	10531.2375
905.0374	10393.4375
908.8298	10231.4375
912.61957	10138.8375
916.40671	10136.4375
920.19121	10200.7375
923.97308	10284.6375
927.75233	10396.1375
931.52895	10477.3375
935.30295	10412.3375
939.07433	10236.8375
942.84309	10132.8375
946.60924	10085.6375
950.37278	10055.6375
954.13371	10014.4375
957.89203	9980.6375
961.64774	9918.7375
965.40086	9875.4375
969.15137	9801.3375
972.89929	9700.4375
976.64461	9695.9375
980.38733	9689.0375
984.12747	9720.5375
987.86502	9786.2375
991.59999	9872.4375
995.33237	10031.9375
999.06217	10274.1375
1002.78939	10595.3375
1006.51404	10824.5375
1010.23611	11065.9375
1013.95561	11200.5375
1017.67255	11304.1375
1021.38692	11231.4375
1025.09872	11097.1375
1028.80796	11030.6375
1032.51465	11121.2375
1036.21877	11192.6375
1039.92035	11133.3375
1043.61937	11040.8375
1047.31584	10866.1375
1051.00976	10703.3375
1054.70114	10596.1375
1058.38998	10558.5375
1062.07627	10601.5375
1065.76003	10682.6375
1069.44126	10731.0375
1073.11995	10803.1375
1076.79611	10850.1375
1080.46974	10973.2375
1084.14085	11077.7375
1087.80943	11223.0375
1091.47549	11263.0375
1095.13903	11089.2375
1098.80005	10865.6375
1102.45857	10679.8375
1106.11456	10692.6375
1109.76805	10812.5375
1113.41903	11090.1375
1117.06751	11444.3375
1120.71348	11978.3375
1124.35696	12543.5375
1127.99793	13097.2375
1131.63641	13327.9375
1135.2724	13148.5375
1138.90589	12799.7375
1142.5369	12413.2375
1146.16542	11932.2375
1149.79145	11543.6375
1153.415	11263.4375
1157.03607	11136.7375
1160.65467	11181.4375
1164.27079	11464.8375
1167.88443	11914.2375
1171.49561	12575.2375
1175.10432	13667.3375
1178.71056	15152.9375
1182.31434	16426.7375
1185.91565	16949.3375
1189.51451	16724.1375
1193.11091	16037.1375
1196.70485	15226.8375
1200.29634	14657.4375
1203.88538	14181.2375
1207.47197	13533.2375
1211.05612	12969.0375
1214.63782	12501.4375
1218.21708	12188.5375
1221.79391	12026.7375
1225.36829	11998.4375
1228.94024	11928.7375
1232.50976	11811.5375
1236.07685	11792.1375
1239.6415	11814.7375
1243.20374	11884.1375
1246.76355	11964.8375
1250.32093	12118.0375
1253.8759	12330.4375
1257.42845	12640.4375
1260.97859	12950.8375
1264.52631	13195.0375
1268.07163	13523.5375
1271.61453	13808.3375
1275.15503	14016.0375
1278.69312	14211.1375
1282.22882	14390.8375
1285.76211	14679.7375
1289.29301	15059.9375
1292.82151	15544.1375
1296.34761	16081.1375
1299.87133	16890.8375
1303.39266	18093.3375
1306.9116	19807.6375
1310.42815	21436.7375
1313.94233	21995.5375
1317.45412	21267.4375
1320.96354	19961.9375
1324.47058	18645.6375
1327.97525	17646.3375
1331.47754	17029.0375
1334.97747	16899.8375
1338.47502	17114.1375
1341.97022	17670.8375
1345.46305	18427.8375
1348.95352	19402.2375
1352.44163	20752.0375
1355.92738	22574.7375
1359.41078	25032.8375
1362.89183	26962.9375
1366.37053	25775.2375
1369.84688	22171.2375
1373.32088	18842.0375
1376.79254	16889.5375
1380.26186	15923.7375
1383.72883	15348.1375
1387.19347	14935.5375
1390.65578	14546.1375
1394.11575	14251.1375
1397.57339	14142.5375
1401.0287	14088.7375
1404.48168	14132.9375
1407.93234	14104.3375
1411.38068	14132.4375
1414.82669	14079.6375
1418.27039	13908.0375
1421.71177	13650.3375
1425.15083	13402.8375
1428.58758	13286.0375
1432.02203	13350.3375
1435.45416	13505.9375
1438.88399	13651.4375
1442.31151	13725.6375
1445.73673	13894.4375
1449.15965	14134.3375
1452.58027	14272.3375
1455.9986	14374.4375
1459.41463	14557.9375
1462.82837	14796.5375
1466.23982	15069.4375
1469.64898	15379.0375
1473.05586	15478.9375
1476.46045	15442.3375
1479.86276	15456.3375
1483.26279	15504.6375
1486.66054	15611.1375
1490.05602	15856.6375
1493.44922	16305.1375
1496.84016	17032.7375
1500.22882	18230.1375
1503.61521	20009.6375
1506.99934	22013.3375
1510.38121	23476.8375
1513.76081	23623.3375
1517.13816	22050.2375
1520.51324	19704.8375
1523.88607	17653.7375
1527.25665	16285.7375
1530.62498	15553.4375
1533.99105	15080.6375
1537.35488	14844.0375
1540.71647	14704.1375
1544.07581	14692.9375
1547.4329	14695.9375
1550.78776	14754.9375
1554.14038	14795.9375
1557.49077	14866.1375
1560.83892	15073.4375
1564.18484	15323.8375
1567.52853	15619.6375
1570.86999	15839.6375
1574.20922	15981.0375
1577.54624	15852.7375
1580.88103	15288.0375
1584.2136	14591.0375
1587.54395	14318.4375
1590.87208	14509.7375
1594.19801	15154.0375
1597.52172	16047.7375
1600.84321	16468.3375
1604.16251	16169.7375
1607.47959	15399.0375
1610.79447	14546.6375
1614.10715	13700.0375
1617.41763	13034.9375
1620.7259	12580.3375
1624.03199	12352.2375
1627.33587	12363.6375
1630.63757	12593.3375
1633.93707	13048.4375
1637.23439	13794.7375
1640.52951	14881.7375
1643.82246	16268.0375
1647.11321	17726.3375
1650.40179	18514.5375
1653.68819	17883.6375
1656.97241	16051.8375
1660.25446	14184.9375
1663.53433	12836.5375
1666.81203	12057.3375
1670.08756	11530.0375
1673.36092	11214.0375
1676.63211	10985.7375
1679.90115	10816.0375
1683.16801	10621.8375
1686.43272	10504.8375
1689.69527	10363.1375
1692.95567	10261.3375
1696.2139	10161.4375
1699.46999	10055.1375
1702.72392	9923.2375
1705.97571	9816.6375
1709.22535	9679.4375
1712.47284	9613.6375
1715.71819	9520.5375
1718.96139	9447.0375
1722.20246	9380.6375
1725.44139	9266.1375
1728.67818	9179.6375
1731.91284	9098.5375
1735.14537	9007.4375
1738.37576	8946.4375
1741.60403	8913.1375
1744.83017	8906.3375
1748.05418	8848.7375
1751.27607	8844.5375
1754.49584	8812.4375
1757.71349	8793.1375
1760.92903	8777.7375
1764.14244	8775.6375
1767.35375	8760.4375
1770.56294	8715.6375
1773.77002	8663.7375
1776.97499	8637.4375
1780.17785	8602.7375
1783.37861	8565.6375
1786.57727	8559.4375
1789.77382	8521.0375
1792.96828	8530.9375
1796.16064	8513.4375
1799.3509	8506.2375
1802.53907	8494.9375
1805.72514	8454.0375
1808.90913	8445.1375
1812.09102	8415.4375
1815.27083	8394.2375
1818.44856	8391.3375
1821.6242	8369.0375
1824.79776	8347.3375
1827.96924	8347.4375
1831.13864	8335.5375
1834.30597	8315.3375
1837.47122	8307.4375
1840.6344	8275.9375
1843.7955	8292.1375
1846.95454	8310.9375
1850.11151	8295.6375
1853.26642	8284.4375
1856.41926	8280.3375
1859.57004	8284.6375
1862.71876	8259.8375
1865.86542	8275.2375
1869.01003	8293.0375
1872.15258	8275.1375
1875.29308	8276.7375
1878.43152	8281.4375
1881.56792	8254.0375
1884.70227	8260.3375
1887.83457	8237.4375
1890.96482	8240.9375
1894.09304	8222.7375
1897.21921	8227.5375
1900.34335	8225.7375
1903.46544	8214.0375
1906.58551	8204.8375
1909.70353	8189.3375
1912.81953	8188.2375
1915.93349	8193.2375
1919.04543	8186.5375
1922.15534	8166.7375
1925.26322	8157.2375
1928.36908	8158.2375
1931.47292	8119.5375
1934.57473	8106.8375
1937.67453	8099.3375
1940.77232	8086.8375
1943.86808	8060.4375
1946.96184	8040.7375
1950.05358	8041.1375
1953.14331	8007.5375
1956.23103	7997.1375
1959.31675	7966.1375
1962.40046	7956.9375
1965.48217	7940.7375
1968.56188	7915.8375
1971.63959	7891.4375
1974.7153	7882.3375
1977.78901	7884.1375
1980.86073	7840.5375
1983.93046	7829.5375
1986.99819	7796.9375
1990.06394	7761.9375
1993.1277	7730.6375
1996.18947	7721.5375
1999.24925	7706.2375
2002.30706	7662.5375
2005.36288	7658.8375
2008.41672	7641.2375
2011.46859	7620.5375
2014.51848	7610.0375
2017.56639	7607.4375
2020.61233	7576.6375
2023.6563	7579.3375
2026.6983	7555.9375
2029.73833	7553.6375
2032.7764	7516.1375
2035.8125	7519.9375
2038.84664	7492.1375
2041.87881	7507.6375
2044.90903	7488.7375
2047.93729	7471.8375
2050.96359	7462.7375
2053.98794	7474.4375
2057.01034	7457.9375
2060.03078	7463.3375
2063.04927	7446.8375
2066.06582	7446.2375
2069.08042	7464.0375
2072.09307	7440.3375
2075.10378	7465.8375
2078.11255	7438.7375
2081.11938	7460.5375
2084.12426	7446.4375
2087.12722	7439.5375
2090.12824	7419.8375
2093.12732	7443.4375
2096.12447	7434.6375
2099.11969	7450.0375
2102.11299	7479.5375
2105.10435	7461.7375
2108.09379	7464.5375
2111.08131	7484.8375
2114.0669	7472.9375
2117.05057	7457.7375
2120.03233	7487.2375
2123.01216	7498.7375
2125.99008	7510.6375
2128.96609	7508.9375
2131.94018	7544.5375
2134.91236	7546.6375
2137.88263	7524.2375
2140.851	7485.2375
2143.81746	7523.9375
2146.78201	7524.1375
2149.74466	7539.4375
2152.7054	7532.6375
2155.66425	7532.7375
2158.6212	7539.9375
2161.57625	7518.9375
2164.52941	7518.2375
2167.48067	7496.6375
2170.43004	7520.5375
2173.37752	7538.0375
2176.32311	7545.9375
2179.26681	7560.7375
2182.20863	7529.9375
2185.14856	7552.3375
2188.08661	7548.3375
2191.02278	7561.4375
2193.95707	7541.1375
2196.88948	7524.9375
2199.82001	7515.4375
2202.74867	7522.4375
2205.67545	7536.4375
2208.60037	7534.6375
2211.52341	7506.4375
2214.44458	7527.0375
2217.36388	7488.6375
2220.28132	7513.9375
2223.1969	7471.3375
2226.11061	7473.1375
2229.02246	7466.6375
2231.93245	7448.8375
2234.84058	7446.2375
2237.74686	7447.2375
2240.65128	7461.9375
2243.55385	7436.4375
2246.45456	7421.4375
2249.35343	7430.9375
2252.25044	7393.5375
2255.14561	7420.6375
2258.03893	7418.6375
2260.93041	7410.4375
2263.82004	7372.6375
2266.70783	7394.6375
2269.59378	7364.0375
2272.4779	7329.9375
2275.36017	7328.8375
2278.24061	7312.4375
2281.11922	7315.6375
2283.996	7301.7375
2286.87094	7294.4375
2289.74405	7277.2375
2292.61534	7254.4375
2295.4848	7267.7375
2298.35243	7257.0375
2301.21824	7258.2375
2304.08223	7278.0375
2306.94439	7253.4375
2309.80474	7261.7375
2312.66327	7270.3375
2315.51999	7269.1375
2318.37489	7268.9375
2321.22797	7266.2375
2324.07925	7271.6375
2326.92871	7257.5375
2329.77637	7257.4375
2332.62222	7256.0375
2335.46626	7234.7375
2338.3085	7237.7375
2341.14893	7236.7375
2343.98756	7249.0375
2346.8244	7280.8375
2349.65943	7270.1375
2352.49267	7254.2375
2355.32411	7246.6375
2358.15376	7255.6375
2360.98161	7267.3375
2363.80768	7261.9375
2366.63195	7283.3375
2369.45444	7284.1375
2372.27514	7280.8375
2375.09405	7256.8375
2377.91118	7244.7375
2380.72652	7224.0375
2383.54009	7211.8375
2386.35187	7215.0375
2389.16188	7195.5375
2391.97011	7178.4375
2394.77657	7142.7375
2397.58125	7140.9375
2400.38416	7140.5375
2403.18529	7106.1375
2405.98466	7091.2375
2408.78226	7093.1375
2411.57809	7066.8375
2414.37216	7081.0375
2417.16446	7080.2375
2419.955	7070.1375
2422.74378	7069.4375
2425.5308	7070.1375
2428.31606	7054.6375
2431.09956	7042.7375
2433.88131	7039.8375
2436.6613	7041.7375
2439.43954	7060.0375
2442.21603	7046.0375
2444.99077	7057.7375
2447.76377	7060.4375
2450.53501	7058.3375
2453.30451	7064.5375
2456.07226	7048.2375
2458.83827	7033.4375
2461.60254	7031.5375
2464.36507	7029.8375
2467.12586	7046.3375
2469.88492	7016.9375
2472.64224	7060.2375
2475.39782	7051.3375
2478.15167	7063.5375
2480.90379	7062.8375
2483.65417	7069.0375
2486.40283	7078.8375
2489.14976	7077.6375
2491.89497	7087.4375
2494.63845	7081.5375
2497.3802	7099.5375
2500.12024	7090.1375
2502.85855	7111.1375
2505.59514	7078.5375
2508.33002	7070.6375
2511.06318	7050.5375
2513.79462	7054.0375
2516.52435	7011.4375
2519.25237	6986.8375
2521.97867	6979.3375
2524.70327	7005.9375
2527.42616	6982.3375
2530.14734	6979.8375
2532.86681	6989.6375
2535.58458	6979.2375
2538.30065	6971.1375
2541.01501	7001.5375
2543.72768	6983.5375
2546.43864	6985.7375
2549.14791	6987.7375
2551.85548	6968.8375
2554.56136	6969.3375
2557.26554	6950.7375
2559.96803	6938.0375
2562.66883	6927.0375
2565.36794	6928.2375
2568.06536	6913.7375
2570.7611	6923.4375
2573.45514	6940.4375
2576.14751	6946.1375
2578.83819	6909.6375
2581.52719	6900.2375
2584.21451	6890.3375
2586.90015	6885.9375
2589.58411	6895.9375
2592.2664	6885.7375
2594.94701	6880.0375
2597.62594	6882.3375
2600.30321	6865.6375
2602.9788	6852.3375
2605.65273	6870.0375
2608.32498	6868.7375
2610.99557	6868.9375
2613.66449	6825.5375
2616.33175	6854.7375
2618.99734	6861.7375
2621.66128	6848.7375
2624.32355	6837.9375
2626.98416	6856.9375
2629.64311	6844.5375
2632.30041	6843.2375
2634.95605	6842.8375
2637.61004	6821.1375
2640.26238	6828.7375
2642.91306	6840.7375
2645.56209	6805.7375
2648.20948	6806.1375
2650.85521	6812.9375
2653.4993	6806.2375
2656.14175	6784.6375
2658.78255	6825.3375
2661.42171	6817.5375
2664.05923	6841.3375
2666.6951	6845.6375
2669.32934	6848.8375
2671.96194	6871.2375
2674.59291	6880.1375
2677.22224	6886.6375
2679.84993	6859.0375
2682.476	6867.9375
2685.10043	6855.9375
2687.72324	6853.2375
2690.34441	6835.0375
2692.96396	6847.4375
2695.58188	6859.9375
2698.19818	6863.8375
2700.81285	6853.8375
2703.4259	6856.3375
2706.03733	6875.7375
2708.64714	6900.8375
2711.25533	6893.5375
2713.86191	6893.2375
2716.46687	6881.5375
2719.07021	6892.8375
2721.67194	6896.8375
2724.27206	6881.6375
2726.87057	6909.4375
2729.46747	6895.2375
2732.06276	6919.3375
2734.65644	6912.7375
2737.24852	6914.0375
2739.83899	6902.6375
2742.42786	6886.8375
2745.01513	6900.3375
2747.60079	6892.8375
2750.18486	6888.9375
2752.76733	6864.0375
2755.3482	6880.6375
2757.92747	6881.1375
2760.50515	6867.2375
2763.08123	6870.9375
2765.65573	6852.7375
2768.22863	6833.7375
2770.79994	6843.8375
2773.36967	6849.1375
2775.9378	6861.7375
2778.50435	6841.4375
2781.06932	6829.1375
2783.6327	6839.6375
2786.1945	6838.2375
2788.75471	6830.9375
2791.31335	6825.8375
2793.87041	6837.1375
2796.42589	6783.0375
2798.97979	6794.0375
2801.53212	6788.3375
2804.08288	6788.1375
2806.63206	6763.6375
2809.17967	6747.8375
2811.72571	6746.8375
2814.27018	6719.2375
2816.81308	6722.9375
2819.35442	6724.7375
2821.89419	6721.3375
2824.43239	6733.0375
2826.96904	6728.8375
2829.50412	6704.7375
2832.03763	6717.7375
2834.56959	6721.4375
2837.1	6699.7375
2839.62884	6697.8375
2842.15613	6700.1375
2844.68186	6716.8375
2847.20604	6700.0375
2849.72867	6709.7375
2852.24974	6729.9375
2854.76927	6707.6375
2857.28724	6716.2375
2859.80367	6697.8375
2862.31855	6703.0375
2864.83189	6699.5375
2867.34368	6680.4375
2869.85393	6695.1375
2872.36264	6701.0375
2874.8698	6695.9375
2877.37543	6695.1375
2879.87952	6695.3375
2882.38207	6695.0375
2884.88308	6702.0375
2887.38256	6705.2375
2889.88051	6689.9375
2892.37692	6690.6375
2894.8718	6687.4375
2897.36515	6718.2375
2899.85698	6727.3375
2902.34727	6741.0375
2904.83604	6735.0375
2907.32328	6761.2375
2909.809	6754.4375
2912.29319	6761.0375
2914.77587	6748.0375
2917.25702	6763.2375
2919.73665	6759.9375
2922.21476	6765.9375
2924.69136	6766.9375
2927.16644	6766.6375
2929.64	6737.8375
2932.11205	6736.1375
2934.58258	6724.3375
2937.05161	6724.8375
2939.51912	6719.1375
2941.98513	6712.5375
2944.44962	6686.2375
2946.91261	6684.5375
2949.37409	6717.4375
2951.83407	6691.0375
2954.29254	6686.0375
2956.74951	6689.8375
2959.20498	6686.7375
2961.65895	6678.7375
2964.11142	6687.9375
2966.56239	6668.0375
2969.01186	6671.5375
2971.45984	6665.4375
2973.90632	6642.6375
2976.35131	6630.9375
2978.7948	6613.6375
2981.23681	6614.8375
2983.67732	6620.7375
2986.11635	6596.9375
2988.55388	6581.1375
2990.98993	6585.1375
2993.4245	6568.9375
2995.85758	6558.0375
2998.28917	6536.2375
3000.71928	6540.1375
3003.14791	6534.6375
3005.57506	6525.4375
3008.00073	6497.3375
3010.42493	6505.3375
3012.84764	6498.7375
3015.26888	6487.4375
3017.68865	6486.8375
3020.10694	6468.4375
3022.52376	6434.0375
3024.9391	6444.9375
3027.35298	6461.9375
3029.76539	6461.1375
3032.17632	6451.2375
3034.5858	6426.9375
3036.9938	6431.3375
3039.40034	6437.2375
3041.80542	6425.7375
3044.20903	6414.1375
3046.61118	6405.4375
3049.01187	6397.9375
3051.4111	6385.9375
3053.80888	6373.0375
3056.20519	6379.1375
3058.60005	6352.7375
3060.99345	6349.3375
3063.3854	6328.3375
3065.7759	6326.6375
3068.16494	6311.9375
3070.55254	6297.0375
3072.93868	6286.8375
3075.32338	6298.5375
3077.70662	6294.9375
3080.08842	6252.5375
3082.46878	6235.8375
3084.84769	6248.5375
