Data from AgNPs_APTES_FTO_UA_100uM_CRN_0uM_R6G_10uM_Scan_RamanShift__29__16-16-32-960.txt Node

Date: Mon Jul 11 16:16:32 BST 2022
User: TCL
Spectrometer: QEP01345
Trigger mode: 4
Integration Time (sec): 7.000000E0
Scans to average: 10
Electric dark correction enabled: true
Nonlinearity correction enabled: false
Boxcar width: 0
XAxis mode: Raman Shifts
Number of Pixels in Spectrum: 1044
>>>>>Begin Spectral Data<<<<<
46.04893	-0.0125
50.45542	0.0875
54.85868	-1.3125
59.25871	-2.0125
63.6555	32.7875
68.04907	37.0875
72.43941	43.6875
76.82654	41.7875
81.21044	46.7875
85.59113	44.6875
89.96862	49.4875
94.34289	50.3875
98.71396	55.0875
103.08183	56.0875
107.4465	52.2875
111.80798	52.1875
116.16626	57.1875
120.52136	58.7875
124.87327	63.5875
129.222	62.0875
133.56755	64.3875
137.90993	73.7875
142.24913	82.9875
146.58517	89.4875
150.91804	98.3875
155.24774	120.6875
159.57429	150.4875
163.89768	187.2875
168.21792	245.0875
172.53501	332.8875
176.84895	462.1875
181.15975	637.7875
185.46741	897.7875
189.77193	1233.1875
194.07331	1646.2875
198.37157	2119.6875
202.6667	2613.1875
206.9587	3115.0875
211.24758	3615.5875
215.53334	4114.4875
219.81599	4680.0875
224.09553	5285.6875
228.37195	5973.4875
232.64527	6691.3875
236.91549	7401.4875
241.18261	8057.4875
245.44663	8593.2875
249.70755	9049.8875
253.96539	9407.4875
258.22014	9729.1875
262.4718	9957.0875
266.72039	10096.7875
270.96589	10141.4875
275.20832	10052.7875
279.44768	9884.9875
283.68397	9669.8875
287.91719	9556.8875
292.14735	9546.6875
296.37445	9705.4875
300.59849	10054.7875
304.81948	10413.2875
309.03742	10605.5875
313.25231	10522.5875
317.46415	10053.9875
321.67296	9449.1875
325.87872	8970.2875
330.08145	8761.9875
334.28114	8776.6875
338.47781	8944.2875
342.67145	9162.9875
346.86207	9564.9875
351.04966	10030.6875
355.23424	10570.3875
359.4158	10978.0875
363.59435	11269.9875
367.76989	11344.3875
371.94243	11382.4875
376.11196	11382.6875
380.27849	11430.1875
384.44203	11374.4875
388.60257	11280.9875
392.76012	11268.2875
396.91468	11365.6875
401.06626	11630.8875
405.21485	11733.2875
409.36047	11516.7875
413.50311	11083.9875
417.64277	10803.0875
421.77947	10551.1875
425.9132	10150.5875
430.04396	10076.6875
434.17176	10165.0875
438.2966	10297.9875
442.41849	10528.0875
446.53742	10818.2875
450.6534	11065.2875
454.76644	11232.9875
458.87653	11262.0875
462.98368	11157.6875
467.08789	11008.9875
471.18916	10818.8875
475.2875	10637.6875
479.38291	10521.5875
483.4754	10449.1875
487.56496	10452.6875
491.6516	10485.4875
495.73531	10486.6875
499.81612	10474.7875
503.89401	10507.0875
507.96899	10585.6875
512.04106	10678.9875
516.11023	10895.6875
520.1765	11054.0875
524.23987	11098.4875
528.30034	11015.5875
532.35792	10971.1875
536.41261	10769.8875
540.46441	10524.6875
544.51333	10387.9875
548.55936	10368.2875
552.60252	10464.4875
556.64279	10591.5875
560.6802	10662.7875
564.71473	10786.4875
568.7464	11076.7875
572.7752	11127.9875
576.80114	10787.8875
580.82422	10545.3875
584.84444	10504.3875
588.86181	10655.6875
592.87633	10822.6875
596.888	11047.6875
600.89682	11469.5875
604.9028	12833.8875
608.90594	16198.9875
612.90624	19670.8875
616.90371	17994.7875
620.89834	13536.8875
624.89015	12047.6875
628.87913	12078.1875
632.86528	12490.0875
636.84862	12748.5875
640.82913	12438.2875
644.80683	11759.7875
648.78172	11213.8875
652.75379	11035.2875
656.72306	11210.7875
660.68952	11464.7875
664.65319	11271.5875
668.61405	10948.7875
672.57211	10913.3875
676.52738	10958.1875
680.47986	11049.1875
684.42955	11162.9875
688.37646	11272.3875
692.32058	11282.9875
696.26192	11221.8875
700.20048	11150.3875
704.13626	10998.3875
708.06928	10785.6875
711.99952	10596.2875
715.927	10515.8875
719.85171	10550.6875
723.77365	10646.6875
727.69284	10673.9875
731.60928	10640.6875
735.52295	10568.7875
739.43388	10503.0875
743.34206	10480.3875
747.24749	10494.5875
751.15017	10483.3875
755.05012	10589.7875
758.94733	11063.7875
762.8418	12132.7875
766.73354	13876.6875
770.62254	15536.5875
774.50882	16372.9875
778.39237	15576.5875
782.27321	13692.7875
786.15132	12000.0875
790.02671	11080.6875
793.89938	10679.9875
797.76935	10537.8875
801.6366	10554.6875
805.50115	10693.3875
809.36299	10816.3875
813.22213	10842.8875
817.07857	10776.2875
820.93231	10595.4875
824.78336	10446.0875
828.63172	10378.1875
832.47738	10304.8875
836.32036	10262.0875
840.16066	10244.5875
843.99827	10235.7875
847.8332	10244.2875
851.66546	10211.4875
855.49504	10212.5875
859.32195	10199.5875
863.1462	10194.5875
866.96777	10200.1875
870.78668	10264.6875
874.60293	10401.1875
878.41652	10568.1875
882.22745	10749.0875
886.03573	10834.3875
889.84136	10822.1875
893.64433	10689.3875
897.44466	10483.9875
901.24235	10284.1875
905.0374	10109.2875
908.8298	9937.9875
912.61957	9888.3875
916.40671	9841.3875
920.19121	9889.3875
923.97308	9979.5875
927.75233	10117.2875
931.52895	10226.9875
935.30295	10172.1875
939.07433	9955.9875
942.84309	9773.1875
946.60924	9708.6875
950.37278	9688.4875
954.13371	9648.3875
957.89203	9586.6875
961.64774	9565.1875
965.40086	9498.7875
969.15137	9446.2875
972.89929	9381.2875
976.64461	9378.3875
980.38733	9369.3875
984.12747	9408.5875
987.86502	9461.7875
991.59999	9559.4875
995.33237	9706.5875
999.06217	9987.4875
1002.78939	10317.4875
1006.51404	10584.9875
1010.23611	10786.7875
1013.95561	10955.0875
1017.67255	11022.9875
1021.38692	10984.4875
1025.09872	10832.5875
1028.80796	10763.4875
1032.51465	10831.4875
1036.21877	10940.3875
1039.92035	10857.8875
1043.61937	10749.1875
1047.31584	10557.5875
1051.00976	10347.5875
1054.70114	10259.4875
1058.38998	10258.6875
1062.07627	10310.4875
1065.76003	10331.1875
1069.44126	10402.6875
1073.11995	10473.6875
1076.79611	10566.7875
1080.46974	10668.1875
1084.14085	10846.2875
1087.80943	11018.5875
1091.47549	11025.8875
1095.13903	10836.6875
1098.80005	10546.9875
1102.45857	10375.1875
1106.11456	10359.8875
1109.76805	10514.9875
1113.41903	10817.4875
1117.06751	11246.0875
1120.71348	11844.4875
1124.35696	12530.6875
1127.99793	13097.4875
1131.63641	13274.7875
1135.2724	12961.2875
1138.90589	12563.2875
1142.5369	12111.4875
1146.16542	11663.6875
1149.79145	11254.4875
1153.415	10964.1875
1157.03607	10853.5875
1160.65467	10863.6875
1164.27079	11136.3875
1167.88443	11614.0875
1171.49561	12346.4875
1175.10432	13548.5875
1178.71056	15199.1875
1182.31434	16594.7875
1185.91565	17083.8875
1189.51451	16777.0875
1193.11091	15935.7875
1196.70485	15074.4875
1200.29634	14468.0875
1203.88538	14002.1875
1207.47197	13364.4875
1211.05612	12697.1875
1214.63782	12187.7875
1218.21708	11870.2875
1221.79391	11699.3875
1225.36829	11648.4875
1228.94024	11531.4875
1232.50976	11435.8875
1236.07685	11406.3875
1239.6415	11458.3875
1243.20374	11543.0875
1246.76355	11633.3875
1250.32093	11780.0875
1253.8759	11975.1875
1257.42845	12317.2875
1260.97859	12626.1875
1264.52631	12921.6875
1268.07163	13243.7875
1271.61453	13496.3875
1275.15503	13706.9875
1278.69312	13833.5875
1282.22882	13978.4875
1285.76211	14290.2875
1289.29301	14702.1875
1292.82151	15156.1875
1296.34761	15717.2875
1299.87133	16564.9875
1303.39266	17908.5875
1306.9116	19840.0875
1310.42815	21760.1875
1313.94233	22434.1875
1317.45412	21475.2875
1320.96354	19875.0875
1324.47058	18357.1875
1327.97525	17155.7875
1331.47754	16510.5875
1334.97747	16369.5875
1338.47502	16678.4875
1341.97022	17330.2875
1345.46305	18169.1875
1348.95352	19328.5875
1352.44163	20816.9875
1355.92738	22879.1875
1359.41078	25828.9875
1362.89183	28142.5875
1366.37053	26760.4875
1369.84688	22607.9875
1373.32088	18952.4875
1376.79254	16743.5875
1380.26186	15634.4875
1383.72883	15024.0875
1387.19347	14587.8875
1390.65578	14140.3875
1394.11575	13825.9875
1397.57339	13623.2875
1401.0287	13592.8875
1404.48168	13576.7875
1407.93234	13618.1875
1411.38068	13655.0875
1414.82669	13638.9875
1418.27039	13479.8875
1421.71177	13287.6875
1425.15083	13038.6875
1428.58758	12936.7875
1432.02203	13059.4875
1435.45416	13202.9875
1438.88399	13269.8875
1442.31151	13348.7875
1445.73673	13470.9875
1449.15965	13667.0875
1452.58027	13764.0875
1455.9986	13796.6875
1459.41463	13908.5875
1462.82837	14109.7875
1466.23982	14390.6875
1469.64898	14642.5875
1473.05586	14814.4875
1476.46045	14801.5875
1479.86276	14855.8875
1483.26279	14975.9875
1486.66054	15183.1875
1490.05602	15535.7875
1493.44922	16077.5875
1496.84016	17002.2875
1500.22882	18582.8875
1503.61521	20701.8875
1506.99934	23160.2875
1510.38121	24928.0875
1513.76081	25142.4875
1517.13816	23285.9875
1520.51324	20431.6875
1523.88607	17917.5875
1527.25665	16297.3875
1530.62498	15397.8875
1533.99105	14879.0875
1537.35488	14577.0875
1540.71647	14430.1875
1544.07581	14449.9875
1547.4329	14443.0875
1550.78776	14555.5875
1554.14038	14633.7875
1557.49077	14752.7875
1560.83892	14921.2875
1564.18484	15204.0875
1567.52853	15530.4875
1570.86999	15841.6875
1574.20922	15992.8875
1577.54624	15876.1875
1580.88103	15194.7875
1584.2136	14381.7875
1587.54395	13972.4875
1590.87208	14153.7875
1594.19801	14885.9875
1597.52172	15838.5875
1600.84321	16294.7875
1604.16251	15927.9875
1607.47959	15158.6875
1610.79447	14292.6875
1614.10715	13396.8875
1617.41763	12709.0875
1620.7259	12259.4875
1624.03199	12046.4875
1627.33587	12076.8875
1630.63757	12318.0875
1633.93707	12816.7875
1637.23439	13612.7875
1640.52951	14718.8875
1643.82246	16270.0875
1647.11321	17968.9875
1650.40179	18979.9875
1653.68819	18297.7875
1656.97241	16236.1875
1660.25446	14124.2875
1663.53433	12665.0875
1666.81203	11769.9875
1670.08756	11247.1875
1673.36092	10926.6875
1676.63211	10676.8875
1679.90115	10443.6875
1683.16801	10269.6875
1686.43272	10190.6875
1689.69527	10007.9875
1692.95567	9890.3875
1696.2139	9805.6875
1699.46999	9669.2875
1702.72392	9564.2875
1705.97571	9479.9875
1709.22535	9383.9875
1712.47284	9307.5875
1715.71819	9269.2875
1718.96139	9172.4875
1722.20246	9102.7875
1725.44139	8993.2875
1728.67818	8894.0875
1731.91284	8827.3875
1735.14537	8712.6875
1738.37576	8697.6875
1741.60403	8659.4875
1744.83017	8618.2875
1748.05418	8599.0875
1751.27607	8573.3875
1754.49584	8529.2875
1757.71349	8522.7875
1760.92903	8521.1875
1764.14244	8489.9875
1767.35375	8472.4875
1770.56294	8435.7875
1773.77002	8393.3875
1776.97499	8356.5875
1780.17785	8306.3875
1783.37861	8312.2875
1786.57727	8285.0875
1789.77382	8257.0875
1792.96828	8236.4875
1796.16064	8235.9875
1799.3509	8215.7875
1802.53907	8225.7875
1805.72514	8193.8875
1808.90913	8158.5875
1812.09102	8137.7875
1815.27083	8118.4875
1818.44856	8120.7875
1821.6242	8100.2875
1824.79776	8075.8875
1827.96924	8074.2875
1831.13864	8059.9875
1834.30597	8047.6875
1837.47122	8039.9875
1840.6344	8016.1875
1843.7955	8027.3875
1846.95454	8010.5875
1850.11151	8018.3875
1853.26642	8017.9875
1856.41926	7995.4875
1859.57004	8005.1875
1862.71876	8014.8875
1865.86542	7974.5875
1869.01003	7998.9875
1872.15258	8001.5875
1875.29308	7996.5875
1878.43152	8008.9875
1881.56792	7985.8875
1884.70227	7974.1875
1887.83457	7940.0875
1890.96482	7953.0875
1894.09304	7946.6875
1897.21921	7941.8875
1900.34335	7926.3875
1903.46544	7919.1875
1906.58551	7950.5875
1909.70353	7922.0875
1912.81953	7929.1875
1915.93349	7934.1875
1919.04543	7877.4875
1922.15534	7885.4875
1925.26322	7878.1875
1928.36908	7877.3875
1931.47292	7850.4875
1934.57473	7844.9875
1937.67453	7826.1875
1940.77232	7808.3875
1943.86808	7771.5875
1946.96184	7778.0875
1950.05358	7748.1875
1953.14331	7729.3875
1956.23103	7695.6875
1959.31675	7692.1875
1962.40046	7676.9875
1965.48217	7661.0875
1968.56188	7655.4875
1971.63959	7608.0875
1974.7153	7602.7875
1977.78901	7589.0875
1980.86073	7578.9875
1983.93046	7557.4875
1986.99819	7505.7875
1990.06394	7479.3875
1993.1277	7472.9875
1996.18947	7452.1875
1999.24925	7442.1875
2002.30706	7407.2875
2005.36288	7386.1875
2008.41672	7356.1875
2011.46859	7358.1875
2014.51848	7314.7875
2017.56639	7302.1875
2020.61233	7310.6875
2023.6563	7305.4875
2026.6983	7285.4875
2029.73833	7260.3875
2032.7764	7244.6875
2035.8125	7229.1875
2038.84664	7212.9875
2041.87881	7243.2875
2044.90903	7225.1875
2047.93729	7191.3875
2050.96359	7183.4875
2053.98794	7188.6875
2057.01034	7171.7875
2060.03078	7183.9875
2063.04927	7159.6875
2066.06582	7159.4875
2069.08042	7163.0875
2072.09307	7149.4875
2075.10378	7160.8875
2078.11255	7161.2875
2081.11938	7190.6875
2084.12426	7135.6875
2087.12722	7162.2875
2090.12824	7164.5875
2093.12732	7137.1875
2096.12447	7157.6875
2099.11969	7177.0875
2102.11299	7173.7875
2105.10435	7164.8875
2108.09379	7176.2875
2111.08131	7160.2875
2114.0669	7169.8875
2117.05057	7202.0875
2120.03233	7177.9875
2123.01216	7202.1875
2125.99008	7192.1875
2128.96609	7208.9875
2131.94018	7221.8875
2134.91236	7216.9875
2137.88263	7206.2875
2140.851	7204.2875
2143.81746	7212.8875
2146.78201	7241.3875
2149.74466	7216.4875
2152.7054	7225.3875
2155.66425	7218.5875
2158.6212	7219.2875
2161.57625	7206.0875
2164.52941	7213.5875
2167.48067	7212.7875
2170.43004	7215.7875
2173.37752	7228.3875
2176.32311	7232.9875
2179.26681	7234.6875
2182.20863	7217.8875
2185.14856	7239.9875
2188.08661	7223.8875
2191.02278	7232.8875
2193.95707	7225.0875
2196.88948	7227.4875
2199.82001	7207.8875
2202.74867	7212.6875
2205.67545	7217.5875
2208.60037	7209.6875
2211.52341	7217.1875
2214.44458	7213.2875
2217.36388	7186.3875
2220.28132	7189.7875
2223.1969	7146.3875
2226.11061	7158.0875
2229.02246	7165.9875
2231.93245	7137.7875
2234.84058	7120.5875
2237.74686	7121.0875
2240.65128	7113.7875
2243.55385	7094.0875
2246.45456	7101.3875
2249.35343	7083.2875
2252.25044	7097.5875
2255.14561	7076.1875
2258.03893	7096.2875
2260.93041	7082.2875
2263.82004	7090.4875
2266.70783	7083.1875
2269.59378	7048.1875
2272.4779	7033.5875
2275.36017	6994.5875
2278.24061	7016.6875
2281.11922	7015.2875
2283.996	6981.7875
2286.87094	6960.6875
2289.74405	6953.8875
2292.61534	6945.4875
2295.4848	6930.7875
2298.35243	6932.0875
2301.21824	6942.9875
2304.08223	6936.0875
2306.94439	6940.6875
2309.80474	6935.4875
2312.66327	6922.2875
2315.51999	6929.2875
2318.37489	6955.4875
2321.22797	6950.3875
2324.07925	6924.7875
2326.92871	6939.3875
2329.77637	6942.4875
2332.62222	6916.2875
2335.46626	6925.0875
2338.3085	6901.3875
2341.14893	6903.8875
2343.98756	6927.9875
2346.8244	6951.8875
2349.65943	6947.3875
2352.49267	6934.9875
2355.32411	6930.2875
2358.15376	6933.5875
2360.98161	6939.6875
2363.80768	6929.6875
2366.63195	6966.6875
2369.45444	6944.2875
2372.27514	6933.6875
2375.09405	6927.5875
2377.91118	6888.3875
2380.72652	6871.0875
2383.54009	6875.4875
2386.35187	6876.6875
2389.16188	6860.9875
2391.97011	6842.6875
2394.77657	6818.7875
2397.58125	6806.4875
2400.38416	6808.1875
2403.18529	6792.8875
2405.98466	6765.1875
2408.78226	6742.8875
2411.57809	6760.6875
2414.37216	6738.7875
2417.16446	6744.8875
2419.955	6729.2875
2422.74378	6734.1875
2425.5308	6727.1875
2428.31606	6711.5875
2431.09956	6711.1875
2433.88131	6717.6875
2436.6613	6722.7875
2439.43954	6723.6875
2442.21603	6722.7875
2444.99077	6711.1875
2447.76377	6705.9875
2450.53501	6709.1875
2453.30451	6718.7875
2456.07226	6701.6875
2458.83827	6702.6875
2461.60254	6687.2875
2464.36507	6681.0875
2467.12586	6690.9875
2469.88492	6682.6875
2472.64224	6710.7875
2475.39782	6680.2875
2478.15167	6706.2875
2480.90379	6728.5875
2483.65417	6719.8875
2486.40283	6719.8875
2489.14976	6727.9875
2491.89497	6738.6875
2494.63845	6758.1875
2497.3802	6747.3875
2500.12024	6745.6875
2502.85855	6734.7875
2505.59514	6721.7875
2508.33002	6715.9875
2511.06318	6681.6875
2513.79462	6692.7875
2516.52435	6651.4875
2519.25237	6648.9875
2521.97867	6640.8875
2524.70327	6626.5875
2527.42616	6613.5875
2530.14734	6616.1875
2532.86681	6620.9875
2535.58458	6636.5875
2538.30065	6632.6875
2541.01501	6629.8875
2543.72768	6616.6875
2546.43864	6615.8875
2549.14791	6612.3875
2551.85548	6616.8875
2554.56136	6600.0875
2557.26554	6594.8875
2559.96803	6591.5875
2562.66883	6581.7875
2565.36794	6561.9875
2568.06536	6551.4875
2570.7611	6560.0875
2573.45514	6557.4875
2576.14751	6559.8875
2578.83819	6541.1875
2581.52719	6542.1875
2584.21451	6522.2875
2586.90015	6525.2875
2589.58411	6506.6875
2592.2664	6496.6875
2594.94701	6520.6875
2597.62594	6503.4875
2600.30321	6500.4875
2602.9788	6504.7875
2605.65273	6476.8875
2608.32498	6495.3875
2610.99557	6474.3875
2613.66449	6463.2875
2616.33175	6489.6875
2618.99734	6491.3875
2621.66128	6461.0875
2624.32355	6484.2875
2626.98416	6476.8875
2629.64311	6473.3875
2632.30041	6490.2875
2634.95605	6463.6875
2637.61004	6447.6875
2640.26238	6433.9875
2642.91306	6446.2875
2645.56209	6433.5875
2648.20948	6419.1875
2650.85521	6412.2875
2653.4993	6423.0875
2656.14175	6414.2875
2658.78255	6414.3875
2661.42171	6448.4875
2664.05923	6454.5875
2666.6951	6447.1875
2669.32934	6461.9875
2671.96194	6467.9875
2674.59291	6482.1875
2677.22224	6471.1875
2679.84993	6494.4875
2682.476	6463.3875
2685.10043	6460.0875
2687.72324	6451.3875
2690.34441	6455.3875
2692.96396	6457.9875
2695.58188	6477.2875
2698.19818	6474.7875
2700.81285	6472.1875
2703.4259	6471.8875
2706.03733	6484.9875
2708.64714	6491.5875
2711.25533	6488.5875
2713.86191	6501.0875
2716.46687	6489.9875
2719.07021	6503.0875
2721.67194	6499.8875
2724.27206	6500.3875
2726.87057	6511.0875
2729.46747	6481.0875
2732.06276	6504.7875
2734.65644	6519.7875
2737.24852	6484.3875
2739.83899	6515.8875
2742.42786	6493.2875
2745.01513	6479.5875
2747.60079	6502.3875
2750.18486	6477.1875
2752.76733	6469.9875
2755.3482	6476.0875
2757.92747	6473.9875
2760.50515	6440.2875
2763.08123	6461.0875
2765.65573	6462.7875
2768.22863	6451.7875
2770.79994	6431.3875
2773.36967	6436.2875
2775.9378	6453.4875
2778.50435	6427.6875
2781.06932	6411.3875
2783.6327	6431.0875
2786.1945	6435.2875
2788.75471	6415.7875
2791.31335	6402.8875
2793.87041	6389.3875
2796.42589	6366.0875
2798.97979	6377.3875
2801.53212	6387.4875
2804.08288	6385.8875
2806.63206	6365.0875
2809.17967	6336.4875
2811.72571	6350.5875
2814.27018	6344.4875
2816.81308	6321.9875
2819.35442	6331.3875
2821.89419	6314.9875
2824.43239	6338.1875
2826.96904	6320.8875
2829.50412	6330.2875
2832.03763	6318.2875
2834.56959	6326.4875
2837.1	6295.8875
2839.62884	6310.4875
2842.15613	6321.8875
2844.68186	6312.8875
2847.20604	6322.5875
2849.72867	6347.6875
2852.24974	6338.9875
2854.76927	6343.5875
2857.28724	6317.7875
2859.80367	6330.6875
2862.31855	6322.2875
2864.83189	6313.9875
2867.34368	6301.5875
2869.85393	6312.0875
2872.36264	6309.2875
2874.8698	6316.9875
2877.37543	6322.9875
2879.87952	6314.1875
2882.38207	6319.7875
2884.88308	6325.1875
2887.38256	6329.9875
2889.88051	6297.9875
2892.37692	6303.6875
2894.8718	6312.3875
2897.36515	6335.9875
2899.85698	6339.2875
2902.34727	6342.2875
2904.83604	6366.2875
2907.32328	6380.4875
2909.809	6373.5875
2912.29319	6363.8875
2914.77587	6384.1875
2917.25702	6379.2875
2919.73665	6379.5875
2922.21476	6369.7875
2924.69136	6364.6875
2927.16644	6368.6875
2929.64	6355.7875
2932.11205	6337.0875
2934.58258	6309.2875
2937.05161	6330.7875
2939.51912	6337.1875
2941.98513	6312.0875
2944.44962	6305.9875
2946.91261	6297.7875
2949.37409	6288.1875
2951.83407	6283.7875
2954.29254	6283.8875
2956.74951	6283.9875
2959.20498	6279.9875
2961.65895	6281.1875
2964.11142	6279.1875
2966.56239	6257.0875
2969.01186	6245.8875
2971.45984	6253.3875
2973.90632	6239.5875
2976.35131	6230.1875
2978.7948	6231.0875
2981.23681	6215.1875
2983.67732	6213.0875
2986.11635	6180.6875
2988.55388	6177.7875
2990.98993	6175.4875
2993.4245	6166.7875
2995.85758	6156.7875
2998.28917	6152.1875
3000.71928	6152.3875
3003.14791	6113.7875
3005.57506	6128.6875
3008.00073	6116.0875
3010.42493	6101.5875
3012.84764	6083.7875
3015.26888	6093.3875
3017.68865	6074.1875
3020.10694	6074.7875
3022.52376	6068.5875
3024.9391	6054.9875
3027.35298	6064.5875
3029.76539	6028.9875
3032.17632	6038.3875
3034.5858	6048.3875
3036.9938	6037.7875
3039.40034	6012.7875
3041.80542	6020.5875
3044.20903	6011.3875
3046.61118	6017.8875
3049.01187	5998.0875
3051.4111	6004.7875
3053.80888	6012.4875
3056.20519	5983.5875
3058.60005	5958.4875
3060.99345	5957.9875
3063.3854	5936.2875
3065.7759	5924.7875
3068.16494	5928.7875
3070.55254	5897.3875
3072.93868	5899.6875
3075.32338	5889.6875
3077.70662	5891.0875
3080.08842	5865.8875
3082.46878	5859.5875
3084.84769	5853.1875
3087.22515	5839.1875
