Data from AgNPs_APTES_FTO_UA_100uM_CRN_0uM_R6G_10uM_Scan_RamanShift__44__16-34-02-977.txt Node

Date: Mon Jul 11 16:34:02 BST 2022
User: TCL
Spectrometer: QEP01345
Trigger mode: 4
Integration Time (sec): 7.000000E0
Scans to average: 10
Electric dark correction enabled: true
Nonlinearity correction enabled: false
Boxcar width: 0
XAxis mode: Raman Shifts
Number of Pixels in Spectrum: 1044
>>>>>Begin Spectral Data<<<<<
46.04893	-0.8625
50.45542	-0.4625
54.85868	-1.2625
59.25871	-1.3625
63.6555	64.8375
68.04907	72.0375
72.43941	71.1375
76.82654	72.3375
81.21044	76.5375
85.59113	81.6375
89.96862	86.0375
94.34289	86.5375
98.71396	88.2375
103.08183	94.1375
107.4465	91.9375
111.80798	95.8375
116.16626	99.7375
120.52136	102.2375
124.87327	111.7375
129.222	117.1375
133.56755	124.3375
137.90993	139.6375
142.24913	147.2375
146.58517	167.1375
150.91804	193.4375
155.24774	233.6375
159.57429	287.8375
163.89768	377.4375
168.21792	490.9375
172.53501	673.0375
176.84895	946.8375
181.15975	1337.1375
185.46741	1867.2375
189.77193	2584.9375
194.07331	3464.6375
198.37157	4455.6375
202.6667	5502.9375
206.9587	6549.3375
211.24758	7582.6375
215.53334	8613.5375
219.81599	9749.3375
224.09553	10951.6375
228.37195	12264.4375
232.64527	13787.7375
236.91549	15344.5375
241.18261	16815.6375
245.44663	18168.3375
249.70755	19345.3375
253.96539	20348.0375
258.22014	21154.5375
262.4718	21772.2375
266.72039	22093.1375
270.96589	22212.4375
275.20832	22021.3375
279.44768	21630.9375
283.68397	21274.9375
287.91719	20891.4375
292.14735	20640.2375
296.37445	20569.3375
300.59849	20677.5375
304.81948	20893.6375
309.03742	21020.9375
313.25231	20988.6375
317.46415	20692.1375
321.67296	20304.9375
325.87872	19963.8375
330.08145	19824.4375
334.28114	19849.6375
338.47781	20001.0375
342.67145	20298.6375
346.86207	20701.6375
351.04966	21170.2375
355.23424	21695.6375
359.4158	22072.6375
363.59435	22365.1375
367.76989	22530.9375
371.94243	22610.3375
376.11196	22596.1375
380.27849	22687.3375
384.44203	22806.9375
388.60257	22917.9375
392.76012	23128.0375
396.91468	23326.1375
401.06626	23679.4375
405.21485	23888.8375
409.36047	23694.6375
413.50311	23344.0375
417.64277	23131.6375
421.77947	23005.5375
425.9132	23038.0375
430.04396	23172.7375
434.17176	23304.6375
438.2966	23551.9375
442.41849	24000.2375
446.53742	24646.0375
450.6534	25226.5375
454.76644	25529.4375
458.87653	25556.8375
462.98368	25383.0375
467.08789	25073.4375
471.18916	24683.3375
475.2875	24165.3375
479.38291	23821.2375
483.4754	23575.6375
487.56496	23473.9375
491.6516	23470.4375
495.73531	23641.5375
499.81612	23831.8375
503.89401	24127.5375
507.96899	24233.7375
512.04106	24271.0375
516.11023	24226.6375
520.1765	24246.8375
524.23987	24223.0375
528.30034	24244.9375
532.35792	24116.2375
536.41261	23855.8375
540.46441	23521.4375
544.51333	23395.3375
548.55936	23543.8375
552.60252	23813.8375
556.64279	24221.9375
560.6802	24486.2375
564.71473	24585.4375
568.7464	24844.9375
572.7752	25100.6375
576.80114	25280.5375
580.82422	25695.8375
584.84444	26452.6375
588.86181	27533.3375
592.87633	28423.1375
596.888	28580.4375
600.89682	28083.5375
604.9028	28667.1375
608.90594	31480.4375
612.90624	34086.0375
616.90371	31657.6375
620.89834	27005.2375
624.89015	25203.6375
628.87913	25044.3375
632.86528	25328.9375
636.84862	25520.2375
640.82913	25218.3375
644.80683	24763.8375
648.78172	24415.4375
652.75379	24480.5375
656.72306	24812.8375
660.68952	25178.8375
664.65319	24835.5375
668.61405	24459.1375
672.57211	24419.6375
676.52738	24626.9375
680.47986	24671.7375
684.42955	24645.6375
688.37646	24653.2375
692.32058	24747.2375
696.26192	24792.8375
700.20048	24842.0375
704.13626	24828.8375
708.06928	24631.9375
711.99952	24418.2375
715.927	24447.6375
719.85171	24486.4375
723.77365	24456.8375
727.69284	24300.4375
731.60928	24190.8375
735.52295	24249.0375
739.43388	24346.6375
743.34206	24473.4375
747.24749	24543.6375
751.15017	24633.8375
755.05012	24896.6375
758.94733	25451.7375
762.8418	26701.5375
766.73354	28651.9375
770.62254	30371.9375
774.50882	30746.7375
778.39237	29688.7375
782.27321	27846.7375
786.15132	26310.5375
790.02671	25298.4375
793.89938	24841.9375
797.76935	24659.7375
801.6366	24551.0375
805.50115	24573.7375
809.36299	24483.9375
813.22213	24367.7375
817.07857	24248.2375
820.93231	24079.5375
824.78336	23921.6375
828.63172	23900.6375
832.47738	23840.4375
836.32036	23846.1375
840.16066	23857.1375
843.99827	23841.2375
847.8332	23851.4375
851.66546	23854.5375
855.49504	23996.2375
859.32195	24010.5375
863.1462	24039.3375
866.96777	23992.9375
870.78668	24007.0375
874.60293	24086.8375
878.41652	24240.9375
882.22745	24336.9375
886.03573	24461.2375
889.84136	24500.9375
893.64433	24381.6375
897.44466	24232.9375
901.24235	24186.1375
905.0374	24047.7375
908.8298	23945.9375
912.61957	23905.8375
916.40671	23952.3375
920.19121	24047.8375
923.97308	24209.1375
927.75233	24353.1375
931.52895	24352.2375
935.30295	24110.0375
939.07433	23842.2375
942.84309	23573.8375
946.60924	23515.6375
950.37278	23496.1375
954.13371	23497.9375
957.89203	23478.6375
961.64774	23458.8375
965.40086	23426.8375
969.15137	23442.2375
972.89929	23463.2375
976.64461	23533.0375
980.38733	23576.3375
984.12747	23621.9375
987.86502	23711.5375
991.59999	23867.6375
995.33237	24107.7375
999.06217	24453.9375
1002.78939	24988.6375
1006.51404	25512.8375
1010.23611	25957.3375
1013.95561	26255.7375
1017.67255	26214.7375
1021.38692	25918.3375
1025.09872	25488.6375
1028.80796	25280.2375
1032.51465	25256.2375
1036.21877	25289.9375
1039.92035	25380.3375
1043.61937	25382.4375
1047.31584	25243.1375
1051.00976	25076.7375
1054.70114	25106.0375
1058.38998	25125.5375
1062.07627	25271.3375
1065.76003	25493.8375
1069.44126	25809.8375
1073.11995	26250.7375
1076.79611	26740.1375
1080.46974	27001.4375
1084.14085	27233.8375
1087.80943	27442.7375
1091.47549	27571.3375
1095.13903	27376.3375
1098.80005	26962.5375
1102.45857	26520.6375
1106.11456	26362.5375
1109.76805	26279.3375
1113.41903	26380.4375
1117.06751	26622.1375
1120.71348	26987.1375
1124.35696	27565.8375
1127.99793	28071.3375
1131.63641	28269.3375
1135.2724	28171.3375
1138.90589	27947.9375
1142.5369	27765.5375
1146.16542	27598.2375
1149.79145	27373.7375
1153.415	27166.0375
1157.03607	27037.2375
1160.65467	27221.3375
1164.27079	27757.4375
1167.88443	28680.6375
1171.49561	29952.5375
1175.10432	31697.4375
1178.71056	33924.7375
1182.31434	35828.7375
1185.91565	36610.5375
1189.51451	36356.6375
1193.11091	35480.7375
1196.70485	34430.1375
1200.29634	33543.1375
1203.88538	32804.3375
1207.47197	32133.4375
1211.05612	31570.4375
1214.63782	30985.5375
1218.21708	30553.9375
1221.79391	30334.3375
1225.36829	30324.0375
1228.94024	30214.6375
1232.50976	29933.7375
1236.07685	29576.7375
1239.6415	29263.0375
1243.20374	29239.1375
1246.76355	29470.3375
1250.32093	29803.6375
1253.8759	30284.4375
1257.42845	30906.0375
1260.97859	31662.0375
1264.52631	32541.8375
1268.07163	33378.9375
1271.61453	34125.4375
1275.15503	34617.1375
1278.69312	34942.3375
1282.22882	35206.6375
1285.76211	35682.2375
1289.29301	36460.2375
1292.82151	37454.7375
1296.34761	38582.5375
1299.87133	40116.4375
1303.39266	42056.1375
1306.9116	44526.4375
1310.42815	46949.9375
1313.94233	48243.4375
1317.45412	47598.5375
1320.96354	45744.2375
1324.47058	43822.0375
1327.97525	42259.5375
1331.47754	41156.6375
1334.97747	40775.1375
1338.47502	40797.7375
1341.97022	41301.6375
1345.46305	41995.2375
1348.95352	42878.2375
1352.44163	43912.0375
1355.92738	45651.6375
1359.41078	48224.2375
1362.89183	50327.6375
1366.37053	49243.9375
1369.84688	44896.7375
1373.32088	40215.5375
1376.79254	37237.4375
1380.26186	35987.8375
1383.72883	35506.2375
1387.19347	35128.2375
1390.65578	34503.1375
1394.11575	34044.0375
1397.57339	33787.4375
1401.0287	33608.4375
1404.48168	33591.9375
1407.93234	33568.9375
1411.38068	33458.1375
1414.82669	33107.8375
1418.27039	32636.2375
1421.71177	32156.4375
1425.15083	31910.7375
1428.58758	31968.7375
1432.02203	32422.4375
1435.45416	33048.8375
1438.88399	33602.1375
1442.31151	33782.6375
1445.73673	33787.1375
1449.15965	33742.1375
1452.58027	33593.4375
1455.9986	33519.6375
1459.41463	33734.4375
1462.82837	34296.7375
1466.23982	34946.8375
1469.64898	35523.9375
1473.05586	35860.2375
1476.46045	35979.9375
1479.86276	35900.2375
1483.26279	35841.7375
1486.66054	35889.2375
1490.05602	36249.1375
1493.44922	36805.8375
1496.84016	37533.2375
1500.22882	38768.8375
1503.61521	40506.2375
1506.99934	42219.1375
1510.38121	43461.4375
1513.76081	43374.3375
1517.13816	41635.6375
1520.51324	39299.3375
1523.88607	37259.4375
1527.25665	36170.9375
1530.62498	35791.2375
1533.99105	35548.2375
1537.35488	35384.6375
1540.71647	34989.1375
1544.07581	34602.4375
1547.4329	34285.8375
1550.78776	34001.5375
1554.14038	33751.8375
1557.49077	33705.0375
1560.83892	33806.3375
1564.18484	34026.6375
1567.52853	34298.4375
1570.86999	34616.7375
1574.20922	34856.3375
1577.54624	34760.8375
1580.88103	34144.5375
1584.2136	33622.5375
1587.54395	33768.3375
1590.87208	34810.2375
1594.19801	36499.3375
1597.52172	38339.2375
1600.84321	39012.7375
1604.16251	37956.3375
1607.47959	35857.4375
1610.79447	33556.7375
1614.10715	31418.4375
1617.41763	29799.7375
1620.7259	28790.7375
1624.03199	28308.6375
1627.33587	28355.9375
1630.63757	28904.9375
1633.93707	30163.7375
1637.23439	32231.3375
1640.52951	35308.9375
1643.82246	38870.1375
1647.11321	41556.6375
1650.40179	41766.8375
1653.68819	39126.0375
1656.97241	34874.1375
1660.25446	31009.7375
1663.53433	28398.8375
1666.81203	26805.4375
1670.08756	25859.0375
1673.36092	25213.6375
1676.63211	24812.6375
1679.90115	24427.4375
1683.16801	24139.4375
1686.43272	23866.6375
1689.69527	23634.0375
1692.95567	23403.4375
1696.2139	23280.1375
1699.46999	23129.5375
1702.72392	23035.9375
1705.97571	22973.8375
1709.22535	22851.9375
1712.47284	22808.4375
1715.71819	22793.7375
1718.96139	22678.8375
1722.20246	22634.6375
1725.44139	22544.3375
1728.67818	22421.0375
1731.91284	22307.8375
1735.14537	22197.1375
1738.37576	22134.7375
1741.60403	22023.1375
1744.83017	21986.8375
1748.05418	21975.0375
1751.27607	21867.0375
1754.49584	21822.9375
1757.71349	21786.7375
1760.92903	21770.3375
1764.14244	21721.3375
1767.35375	21727.3375
1770.56294	21691.4375
1773.77002	21641.2375
1776.97499	21616.4375
1780.17785	21602.6375
1783.37861	21571.6375
1786.57727	21504.6375
1789.77382	21483.4375
1792.96828	21487.4375
1796.16064	21441.3375
1799.3509	21404.5375
1802.53907	21362.1375
1805.72514	21316.1375
1808.90913	21265.8375
1812.09102	21170.6375
1815.27083	21192.6375
1818.44856	21175.8375
1821.6242	21119.1375
1824.79776	21129.5375
1827.96924	21096.0375
1831.13864	21070.2375
1834.30597	21020.5375
1837.47122	21038.3375
1840.6344	21015.0375
1843.7955	20995.4375
1846.95454	20987.9375
1850.11151	20979.2375
1853.26642	20972.5375
1856.41926	20956.2375
1859.57004	20958.9375
1862.71876	20928.9375
1865.86542	20936.0375
1869.01003	20906.8375
1872.15258	20875.3375
1875.29308	20909.4375
1878.43152	20868.9375
1881.56792	20837.0375
1884.70227	20839.6375
1887.83457	20782.9375
1890.96482	20763.0375
1894.09304	20713.2375
1897.21921	20679.0375
1900.34335	20652.6375
1903.46544	20633.5375
1906.58551	20644.3375
1909.70353	20625.0375
1912.81953	20589.4375
1915.93349	20575.2375
1919.04543	20534.5375
1922.15534	20542.7375
1925.26322	20469.4375
1928.36908	20435.0375
1931.47292	20398.9375
1934.57473	20338.5375
1937.67453	20288.7375
1940.77232	20263.5375
1943.86808	20189.0375
1946.96184	20176.7375
1950.05358	20104.0375
1953.14331	20079.6375
1956.23103	19997.5375
1959.31675	19917.9375
1962.40046	19867.7375
1965.48217	19813.5375
1968.56188	19779.1375
1971.63959	19711.0375
1974.7153	19671.6375
1977.78901	19591.4375
1980.86073	19556.7375
1983.93046	19472.1375
1986.99819	19439.9375
1990.06394	19375.2375
1993.1277	19358.4375
1996.18947	19290.9375
1999.24925	19268.9375
2002.30706	19180.4375
2005.36288	19154.3375
2008.41672	19077.9375
2011.46859	19017.7375
2014.51848	19017.7375
2017.56639	18987.3375
2020.61233	18902.0375
2023.6563	18908.2375
2026.6983	18851.2375
2029.73833	18829.4375
2032.7764	18746.5375
2035.8125	18678.3375
2038.84664	18658.4375
2041.87881	18621.9375
2044.90903	18617.5375
2047.93729	18585.4375
2050.96359	18581.4375
2053.98794	18522.4375
2057.01034	18495.8375
2060.03078	18499.4375
2063.04927	18448.1375
2066.06582	18448.6375
2069.08042	18454.3375
2072.09307	18431.5375
2075.10378	18442.5375
2078.11255	18425.9375
2081.11938	18447.8375
2084.12426	18429.4375
2087.12722	18423.2375
2090.12824	18428.1375
2093.12732	18390.2375
2096.12447	18431.0375
2099.11969	18412.4375
2102.11299	18442.5375
2105.10435	18453.2375
2108.09379	18435.6375
2111.08131	18391.4375
2114.0669	18407.0375
2117.05057	18430.7375
2120.03233	18465.5375
2123.01216	18458.4375
2125.99008	18445.9375
2128.96609	18525.2375
2131.94018	18516.1375
2134.91236	18514.4375
2137.88263	18561.6375
2140.851	18563.7375
2143.81746	18545.7375
2146.78201	18565.8375
2149.74466	18578.1375
2152.7054	18587.0375
2155.66425	18545.6375
2158.6212	18598.7375
2161.57625	18538.9375
2164.52941	18530.9375
2167.48067	18562.2375
2170.43004	18555.6375
2173.37752	18571.6375
2176.32311	18535.8375
2179.26681	18518.0375
2182.20863	18542.8375
2185.14856	18521.7375
2188.08661	18558.3375
2191.02278	18583.7375
2193.95707	18519.5375
2196.88948	18542.9375
2199.82001	18523.2375
2202.74867	18471.2375
2205.67545	18489.5375
2208.60037	18464.0375
2211.52341	18426.8375
2214.44458	18393.9375
2217.36388	18402.5375
2220.28132	18342.8375
2223.1969	18253.7375
2226.11061	18248.7375
2229.02246	18233.4375
2231.93245	18190.0375
2234.84058	18141.9375
2237.74686	18124.7375
2240.65128	18110.7375
2243.55385	18116.1375
2246.45456	18086.7375
2249.35343	18086.6375
2252.25044	18030.9375
2255.14561	17987.9375
2258.03893	17984.1375
2260.93041	17945.3375
2263.82004	17888.3375
2266.70783	17853.5375
2269.59378	17840.4375
2272.4779	17782.5375
2275.36017	17799.7375
2278.24061	17751.3375
2281.11922	17689.3375
2283.996	17693.9375
2286.87094	17651.1375
2289.74405	17666.5375
2292.61534	17647.9375
2295.4848	17622.2375
2298.35243	17626.5375
2301.21824	17594.0375
2304.08223	17626.4375
2306.94439	17596.3375
2309.80474	17577.4375
2312.66327	17574.6375
2315.51999	17541.8375
2318.37489	17548.7375
2321.22797	17524.5375
2324.07925	17489.5375
2326.92871	17450.7375
2329.77637	17431.8375
2332.62222	17379.5375
2335.46626	17371.0375
2338.3085	17355.8375
2341.14893	17337.7375
2343.98756	17345.8375
2346.8244	17356.1375
2349.65943	17330.4375
2352.49267	17326.4375
2355.32411	17324.6375
2358.15376	17358.5375
2360.98161	17349.3375
2363.80768	17306.8375
2366.63195	17318.2375
2369.45444	17276.5375
2372.27514	17281.3375
2375.09405	17260.3375
2377.91118	17226.8375
2380.72652	17198.9375
2383.54009	17145.6375
2386.35187	17147.5375
2389.16188	17103.9375
2391.97011	17059.3375
2394.77657	17036.0375
2397.58125	16985.5375
2400.38416	16984.4375
2403.18529	16954.4375
2405.98466	16907.1375
2408.78226	16895.4375
2411.57809	16871.6375
2414.37216	16826.9375
2417.16446	16856.6375
2419.955	16828.1375
2422.74378	16814.5375
2425.5308	16816.7375
2428.31606	16813.2375
2431.09956	16785.3375
2433.88131	16781.4375
2436.6613	16782.7375
2439.43954	16802.6375
2442.21603	16738.5375
2444.99077	16749.1375
2447.76377	16740.4375
2450.53501	16723.4375
2453.30451	16757.6375
2456.07226	16716.0375
2458.83827	16688.8375
2461.60254	16681.7375
2464.36507	16676.7375
2467.12586	16668.9375
2469.88492	16635.8375
2472.64224	16663.0375
2475.39782	16662.2375
2478.15167	16661.5375
2480.90379	16632.8375
2483.65417	16677.0375
2486.40283	16665.4375
2489.14976	16674.8375
2491.89497	16625.0375
2494.63845	16614.1375
2497.3802	16593.3375
2500.12024	16612.1375
2502.85855	16604.0375
2505.59514	16568.2375
2508.33002	16552.3375
2511.06318	16489.9375
2513.79462	16450.2375
2516.52435	16478.8375
2519.25237	16432.5375
2521.97867	16423.6375
2524.70327	16413.7375
2527.42616	16395.5375
2530.14734	16414.0375
2532.86681	16369.9375
2535.58458	16425.7375
2538.30065	16355.9375
2541.01501	16380.4375
2543.72768	16334.6375
2546.43864	16342.5375
2549.14791	16324.2375
2551.85548	16321.5375
2554.56136	16276.3375
2557.26554	16247.8375
2559.96803	16243.1375
2562.66883	16165.1375
2565.36794	16192.2375
2568.06536	16197.0375
2570.7611	16150.1375
2573.45514	16105.1375
2576.14751	16144.0375
2578.83819	16084.9375
2581.52719	16063.3375
2584.21451	16017.7375
2586.90015	16031.9375
2589.58411	15984.9375
2592.2664	15993.9375
2594.94701	15975.1375
2597.62594	15957.2375
2600.30321	15968.2375
2602.9788	15924.7375
2605.65273	15934.0375
2608.32498	15920.7375
2610.99557	15885.5375
2613.66449	15886.1375
2616.33175	15872.6375
2618.99734	15853.2375
2621.66128	15857.0375
2624.32355	15798.7375
2626.98416	15784.4375
2629.64311	15762.8375
2632.30041	15783.7375
2634.95605	15718.8375
2637.61004	15688.6375
2640.26238	15668.5375
2642.91306	15697.3375
2645.56209	15640.6375
2648.20948	15654.8375
2650.85521	15670.0375
2653.4993	15675.8375
2656.14175	15668.4375
2658.78255	15662.1375
2661.42171	15639.5375
2664.05923	15692.8375
2666.6951	15690.1375
2669.32934	15741.1375
2671.96194	15748.3375
2674.59291	15729.9375
2677.22224	15716.8375
2679.84993	15724.4375
2682.476	15685.7375
2685.10043	15712.9375
2687.72324	15655.2375
2690.34441	15637.9375
2692.96396	15634.8375
2695.58188	15648.2375
2698.19818	15664.0375
2700.81285	15660.0375
2703.4259	15649.1375
2706.03733	15655.3375
2708.64714	15683.6375
2711.25533	15670.8375
2713.86191	15731.0375
2716.46687	15762.5375
2719.07021	15743.9375
2721.67194	15714.5375
2724.27206	15700.0375
2726.87057	15724.9375
2729.46747	15734.4375
2732.06276	15703.1375
2734.65644	15733.1375
2737.24852	15711.3375
2739.83899	15688.6375
2742.42786	15675.4375
2745.01513	15663.0375
2747.60079	15643.9375
2750.18486	15662.4375
2752.76733	15638.5375
2755.3482	15615.9375
2757.92747	15600.2375
2760.50515	15554.0375
2763.08123	15538.2375
2765.65573	15480.1375
2768.22863	15515.6375
2770.79994	15487.7375
2773.36967	15520.5375
2775.9378	15457.1375
2778.50435	15505.1375
2781.06932	15422.1375
2783.6327	15430.1375
2786.1945	15418.8375
2788.75471	15420.9375
2791.31335	15386.1375
2793.87041	15348.7375
2796.42589	15306.0375
2798.97979	15289.1375
2801.53212	15232.4375
2804.08288	15227.1375
2806.63206	15167.5375
2809.17967	15194.1375
2811.72571	15095.7375
2814.27018	15081.5375
2816.81308	15046.3375
2819.35442	15019.9375
2821.89419	14975.1375
2824.43239	14987.6375
2826.96904	14990.4375
2829.50412	14992.3375
2832.03763	14952.1375
2834.56959	14968.3375
2837.1	14906.8375
2839.62884	14907.1375
2842.15613	14859.4375
2844.68186	14885.5375
2847.20604	14868.9375
2849.72867	14868.6375
2852.24974	14861.2375
2854.76927	14827.7375
2857.28724	14831.1375
2859.80367	14799.9375
2862.31855	14817.3375
2864.83189	14771.1375
2867.34368	14748.5375
2869.85393	14768.2375
2872.36264	14757.6375
2874.8698	14750.3375
2877.37543	14766.3375
2879.87952	14731.2375
2882.38207	14759.0375
2884.88308	14725.4375
2887.38256	14722.0375
2889.88051	14692.3375
2892.37692	14734.1375
2894.8718	14715.8375
2897.36515	14762.3375
2899.85698	14756.3375
2902.34727	14762.8375
2904.83604	14754.9375
2907.32328	14784.7375
2909.809	14783.9375
2912.29319	14789.1375
2914.77587	14789.4375
2917.25702	14806.9375
2919.73665	14784.9375
2922.21476	14760.9375
2924.69136	14755.5375
2927.16644	14740.9375
2929.64	14732.7375
2932.11205	14707.6375
2934.58258	14659.8375
2937.05161	14685.7375
2939.51912	14670.6375
2941.98513	14625.8375
2944.44962	14617.4375
2946.91261	14581.2375
2949.37409	14594.0375
2951.83407	14571.4375
2954.29254	14570.2375
2956.74951	14572.5375
2959.20498	14550.4375
2961.65895	14558.0375
2964.11142	14571.0375
2966.56239	14541.3375
2969.01186	14517.5375
2971.45984	14493.5375
2973.90632	14517.0375
2976.35131	14455.3375
2978.7948	14440.1375
2981.23681	14427.7375
2983.67732	14404.7375
2986.11635	14367.5375
2988.55388	14353.1375
2990.98993	14291.0375
2993.4245	14272.8375
2995.85758	14270.8375
2998.28917	14241.5375
3000.71928	14188.0375
3003.14791	14167.1375
3005.57506	14143.6375
3008.00073	14093.5375
3010.42493	14091.2375
3012.84764	14060.6375
3015.26888	14080.5375
3017.68865	14063.1375
3020.10694	14016.6375
3022.52376	13972.5375
3024.9391	13993.7375
