Data from AgNPs_APTES_FTO_UA_100uM_CRN_0uM_R6G_10uM_Scan_RamanShift__15__16-00-12-944.txt Node

Date: Mon Jul 11 16:00:12 BST 2022
User: TCL
Spectrometer: QEP01345
Trigger mode: 4
Integration Time (sec): 7.000000E0
Scans to average: 10
Electric dark correction enabled: true
Nonlinearity correction enabled: false
Boxcar width: 0
XAxis mode: Raman Shifts
Number of Pixels in Spectrum: 1044
>>>>>Begin Spectral Data<<<<<
46.04893	-0.075
50.45542	0.725
54.85868	0.525
59.25871	-2.075
63.6555	36.125
68.04907	41.925
72.43941	43.025
76.82654	45.225
81.21044	50.525
85.59113	51.725
89.96862	55.825
94.34289	53.925
98.71396	55.225
103.08183	59.425
107.4465	61.625
111.80798	61.725
116.16626	59.525
120.52136	62.025
124.87327	67.825
129.222	69.325
133.56755	73.325
137.90993	79.525
142.24913	88.425
146.58517	96.625
150.91804	109.825
155.24774	129.325
159.57429	160.025
163.89768	203.825
168.21792	268.225
172.53501	360.425
176.84895	499.725
181.15975	692.425
185.46741	973.025
189.77193	1335.825
194.07331	1788.725
198.37157	2298.925
202.6667	2824.925
206.9587	3375.525
211.24758	3904.525
215.53334	4435.425
219.81599	5006.925
224.09553	5623.625
228.37195	6320.525
232.64527	7087.125
236.91549	7880.525
241.18261	8617.225
245.44663	9267.525
249.70755	9811.925
253.96539	10249.925
258.22014	10558.025
262.4718	10760.625
266.72039	10884.725
270.96589	10845.025
275.20832	10717.925
279.44768	10543.125
283.68397	10317.425
287.91719	10154.925
292.14735	10055.825
296.37445	10040.225
300.59849	10123.425
304.81948	10229.225
309.03742	10229.525
313.25231	10086.125
317.46415	9774.525
321.67296	9464.725
325.87872	9200.525
330.08145	9101.125
334.28114	9109.525
338.47781	9187.625
342.67145	9333.325
346.86207	9533.325
351.04966	9778.025
355.23424	10086.025
359.4158	10352.425
363.59435	10537.125
367.76989	10690.525
371.94243	10813.825
376.11196	10909.825
380.27849	11013.525
384.44203	11056.525
388.60257	11125.625
392.76012	11160.325
396.91468	11284.925
401.06626	11475.725
405.21485	11541.325
409.36047	11412.825
413.50311	11133.425
417.64277	10878.725
421.77947	10712.225
425.9132	10654.325
430.04396	10675.225
434.17176	10752.225
438.2966	10816.925
442.41849	11031.125
446.53742	11259.625
450.6534	11478.125
454.76644	11664.925
458.87653	11735.425
462.98368	11730.125
467.08789	11657.725
471.18916	11521.025
475.2875	11422.125
479.38291	11337.925
483.4754	11301.925
487.56496	11254.325
491.6516	11240.625
495.73531	11271.225
499.81612	11250.525
503.89401	11353.325
507.96899	11407.025
512.04106	11415.325
516.11023	11470.825
520.1765	11501.525
524.23987	11468.725
528.30034	11452.525
532.35792	11449.225
536.41261	11410.625
540.46441	11291.325
544.51333	11228.425
548.55936	11242.025
552.60252	11272.525
556.64279	11366.925
560.6802	11424.025
564.71473	11457.125
568.7464	11543.325
572.7752	11627.025
576.80114	11573.525
580.82422	11573.225
584.84444	11635.425
588.86181	11715.225
592.87633	11800.425
596.888	11907.325
600.89682	12114.325
604.9028	13009.625
608.90594	15081.225
612.90624	17041.425
616.90371	15705.925
620.89834	12842.725
624.89015	11799.425
628.87913	11796.125
632.86528	12113.625
636.84862	12389.825
640.82913	12272.825
644.80683	11879.925
648.78172	11584.225
652.75379	11506.225
656.72306	11687.125
660.68952	11885.925
664.65319	11851.225
668.61405	11798.025
672.57211	12034.325
676.52738	12425.725
680.47986	13014.525
684.42955	13620.825
688.37646	14078.625
692.32058	13984.225
696.26192	13508.325
700.20048	13049.325
704.13626	12786.425
708.06928	12583.625
711.99952	12304.425
715.927	11987.725
719.85171	11735.525
723.77365	11551.425
727.69284	11433.125
731.60928	11423.625
735.52295	11395.225
739.43388	11352.425
743.34206	11308.725
747.24749	11220.025
751.15017	11137.225
755.05012	11171.525
758.94733	11435.825
762.8418	12175.725
766.73354	13328.925
770.62254	14654.825
774.50882	15307.025
778.39237	14779.025
782.27321	13448.625
786.15132	12328.525
790.02671	11643.625
793.89938	11333.025
797.76935	11167.025
801.6366	11084.525
805.50115	11050.125
809.36299	10988.825
813.22213	10946.525
817.07857	10859.725
820.93231	10760.125
824.78336	10714.325
828.63172	10697.225
832.47738	10632.825
836.32036	10618.325
840.16066	10637.725
843.99827	10632.725
847.8332	10663.025
851.66546	10672.125
855.49504	10728.125
859.32195	10752.725
863.1462	10761.925
866.96777	10780.825
870.78668	10779.525
874.60293	10790.625
878.41652	10834.325
882.22745	10878.825
886.03573	10917.125
889.84136	10878.125
893.64433	10825.025
897.44466	10725.725
901.24235	10601.325
905.0374	10475.525
908.8298	10361.425
912.61957	10325.225
916.40671	10348.425
920.19121	10422.825
923.97308	10485.425
927.75233	10570.625
931.52895	10569.625
935.30295	10502.525
939.07433	10391.625
942.84309	10344.525
946.60924	10334.625
950.37278	10375.525
954.13371	10365.125
957.89203	10357.625
961.64774	10323.925
965.40086	10221.025
969.15137	10136.025
972.89929	10083.525
976.64461	10009.725
980.38733	9980.225
984.12747	10000.025
987.86502	10015.325
991.59999	10088.225
995.33237	10200.525
999.06217	10341.425
1002.78939	10547.225
1006.51404	10756.425
1010.23611	10944.725
1013.95561	11079.125
1017.67255	11182.525
1021.38692	11112.925
1025.09872	10965.025
1028.80796	10827.825
1032.51465	10785.825
1036.21877	10842.025
1039.92035	10834.025
1043.61937	10847.625
1047.31584	10782.725
1051.00976	10770.225
1054.70114	10756.025
1058.38998	10774.325
1062.07627	10829.825
1065.76003	10898.025
1069.44126	10999.925
1073.11995	11137.425
1076.79611	11241.125
1080.46974	11320.725
1084.14085	11373.025
1087.80943	11461.325
1091.47549	11531.825
1095.13903	11502.425
1098.80005	11379.825
1102.45857	11228.325
1106.11456	11152.025
1109.76805	11191.025
1113.41903	11348.325
1117.06751	11519.125
1120.71348	11833.025
1124.35696	12201.225
1127.99793	12565.625
1131.63641	12813.025
1135.2724	12798.525
1138.90589	12558.825
1142.5369	12330.025
1146.16542	12032.225
1149.79145	11777.525
1153.415	11605.025
1157.03607	11581.225
1160.65467	11728.525
1164.27079	12050.025
1167.88443	12506.925
1171.49561	13228.625
1175.10432	14123.625
1178.71056	15330.325
1182.31434	16407.825
1185.91565	16970.325
1189.51451	16966.325
1193.11091	16540.825
1196.70485	15906.525
1200.29634	15235.525
1203.88538	14606.425
1207.47197	14003.225
1211.05612	13398.925
1214.63782	12932.225
1218.21708	12691.125
1221.79391	12558.425
1225.36829	12502.125
1228.94024	12429.925
1232.50976	12347.525
1236.07685	12291.425
1239.6415	12301.325
1243.20374	12348.125
1246.76355	12419.425
1250.32093	12558.025
1253.8759	12807.025
1257.42845	13103.325
1260.97859	13412.025
1264.52631	13734.925
1268.07163	14065.225
1271.61453	14397.725
1275.15503	14678.125
1278.69312	14924.725
1282.22882	15136.525
1285.76211	15427.425
1289.29301	15849.325
1292.82151	16346.225
1296.34761	16950.225
1299.87133	17745.725
1303.39266	18739.025
1306.9116	19888.425
1310.42815	21023.725
1313.94233	21541.625
1317.45412	21227.525
1320.96354	20500.125
1324.47058	19685.025
1327.97525	18942.725
1331.47754	18441.725
1334.97747	18245.325
1338.47502	18301.525
1341.97022	18637.425
1345.46305	19113.325
1348.95352	19800.825
1352.44163	20791.225
1355.92738	22136.025
1359.41078	23669.525
1362.89183	24845.425
1366.37053	24076.025
1369.84688	21455.925
1373.32088	18871.725
1376.79254	17316.925
1380.26186	16515.025
1383.72883	16117.325
1387.19347	15798.725
1390.65578	15485.725
1394.11575	15220.725
1397.57339	15055.325
1401.0287	14952.625
1404.48168	14910.425
1407.93234	14824.225
1411.38068	14718.625
1414.82669	14558.625
1418.27039	14310.925
1421.71177	14088.225
1425.15083	13853.025
1428.58758	13725.525
1432.02203	13808.725
1435.45416	13993.925
1438.88399	14231.325
1442.31151	14514.825
1445.73673	14860.825
1449.15965	15195.025
1452.58027	15570.925
1455.9986	15915.025
1459.41463	16297.725
1462.82837	16656.125
1466.23982	17024.425
1469.64898	17230.725
1473.05586	17296.725
1476.46045	17207.325
1479.86276	16958.725
1483.26279	16746.025
1486.66054	16590.725
1490.05602	16479.025
1493.44922	16633.325
1496.84016	17005.425
1500.22882	17782.925
1503.61521	18969.825
1506.99934	20256.525
1510.38121	21213.425
1513.76081	21358.725
1517.13816	20359.725
1520.51324	18821.725
1523.88607	17416.325
1527.25665	16532.025
1530.62498	16012.325
1533.99105	15711.425
1537.35488	15516.425
1540.71647	15363.425
1544.07581	15218.025
1547.4329	15174.925
1550.78776	15142.225
1554.14038	15112.725
1557.49077	15170.325
1560.83892	15363.425
1564.18484	15543.525
1567.52853	15765.425
1570.86999	15997.825
1574.20922	16117.725
1577.54624	16092.325
1580.88103	15724.125
1584.2136	15183.125
1587.54395	14943.625
1590.87208	15020.425
1594.19801	15515.225
1597.52172	16202.125
1600.84321	16521.925
1604.16251	16143.325
1607.47959	15461.725
1610.79447	14727.525
1614.10715	13974.425
1617.41763	13269.625
1620.7259	12817.725
1624.03199	12509.025
1627.33587	12444.125
1630.63757	12582.125
1633.93707	12995.225
1637.23439	13683.025
1640.52951	14716.025
1643.82246	16060.025
1647.11321	17319.825
1650.40179	17902.925
1653.68819	17310.525
1656.97241	15795.125
1660.25446	14166.025
1663.53433	13004.325
1666.81203	12250.725
1670.08756	11796.325
1673.36092	11507.025
1676.63211	11311.525
1679.90115	11103.325
1683.16801	10894.225
1686.43272	10793.525
1689.69527	10636.925
1692.95567	10551.125
1696.2139	10429.525
1699.46999	10339.425
1702.72392	10192.325
1705.97571	10091.725
1709.22535	9984.125
1712.47284	9920.125
1715.71819	9799.725
1718.96139	9724.825
1722.20246	9613.225
1725.44139	9532.925
1728.67818	9414.425
1731.91284	9317.525
1735.14537	9219.925
1738.37576	9153.925
1741.60403	9102.925
1744.83017	9033.625
1748.05418	9025.125
1751.27607	8959.325
1754.49584	8953.525
1757.71349	8957.125
1760.92903	8949.425
1764.14244	8931.525
1767.35375	8924.225
1770.56294	8877.825
1773.77002	8840.825
1776.97499	8800.025
1780.17785	8744.725
1783.37861	8738.925
1786.57727	8707.925
1789.77382	8676.325
1792.96828	8643.125
1796.16064	8623.325
1799.3509	8615.225
1802.53907	8583.825
1805.72514	8566.425
1808.90913	8554.425
1812.09102	8486.725
1815.27083	8508.725
1818.44856	8482.925
1821.6242	8466.825
1824.79776	8445.725
1827.96924	8442.725
1831.13864	8432.625
1834.30597	8420.125
1837.47122	8421.925
1840.6344	8404.725
1843.7955	8385.425
1846.95454	8411.325
1850.11151	8397.325
1853.26642	8372.225
1856.41926	8372.025
1859.57004	8369.525
1862.71876	8347.825
1865.86542	8346.225
1869.01003	8352.325
1872.15258	8348.725
1875.29308	8361.025
1878.43152	8337.225
1881.56792	8335.325
1884.70227	8304.325
1887.83457	8318.925
1890.96482	8300.125
1894.09304	8303.925
1897.21921	8284.125
1900.34335	8288.825
1903.46544	8313.425
1906.58551	8303.025
1909.70353	8280.525
1912.81953	8263.725
1915.93349	8274.025
1919.04543	8228.425
1922.15534	8229.925
1925.26322	8221.225
1928.36908	8221.425
1931.47292	8188.025
1934.57473	8180.225
1937.67453	8142.725
1940.77232	8132.425
1943.86808	8133.725
1946.96184	8134.825
1950.05358	8103.725
1953.14331	8063.125
1956.23103	8057.625
1959.31675	8033.025
1962.40046	8019.925
1965.48217	7995.525
1968.56188	7979.825
1971.63959	7953.225
1974.7153	7939.525
1977.78901	7916.325
1980.86073	7917.625
1983.93046	7889.825
1986.99819	7846.825
1990.06394	7838.225
1993.1277	7829.025
1996.18947	7787.625
1999.24925	7799.925
2002.30706	7758.925
2005.36288	7744.625
2008.41672	7730.525
2011.46859	7702.525
2014.51848	7688.125
2017.56639	7668.025
2020.61233	7665.625
2023.6563	7655.625
2026.6983	7648.125
2029.73833	7635.125
2032.7764	7611.025
2035.8125	7597.625
2038.84664	7563.125
2041.87881	7584.625
2044.90903	7600.725
2047.93729	7556.725
2050.96359	7595.725
2053.98794	7575.725
2057.01034	7568.125
2060.03078	7569.625
2063.04927	7579.325
2066.06582	7584.425
2069.08042	7606.325
2072.09307	7604.225
2075.10378	7612.825
2078.11255	7605.925
2081.11938	7626.625
2084.12426	7613.625
2087.12722	7625.525
2090.12824	7615.725
2093.12732	7642.525
2096.12447	7668.025
2099.11969	7679.825
2102.11299	7681.125
2105.10435	7684.925
2108.09379	7694.625
2111.08131	7697.225
2114.0669	7675.925
2117.05057	7689.825
2120.03233	7706.525
2123.01216	7697.925
2125.99008	7689.925
2128.96609	7702.825
2131.94018	7717.325
2134.91236	7728.725
2137.88263	7704.625
2140.851	7700.825
2143.81746	7681.125
2146.78201	7687.625
2149.74466	7685.725
2152.7054	7692.325
2155.66425	7664.025
2158.6212	7666.825
2161.57625	7667.825
2164.52941	7666.925
2167.48067	7656.425
2170.43004	7664.725
2173.37752	7677.225
2176.32311	7668.325
2179.26681	7675.325
2182.20863	7661.825
2185.14856	7673.325
2188.08661	7666.525
2191.02278	7685.125
2193.95707	7666.625
2196.88948	7667.925
2199.82001	7683.425
2202.74867	7661.025
2205.67545	7668.625
2208.60037	7682.625
2211.52341	7646.525
2214.44458	7646.925
2217.36388	7633.025
2220.28132	7609.825
2223.1969	7609.825
2226.11061	7606.925
2229.02246	7571.725
2231.93245	7574.125
2234.84058	7559.125
2237.74686	7562.925
2240.65128	7582.525
2243.55385	7541.325
2246.45456	7535.625
2249.35343	7540.025
2252.25044	7532.025
2255.14561	7536.025
2258.03893	7551.725
2260.93041	7539.425
2263.82004	7535.225
2266.70783	7518.425
2269.59378	7499.425
2272.4779	7482.925
2275.36017	7444.825
2278.24061	7449.525
2281.11922	7448.625
2283.996	7412.925
2286.87094	7412.625
2289.74405	7401.425
2292.61534	7405.825
2295.4848	7368.625
2298.35243	7384.825
2301.21824	7379.325
2304.08223	7394.025
2306.94439	7410.625
2309.80474	7397.825
2312.66327	7394.525
2315.51999	7410.825
2318.37489	7396.025
2321.22797	7382.025
2324.07925	7382.425
2326.92871	7382.325
2329.77637	7386.125
2332.62222	7373.925
2335.46626	7378.625
2338.3085	7363.225
2341.14893	7358.525
2343.98756	7385.425
2346.8244	7373.025
2349.65943	7378.125
2352.49267	7390.825
2355.32411	7387.825
2358.15376	7376.525
2360.98161	7398.025
2363.80768	7393.225
2366.63195	7402.825
2369.45444	7380.225
2372.27514	7399.725
2375.09405	7392.725
2377.91118	7367.725
2380.72652	7341.725
2383.54009	7345.225
2386.35187	7351.325
2389.16188	7332.025
2391.97011	7301.925
2394.77657	7292.825
2397.58125	7302.725
2400.38416	7282.425
2403.18529	7272.125
2405.98466	7264.325
2408.78226	7236.725
2411.57809	7261.425
2414.37216	7242.125
2417.16446	7242.525
2419.955	7247.525
2422.74378	7231.425
2425.5308	7229.025
2428.31606	7220.525
2431.09956	7235.325
2433.88131	7221.825
2436.6613	7242.625
2439.43954	7231.125
2442.21603	7229.525
2444.99077	7243.525
2447.76377	7230.725
2450.53501	7224.825
2453.30451	7252.325
2456.07226	7234.925
2458.83827	7209.925
2461.60254	7201.625
2464.36507	7231.225
2467.12586	7204.325
2469.88492	7222.925
2472.64224	7232.125
2475.39782	7206.325
2478.15167	7236.425
2480.90379	7234.125
2483.65417	7249.125
2486.40283	7247.825
2489.14976	7249.225
2491.89497	7252.425
2494.63845	7270.125
2497.3802	7277.825
2500.12024	7258.425
2502.85855	7249.725
2505.59514	7251.225
2508.33002	7232.325
2511.06318	7239.425
2513.79462	7227.325
2516.52435	7195.525
2519.25237	7215.525
2521.97867	7199.725
2524.70327	7189.525
2527.42616	7192.025
2530.14734	7189.225
2532.86681	7170.325
2535.58458	7185.725
2538.30065	7188.025
2541.01501	7208.625
2543.72768	7185.925
2546.43864	7172.725
2549.14791	7174.225
2551.85548	7166.325
2554.56136	7166.625
2557.26554	7162.125
2559.96803	7148.825
2562.66883	7162.225
2565.36794	7141.125
2568.06536	7143.625
2570.7611	7113.925
2573.45514	7147.525
2576.14751	7134.025
2578.83819	7109.425
2581.52719	7114.925
2584.21451	7102.525
2586.90015	7105.125
2589.58411	7095.725
2592.2664	7089.025
2594.94701	7085.525
2597.62594	7095.525
2600.30321	7074.925
2602.9788	7074.225
2605.65273	7057.825
2608.32498	7069.625
2610.99557	7049.925
2613.66449	7040.825
2616.33175	7068.425
2618.99734	7076.425
2621.66128	7055.525
2624.32355	7053.625
2626.98416	7065.025
2629.64311	7051.425
2632.30041	7029.725
2634.95605	7041.425
2637.61004	7049.525
2640.26238	7034.225
2642.91306	6997.225
2645.56209	7037.225
2648.20948	7044.025
2650.85521	7040.125
2653.4993	7033.825
2656.14175	7030.025
2658.78255	7021.425
2661.42171	7044.725
2664.05923	7045.525
2666.6951	7062.125
2669.32934	7062.925
2671.96194	7057.425
2674.59291	7082.425
2677.22224	7068.225
2679.84993	7088.125
2682.476	7075.625
2685.10043	7073.425
2687.72324	7054.425
2690.34441	7070.125
2692.96396	7068.325
2695.58188	7102.225
2698.19818	7104.425
2700.81285	7109.225
2703.4259	7088.325
2706.03733	7109.125
2708.64714	7117.425
2711.25533	7137.925
2713.86191	7136.725
2716.46687	7124.325
2719.07021	7115.425
2721.67194	7147.225
2724.27206	7141.325
2726.87057	7148.625
2729.46747	7138.325
2732.06276	7178.525
2734.65644	7178.225
2737.24852	7154.125
2739.83899	7146.825
2742.42786	7151.925
2745.01513	7140.225
2747.60079	7146.025
2750.18486	7138.925
2752.76733	7130.625
2755.3482	7141.225
2757.92747	7124.525
2760.50515	7142.425
2763.08123	7124.625
2765.65573	7134.525
2768.22863	7103.225
2770.79994	7098.925
2773.36967	7115.425
2775.9378	7120.325
2778.50435	7103.025
2781.06932	7093.525
2783.6327	7084.825
2786.1945	7095.125
2788.75471	7083.625
2791.31335	7067.325
2793.87041	7075.325
2796.42589	7041.325
2798.97979	7042.125
2801.53212	7035.725
2804.08288	7029.825
2806.63206	7020.825
2809.17967	7021.325
2811.72571	6990.525
2814.27018	6989.625
2816.81308	6962.225
2819.35442	6945.725
2821.89419	6943.425
2824.43239	6979.725
2826.96904	6965.325
2829.50412	6945.925
2832.03763	6937.425
2834.56959	6946.525
2837.1	6930.325
2839.62884	6929.225
2842.15613	6913.125
2844.68186	6935.725
2847.20604	6931.525
2849.72867	6932.425
2852.24974	6961.225
2854.76927	6933.325
2857.28724	6949.125
2859.80367	6938.425
2862.31855	6943.425
2864.83189	6939.025
2867.34368	6898.825
2869.85393	6941.525
2872.36264	6927.325
2874.8698	6928.425
2877.37543	6934.425
2879.87952	6957.825
2882.38207	6936.225
2884.88308	6933.125
2887.38256	6951.925
2889.88051	6935.225
2892.37692	6964.025
2894.8718	6967.925
2897.36515	6985.325
2899.85698	6982.025
2902.34727	7011.125
2904.83604	7014.625
2907.32328	7047.525
2909.809	7043.825
2912.29319	7030.425
2914.77587	7051.725
2917.25702	7062.825
2919.73665	7049.125
2922.21476	7080.225
2924.69136	7060.325
2927.16644	7082.025
2929.64	7063.325
2932.11205	7054.725
2934.58258	7041.925
2937.05161	7052.525
2939.51912	7044.525
2941.98513	7034.225
2944.44962	7003.025
2946.91261	7001.525
2949.37409	7012.725
2951.83407	6999.325
2954.29254	7017.625
2956.74951	6998.425
2959.20498	7010.825
2961.65895	6990.025
2964.11142	7008.125
2966.56239	6977.125
2969.01186	6993.125
2971.45984	6980.425
2973.90632	6956.525
2976.35131	6937.825
2978.7948	6936.125
2981.23681	6922.725
2983.67732	6912.625
2986.11635	6903.925
2988.55388	6905.625
2990.98993	6885.325
2993.4245	6896.725
2995.85758	6870.525
2998.28917	6866.225
3000.71928	6854.925
3003.14791	6838.525
3005.57506	6829.225
3008.00073	6796.425
3010.42493	6825.025
3012.84764	6785.525
3015.26888	6811.725
3017.68865	6781.825
3020.10694	6778.125
3022.52376	6771.925
3024.9391	6777.225
3027.35298	6783.425
3029.76539	6790.225
3032.17632	6773.725
3034.5858	6758.925
3036.9938	6738.825
3039.40034	6747.525
3041.80542	6750.625
3044.20903	6744.525
3046.61118	6747.725
3049.01187	6742.725
3051.4111	6729.425
3053.80888	6732.025
3056.20519	6725.825
3058.60005	6695.625
3060.99345	6687.425
3063.3854	6665.725
3065.7759	6677.225
3068.16494	6657.325
3070.55254	6630.625
3072.93868	6627.125
3075.32338	6644.225
3077.70662	6622.925
3080.08842	6599.825
3082.46878	6589.125
3084.84769	6575.225
3087.22515	6605.125
3089.60118	6594.825
3091.97576	6588.625
3094.3489	6592.425
3096.72061	6615.225
3099.09087	6614.625
3101.4597	6613.425
3103.82709	6625.025
3106.19305	6632.325
3108.55757	6634.425
3110.92066	6639.225
3113.28232	6639.525
3115.64255	6617.425
3118.00134	6600.225
3120.35871	6596.025
3122.71466	6590.025
3125.06917	6583.125
3127.42226	6567.925
3129.77393	6570.825
3132.12417	6554.025
3134.47299	6564.825
3136.82039	6563.125
3139.16636	6575.025
3141.51092	6572.125
3143.85406	6563.325
3146.19579	6592.225
3148.53609	6567.525
3150.87499	6597.225
3153.21246	6601.925
3155.54853	6631.525
3157.88318	6631.625
3160.21642	6638.525
3162.54826	6644.925
3164.87868	6648.625
3167.2077	6644.225
3169.5353	6652.425
3171.86151	6670.825
3174.18631	6646.825
3176.5097	6661.125
3178.83169	6641.325
3181.15228	6657.325
3183.47147	6648.925
3185.78926	6638.425
3188.10565	6628.925
3190.42065	6649.025
3192.73424	6657.125
