Data from AgNPs_APTES_FTO_UA_100uM_CRN_0uM_R6G_10uM_Scan_RamanShift__24__16-10-42-954.txt Node

Date: Mon Jul 11 16:10:42 BST 2022
User: TCL
Spectrometer: QEP01345
Trigger mode: 4
Integration Time (sec): 7.000000E0
Scans to average: 10
Electric dark correction enabled: true
Nonlinearity correction enabled: false
Boxcar width: 0
XAxis mode: Raman Shifts
Number of Pixels in Spectrum: 1044
>>>>>Begin Spectral Data<<<<<
46.04893	0.025
50.45542	0.925
54.85868	-0.775
59.25871	-2.075
63.6555	36.425
68.04907	37.225
72.43941	40.425
76.82654	37.425
81.21044	45.325
85.59113	48.325
89.96862	49.425
94.34289	47.925
98.71396	53.625
103.08183	53.525
107.4465	53.725
111.80798	52.425
116.16626	52.525
120.52136	55.825
124.87327	59.525
129.222	63.925
133.56755	62.825
137.90993	72.025
142.24913	79.125
146.58517	83.825
150.91804	97.025
155.24774	115.225
159.57429	142.525
163.89768	179.925
168.21792	235.925
172.53501	315.225
176.84895	448.025
181.15975	618.525
185.46741	869.325
189.77193	1189.425
194.07331	1603.725
198.37157	2057.225
202.6667	2531.725
206.9587	3019.025
211.24758	3495.525
215.53334	3981.825
219.81599	4499.725
224.09553	5084.425
228.37195	5691.125
232.64527	6367.225
236.91549	7068.225
241.18261	7722.825
245.44663	8301.825
249.70755	8776.225
253.96539	9140.225
258.22014	9445.725
262.4718	9685.425
266.72039	9817.625
270.96589	9870.625
275.20832	9761.725
279.44768	9634.825
283.68397	9431.425
287.91719	9301.125
292.14735	9256.725
296.37445	9327.625
300.59849	9528.425
304.81948	9737.725
309.03742	9808.425
313.25231	9671.925
317.46415	9365.825
321.67296	8951.025
325.87872	8635.425
330.08145	8509.525
334.28114	8569.225
338.47781	8655.025
342.67145	8834.325
346.86207	9080.025
351.04966	9453.925
355.23424	9847.625
359.4158	10132.525
363.59435	10338.925
367.76989	10496.825
371.94243	10559.925
376.11196	10634.425
380.27849	10691.225
384.44203	10719.425
388.60257	10704.925
392.76012	10754.525
396.91468	10871.325
401.06626	11062.025
405.21485	11143.825
409.36047	11052.025
413.50311	10754.825
417.64277	10658.625
421.77947	10461.625
425.9132	10129.325
430.04396	10069.325
434.17176	10112.025
438.2966	10236.225
442.41849	10433.225
446.53742	10691.125
450.6534	10939.125
454.76644	11090.425
458.87653	11157.425
462.98368	11133.625
467.08789	10984.425
471.18916	10873.625
475.2875	10722.625
479.38291	10640.725
483.4754	10568.625
487.56496	10553.725
491.6516	10575.225
495.73531	10590.125
499.81612	10575.725
503.89401	10616.025
507.96899	10657.525
512.04106	10729.425
516.11023	10839.625
520.1765	10906.525
524.23987	10952.125
528.30034	10912.525
532.35792	10879.425
536.41261	10800.725
540.46441	10650.425
544.51333	10501.125
548.55936	10485.825
552.60252	10537.025
556.64279	10640.025
560.6802	10677.525
564.71473	10742.725
568.7464	10911.125
572.7752	10915.825
576.80114	10790.825
580.82422	10673.025
584.84444	10692.325
588.86181	10807.925
592.87633	10973.725
596.888	11172.325
600.89682	11469.125
604.9028	12464.425
608.90594	14912.325
612.90624	17366.525
616.90371	16001.325
620.89834	12755.825
624.89015	11626.625
628.87913	11655.125
632.86528	12002.325
636.84862	12263.125
640.82913	12038.925
644.80683	11564.025
648.78172	11097.725
652.75379	11014.525
656.72306	11151.325
660.68952	11350.325
664.65319	11295.625
668.61405	11159.725
672.57211	11282.025
676.52738	11476.725
680.47986	11686.725
684.42955	11936.025
688.37646	12134.325
692.32058	12125.325
696.26192	11891.225
700.20048	11697.325
704.13626	11479.525
708.06928	11239.125
711.99952	10969.425
715.927	10814.725
719.85171	10764.925
723.77365	10777.125
727.69284	10781.525
731.60928	10779.225
735.52295	10740.625
739.43388	10677.625
743.34206	10673.125
747.24749	10635.725
751.15017	10587.625
755.05012	10662.925
758.94733	10988.625
762.8418	11767.725
766.73354	13091.825
770.62254	14492.125
774.50882	15178.225
778.39237	14588.525
782.27321	13134.125
786.15132	11832.425
790.02671	11082.925
793.89938	10742.225
797.76935	10604.525
801.6366	10574.225
805.50115	10626.625
809.36299	10683.425
813.22213	10658.425
817.07857	10603.425
820.93231	10498.825
824.78336	10380.625
828.63172	10338.625
832.47738	10303.825
836.32036	10286.025
840.16066	10288.625
843.99827	10299.725
847.8332	10282.525
851.66546	10295.925
855.49504	10312.425
859.32195	10329.025
863.1462	10341.425
866.96777	10342.225
870.78668	10349.325
874.60293	10435.425
878.41652	10522.525
882.22745	10613.225
886.03573	10692.325
889.84136	10678.825
893.64433	10577.325
897.44466	10413.125
901.24235	10247.325
905.0374	10111.725
908.8298	9966.825
912.61957	9918.125
916.40671	9905.325
920.19121	9995.325
923.97308	10083.125
927.75233	10169.125
931.52895	10213.225
935.30295	10168.825
939.07433	10022.825
942.84309	9925.825
946.60924	9888.825
950.37278	9911.425
954.13371	9868.525
957.89203	9859.625
961.64774	9797.625
965.40086	9730.325
969.15137	9645.625
972.89929	9577.225
976.64461	9539.525
980.38733	9537.225
984.12747	9567.825
987.86502	9590.825
991.59999	9684.425
995.33237	9830.425
999.06217	10078.225
1002.78939	10331.625
1006.51404	10577.225
1010.23611	10752.025
1013.95561	10909.325
1017.67255	11004.725
1021.38692	10942.825
1025.09872	10796.125
1028.80796	10734.425
1032.51465	10814.425
1036.21877	10890.325
1039.92035	10870.125
1043.61937	10788.925
1047.31584	10609.425
1051.00976	10444.525
1054.70114	10377.525
1058.38998	10371.425
1062.07627	10410.325
1065.76003	10478.725
1069.44126	10515.525
1073.11995	10588.925
1076.79611	10642.525
1080.46974	10733.225
1084.14085	10818.625
1087.80943	10910.125
1091.47549	10990.225
1095.13903	10832.225
1098.80005	10673.125
1102.45857	10518.825
1106.11456	10484.825
1109.76805	10588.225
1113.41903	10801.625
1117.06751	11109.625
1120.71348	11520.825
1124.35696	11989.225
1127.99793	12457.425
1131.63641	12684.925
1135.2724	12529.025
1138.90589	12275.225
1142.5369	11919.625
1146.16542	11561.525
1149.79145	11238.425
1153.415	10989.325
1157.03607	10899.425
1160.65467	10987.725
1164.27079	11254.525
1167.88443	11700.925
1171.49561	12328.725
1175.10432	13289.725
1178.71056	14634.825
1182.31434	15773.025
1185.91565	16263.625
1189.51451	16158.125
1193.11091	15528.325
1196.70485	14866.625
1200.29634	14261.825
1203.88538	13771.225
1207.47197	13176.625
1211.05612	12614.325
1214.63782	12188.225
1218.21708	11922.825
1221.79391	11824.925
1225.36829	11777.225
1228.94024	11735.025
1232.50976	11654.625
1236.07685	11595.225
1239.6415	11617.525
1243.20374	11684.625
1246.76355	11778.525
1250.32093	11890.725
1253.8759	12097.625
1257.42845	12394.525
1260.97859	12687.325
1264.52631	12950.425
1268.07163	13229.125
1271.61453	13493.425
1275.15503	13748.225
1278.69312	13957.425
1282.22882	14165.125
1285.76211	14416.625
1289.29301	14778.625
1292.82151	15235.025
1296.34761	15766.525
1299.87133	16525.025
1303.39266	17604.125
1306.9116	19027.025
1310.42815	20436.225
1313.94233	21028.625
1317.45412	20433.125
1320.96354	19375.025
1324.47058	18308.525
1327.97525	17397.425
1331.47754	16914.525
1334.97747	16749.125
1338.47502	16955.925
1341.97022	17394.425
1345.46305	18034.925
1348.95352	18916.925
1352.44163	20007.425
1355.92738	21575.225
1359.41078	23675.325
1362.89183	25248.725
1366.37053	24232.525
1369.84688	21108.325
1373.32088	18191.425
1376.79254	16415.925
1380.26186	15550.225
1383.72883	15054.725
1387.19347	14724.325
1390.65578	14420.125
1394.11575	14161.325
1397.57339	14039.825
1401.0287	14047.725
1404.48168	14026.925
1407.93234	14037.625
1411.38068	14063.225
1414.82669	13970.725
1418.27039	13750.825
1421.71177	13488.925
1425.15083	13279.625
1428.58758	13159.525
1432.02203	13202.525
1435.45416	13338.025
1438.88399	13501.025
1442.31151	13661.425
1445.73673	13849.725
1449.15965	14111.425
1452.58027	14314.625
1455.9986	14524.725
1459.41463	14738.125
1462.82837	14977.425
1466.23982	15276.825
1469.64898	15500.025
1473.05586	15608.925
1476.46045	15613.525
1479.86276	15516.825
1483.26279	15465.725
1486.66054	15495.225
1490.05602	15618.225
1493.44922	15939.325
1496.84016	16523.625
1500.22882	17493.525
1503.61521	18981.225
1506.99934	20615.325
1510.38121	21849.725
1513.76081	21959.425
1517.13816	20678.125
1520.51324	18698.625
1523.88607	16940.625
1527.25665	15800.925
1530.62498	15135.925
1533.99105	14741.825
1537.35488	14552.725
1540.71647	14394.125
1544.07581	14310.525
1547.4329	14326.425
1550.78776	14355.425
1554.14038	14399.825
1557.49077	14507.325
1560.83892	14678.025
1564.18484	14899.225
1567.52853	15114.725
1570.86999	15316.025
1574.20922	15429.725
1577.54624	15375.225
1580.88103	14902.525
1584.2136	14353.125
1587.54395	14087.825
1590.87208	14279.425
1594.19801	14868.925
1597.52172	15673.725
1600.84321	16059.925
1604.16251	15745.725
1607.47959	15059.225
1610.79447	14251.725
1614.10715	13442.825
1617.41763	12795.325
1620.7259	12339.225
1624.03199	12102.725
1627.33587	12104.125
1630.63757	12273.125
1633.93707	12732.925
1637.23439	13409.525
1640.52951	14380.725
1643.82246	15604.125
1647.11321	16897.325
1650.40179	17561.325
1653.68819	16944.025
1656.97241	15334.125
1660.25446	13649.425
1663.53433	12436.925
1666.81203	11715.025
1670.08756	11258.825
1673.36092	11007.025
1676.63211	10796.925
1679.90115	10637.125
1683.16801	10435.025
1686.43272	10340.825
1689.69527	10199.925
1692.95567	10133.525
1696.2139	10037.725
1699.46999	9938.625
1702.72392	9825.225
1705.97571	9702.725
1709.22535	9579.625
1712.47284	9511.125
1715.71819	9462.725
1718.96139	9358.425
1722.20246	9254.725
1725.44139	9185.325
1728.67818	9093.925
1731.91284	8978.025
1735.14537	8896.425
1738.37576	8865.725
1741.60403	8800.425
1744.83017	8767.625
1748.05418	8770.325
1751.27607	8720.925
1754.49584	8721.325
1757.71349	8712.225
1760.92903	8709.525
1764.14244	8678.725
1767.35375	8659.625
1770.56294	8625.425
1773.77002	8564.125
1776.97499	8536.325
1780.17785	8526.125
1783.37861	8492.825
1786.57727	8448.325
1789.77382	8438.725
1792.96828	8416.925
1796.16064	8389.625
1799.3509	8405.525
1802.53907	8372.025
1805.72514	8371.025
1808.90913	8338.625
1812.09102	8310.225
1815.27083	8289.325
1818.44856	8268.825
1821.6242	8268.225
1824.79776	8248.725
1827.96924	8249.625
1831.13864	8232.525
1834.30597	8231.225
1837.47122	8218.525
1840.6344	8193.925
1843.7955	8214.925
1846.95454	8193.525
1850.11151	8197.325
1853.26642	8172.825
1856.41926	8190.725
1859.57004	8169.825
1862.71876	8165.625
1865.86542	8174.825
1869.01003	8180.125
1872.15258	8193.825
1875.29308	8179.625
1878.43152	8180.725
1881.56792	8165.325
1884.70227	8156.925
1887.83457	8129.725
1890.96482	8137.425
1894.09304	8108.525
1897.21921	8111.325
1900.34335	8125.525
1903.46544	8119.925
1906.58551	8118.925
1909.70353	8112.925
1912.81953	8097.025
1915.93349	8119.125
1919.04543	8080.025
1922.15534	8057.425
1925.26322	8041.725
1928.36908	8050.525
1931.47292	8039.125
1934.57473	8008.825
1937.67453	7984.025
1940.77232	7991.125
1943.86808	7976.025
1946.96184	7954.925
1950.05358	7927.425
1953.14331	7906.825
1956.23103	7908.125
1959.31675	7890.925
1962.40046	7880.625
1965.48217	7853.325
1968.56188	7820.825
1971.63959	7798.325
1974.7153	7781.925
1977.78901	7812.625
1980.86073	7757.925
1983.93046	7736.425
1986.99819	7715.525
1990.06394	7667.125
1993.1277	7657.525
1996.18947	7655.725
1999.24925	7631.525
2002.30706	7600.325
2005.36288	7585.125
2008.41672	7565.225
2011.46859	7554.025
2014.51848	7535.425
2017.56639	7511.625
2020.61233	7509.325
2023.6563	7484.625
2026.6983	7482.225
2029.73833	7447.725
2032.7764	7438.125
2035.8125	7457.425
2038.84664	7419.425
2041.87881	7435.625
2044.90903	7410.625
2047.93729	7393.825
2050.96359	7401.225
2053.98794	7365.125
2057.01034	7378.525
2060.03078	7398.325
2063.04927	7376.725
2066.06582	7395.225
2069.08042	7391.125
2072.09307	7382.525
2075.10378	7408.925
2078.11255	7388.125
2081.11938	7379.225
2084.12426	7390.225
2087.12722	7374.525
2090.12824	7371.825
2093.12732	7394.625
2096.12447	7390.525
2099.11969	7402.625
2102.11299	7421.725
2105.10435	7421.025
2108.09379	7437.025
2111.08131	7420.125
2114.0669	7411.425
2117.05057	7429.725
2120.03233	7433.625
2123.01216	7437.625
2125.99008	7434.725
2128.96609	7460.325
2131.94018	7461.425
2134.91236	7463.425
2137.88263	7455.825
2140.851	7450.925
2143.81746	7458.525
2146.78201	7471.025
2149.74466	7484.125
2152.7054	7468.725
2155.66425	7470.025
2158.6212	7469.325
2161.57625	7457.125
2164.52941	7452.325
2167.48067	7450.225
2170.43004	7493.625
2173.37752	7488.625
2176.32311	7461.725
2179.26681	7493.125
2182.20863	7485.625
2185.14856	7496.625
2188.08661	7501.125
2191.02278	7489.125
2193.95707	7494.325
2196.88948	7479.625
2199.82001	7484.625
2202.74867	7475.525
2205.67545	7476.325
2208.60037	7455.525
2211.52341	7470.925
2214.44458	7449.525
2217.36388	7444.625
2220.28132	7430.025
2223.1969	7425.425
2226.11061	7429.625
2229.02246	7401.525
2231.93245	7408.425
2234.84058	7391.325
2237.74686	7367.125
2240.65128	7366.625
2243.55385	7375.725
2246.45456	7364.825
2249.35343	7362.525
2252.25044	7365.525
2255.14561	7352.525
2258.03893	7367.625
2260.93041	7354.125
2263.82004	7351.125
2266.70783	7346.225
2269.59378	7317.825
2272.4779	7282.925
2275.36017	7283.125
2278.24061	7249.825
2281.11922	7261.925
2283.996	7240.125
2286.87094	7235.025
2289.74405	7214.525
2292.61534	7216.325
2295.4848	7207.225
2298.35243	7202.725
2301.21824	7207.125
2304.08223	7225.125
2306.94439	7217.725
2309.80474	7216.225
2312.66327	7224.125
2315.51999	7228.525
2318.37489	7232.025
2321.22797	7215.825
2324.07925	7213.825
2326.92871	7217.525
2329.77637	7226.325
2332.62222	7195.925
2335.46626	7197.925
2338.3085	7213.925
2341.14893	7193.125
2343.98756	7182.825
2346.8244	7211.925
2349.65943	7208.225
2352.49267	7215.425
2355.32411	7223.425
2358.15376	7203.225
2360.98161	7215.425
2363.80768	7226.425
2366.63195	7219.525
2369.45444	7219.325
2372.27514	7210.925
2375.09405	7218.925
2377.91118	7179.925
2380.72652	7169.325
2383.54009	7163.725
2386.35187	7161.125
2389.16188	7135.525
2391.97011	7125.125
2394.77657	7104.125
2397.58125	7115.625
2400.38416	7099.625
2403.18529	7081.825
2405.98466	7065.125
2408.78226	7046.025
2411.57809	7049.725
2414.37216	7030.125
2417.16446	7049.825
2419.955	7051.725
2422.74378	7035.325
2425.5308	7006.325
2428.31606	7032.425
2431.09956	7026.125
2433.88131	7026.425
2436.6613	7044.525
2439.43954	7010.225
2442.21603	7011.725
2444.99077	7027.225
2447.76377	7038.225
2450.53501	7018.825
2453.30451	7033.525
2456.07226	7017.125
2458.83827	7013.725
2461.60254	7023.625
2464.36507	7004.625
2467.12586	7007.925
2469.88492	7020.125
2472.64224	7008.925
2475.39782	7022.025
2478.15167	7019.225
2480.90379	7022.425
2483.65417	7039.425
2486.40283	7036.325
2489.14976	7050.725
2491.89497	7043.425
2494.63845	7053.925
2497.3802	7055.225
2500.12024	7055.925
2502.85855	7062.025
2505.59514	7045.025
2508.33002	7036.425
2511.06318	7032.025
2513.79462	7004.225
2516.52435	6994.725
2519.25237	6985.925
2521.97867	6966.825
2524.70327	6984.925
2527.42616	6967.025
2530.14734	6962.425
2532.86681	6954.325
2535.58458	6982.825
2538.30065	6987.325
2541.01501	6981.425
2543.72768	6959.525
2546.43864	6965.525
2549.14791	6964.725
2551.85548	6957.225
2554.56136	6960.525
2557.26554	6946.725
2559.96803	6935.525
2562.66883	6912.425
2565.36794	6899.225
2568.06536	6905.425
2570.7611	6904.925
2573.45514	6906.925
2576.14751	6921.225
2578.83819	6895.825
2581.52719	6873.925
2584.21451	6878.225
2586.90015	6867.325
2589.58411	6867.325
2592.2664	6864.125
2594.94701	6867.625
2597.62594	6868.425
2600.30321	6849.025
2602.9788	6858.925
2605.65273	6841.925
2608.32498	6840.225
2610.99557	6830.025
2613.66449	6834.325
2616.33175	6827.225
2618.99734	6847.825
2621.66128	6832.625
2624.32355	6830.925
2626.98416	6840.425
2629.64311	6810.825
2632.30041	6851.025
2634.95605	6846.725
2637.61004	6817.225
2640.26238	6796.125
2642.91306	6819.125
2645.56209	6798.925
2648.20948	6812.225
2650.85521	6798.625
2653.4993	6822.825
2656.14175	6783.125
2658.78255	6819.025
2661.42171	6811.625
2664.05923	6829.425
2666.6951	6837.625
2669.32934	6854.025
2671.96194	6837.925
2674.59291	6856.025
2677.22224	6856.525
2679.84993	6870.225
2682.476	6849.425
2685.10043	6842.125
2687.72324	6828.325
2690.34441	6829.525
2692.96396	6826.425
2695.58188	6861.725
2698.19818	6864.725
2700.81285	6875.925
2703.4259	6852.125
2706.03733	6866.025
2708.64714	6863.525
2711.25533	6901.625
2713.86191	6880.325
2716.46687	6888.225
2719.07021	6892.925
2721.67194	6896.025
2724.27206	6894.725
2726.87057	6908.425
2729.46747	6893.825
2732.06276	6905.825
2734.65644	6923.425
2737.24852	6909.325
2739.83899	6887.825
2742.42786	6906.125
2745.01513	6886.125
2747.60079	6905.325
2750.18486	6897.225
2752.76733	6879.125
2755.3482	6865.125
2757.92747	6870.525
2760.50515	6860.725
2763.08123	6872.225
2765.65573	6860.025
2768.22863	6866.025
2770.79994	6848.325
2773.36967	6851.425
2775.9378	6866.725
2778.50435	6842.725
2781.06932	6834.425
2783.6327	6849.225
2786.1945	6845.525
2788.75471	6842.925
2791.31335	6823.125
2793.87041	6818.225
2796.42589	6798.925
2798.97979	6817.825
2801.53212	6798.625
2804.08288	6805.325
2806.63206	6787.025
2809.17967	6761.725
2811.72571	6754.925
2814.27018	6736.125
2816.81308	6730.925
2819.35442	6720.625
2821.89419	6715.725
2824.43239	6730.125
2826.96904	6754.225
2829.50412	6716.725
2832.03763	6716.925
2834.56959	6699.525
2837.1	6700.825
2839.62884	6696.425
2842.15613	6699.025
2844.68186	6714.325
2847.20604	6717.425
2849.72867	6724.725
2852.24974	6720.925
2854.76927	6722.625
2857.28724	6722.825
2859.80367	6714.625
2862.31855	6696.725
2864.83189	6709.125
2867.34368	6690.125
2869.85393	6695.025
2872.36264	6692.625
2874.8698	6688.425
2877.37543	6706.525
2879.87952	6684.625
2882.38207	6678.725
2884.88308	6690.425
2887.38256	6693.825
2889.88051	6701.225
2892.37692	6698.225
2894.8718	6707.025
2897.36515	6709.325
2899.85698	6728.825
2902.34727	6744.825
2904.83604	6753.225
2907.32328	6744.525
2909.809	6768.725
2912.29319	6788.325
2914.77587	6750.925
2917.25702	6778.025
2919.73665	6765.725
2922.21476	6768.325
2924.69136	6767.825
2927.16644	6778.825
2929.64	6764.625
2932.11205	6759.625
2934.58258	6733.925
2937.05161	6767.825
2939.51912	6734.025
2941.98513	6750.925
2944.44962	6726.125
2946.91261	6725.125
2949.37409	6721.425
2951.83407	6714.725
2954.29254	6716.025
2956.74951	6711.125
2959.20498	6722.025
2961.65895	6709.325
2964.11142	6686.125
2966.56239	6681.525
2969.01186	6704.325
2971.45984	6688.425
2973.90632	6655.725
2976.35131	6644.325
2978.7948	6643.625
2981.23681	6650.425
2983.67732	6634.725
2986.11635	6611.125
2988.55388	6625.725
2990.98993	6598.025
2993.4245	6601.325
2995.85758	6583.925
2998.28917	6567.025
3000.71928	6566.825
3003.14791	6555.025
3005.57506	6565.825
3008.00073	6512.825
3010.42493	6536.325
3012.84764	6516.025
3015.26888	6507.825
3017.68865	6490.225
3020.10694	6506.925
3022.52376	6473.625
3024.9391	6459.825
3027.35298	6460.825
3029.76539	6461.125
3032.17632	6466.125
3034.5858	6446.525
3036.9938	6455.125
3039.40034	6457.125
3041.80542	6451.225
3044.20903	6422.825
3046.61118	6434.225
3049.01187	6418.925
3051.4111	6413.725
3053.80888	6422.625
3056.20519	6404.625
3058.60005	6383.825
3060.99345	6378.125
3063.3854	6371.725
3065.7759	6354.925
3068.16494	6317.825
3070.55254	6329.625
3072.93868	6333.325
3075.32338	6303.025
3077.70662	6309.425
3080.08842	6283.725
3082.46878	6264.225
3084.84769	6258.325
3087.22515	6246.025
3089.60118	6262.525
3091.97576	6280.925
3094.3489	6278.625
3096.72061	6291.925
3099.09087	6279.425
3101.4597	6292.725
3103.82709	6339.325
3106.19305	6305.325
3108.55757	6304.625
3110.92066	6295.225
3113.28232	6286.425
3115.64255	6263.525
3118.00134	6247.425
3120.35871	6264.625
3122.71466	6262.025
3125.06917	6257.125
3127.42226	6222.325
3129.77393	6248.325
3132.12417	6233.625
3134.47299	6241.325
3136.82039	6238.925
3139.16636	6240.325
3141.51092	6228.125
3143.85406	6248.225
3146.19579	6236.125
3148.53609	6244.025
3150.87499	6244.725
3153.21246	6238.525
3155.54853	6272.225
3157.88318	6265.225
3160.21642	6272.525
3162.54826	6300.025
3164.87868	6270.025
3167.2077	6304.225
3169.5353	6286.525
3171.86151	6281.225
3174.18631	6297.325
3176.5097	6269.525
3178.83169	6275.925
3181.15228	6266.925
3183.47147	6269.525
3185.78926	6256.025
3188.10565	6265.625
3190.42065	6264.725
3192.73424	6270.225
3195.04645	6269.625
3197.35725	6256.625
