Data from AgNPs_APTES_FTO_UA_100uM_CRN_0uM_R6G_10uM_Scan_RamanShift__52__16-43-22-987.txt Node

Date: Mon Jul 11 16:43:22 BST 2022
User: TCL
Spectrometer: QEP01345
Trigger mode: 4
Integration Time (sec): 7.000000E0
Scans to average: 10
Electric dark correction enabled: true
Nonlinearity correction enabled: false
Boxcar width: 0
XAxis mode: Raman Shifts
Number of Pixels in Spectrum: 1044
>>>>>Begin Spectral Data<<<<<
46.04893	-0.025
50.45542	0.075
54.85868	-1.225
59.25871	-1.025
63.6555	60.975
68.04907	64.275
72.43941	70.275
76.82654	68.575
81.21044	73.775
85.59113	76.675
89.96862	82.075
94.34289	80.875
98.71396	84.175
103.08183	88.375
107.4465	89.475
111.80798	93.275
116.16626	97.175
120.52136	99.775
124.87327	105.275
129.222	109.475
133.56755	116.575
137.90993	130.075
142.24913	144.375
146.58517	156.175
150.91804	182.175
155.24774	219.675
159.57429	275.075
163.89768	354.875
168.21792	465.775
172.53501	642.475
176.84895	904.775
181.15975	1263.375
185.46741	1793.475
189.77193	2467.675
194.07331	3321.175
198.37157	4308.275
202.6667	5344.775
206.9587	6380.675
211.24758	7385.075
215.53334	8427.475
219.81599	9532.975
224.09553	10743.375
228.37195	12072.275
232.64527	13515.275
236.91549	15096.275
241.18261	16589.975
245.44663	17988.175
249.70755	19199.275
253.96539	20228.575
258.22014	21008.675
262.4718	21551.875
266.72039	21799.875
270.96589	21727.875
275.20832	21434.875
279.44768	20937.075
283.68397	20399.775
287.91719	19954.775
292.14735	19637.075
296.37445	19497.575
300.59849	19479.275
304.81948	19578.975
309.03742	19618.575
313.25231	19506.075
317.46415	19153.675
321.67296	18653.775
325.87872	18275.475
330.08145	18131.775
334.28114	18180.475
338.47781	18312.175
342.67145	18559.375
346.86207	18931.575
351.04966	19367.175
355.23424	19820.875
359.4158	20189.275
363.59435	20442.175
367.76989	20645.975
371.94243	20676.775
376.11196	20773.175
380.27849	20826.275
384.44203	20889.475
388.60257	20969.875
392.76012	21133.975
396.91468	21344.975
401.06626	21679.375
405.21485	21892.775
409.36047	21772.775
413.50311	21431.475
417.64277	21077.275
421.77947	20950.275
425.9132	20931.675
430.04396	21012.875
434.17176	21118.075
438.2966	21210.575
442.41849	21456.075
446.53742	21721.975
450.6534	22070.675
454.76644	22281.375
458.87653	22382.075
462.98368	22392.175
467.08789	22341.575
471.18916	22175.275
475.2875	21990.375
479.38291	21816.075
483.4754	21780.375
487.56496	21745.375
491.6516	21799.975
495.73531	21921.075
499.81612	22080.975
503.89401	22288.175
507.96899	22436.775
512.04106	22551.175
516.11023	22548.075
520.1765	22553.275
524.23987	22420.875
528.30034	22291.575
532.35792	22166.075
536.41261	21986.975
540.46441	21824.675
544.51333	21797.975
548.55936	21924.975
552.60252	22122.275
556.64279	22411.875
560.6802	22584.575
564.71473	22693.675
568.7464	22913.075
572.7752	22953.575
576.80114	22864.675
580.82422	22921.575
584.84444	23069.175
588.86181	23213.075
592.87633	23425.975
596.888	23590.275
600.89682	24004.975
604.9028	25320.575
608.90594	28296.875
612.90624	30953.475
616.90371	28907.375
620.89834	24791.975
624.89015	23210.175
628.87913	23041.875
632.86528	23315.075
636.84862	23547.875
640.82913	23414.775
644.80683	23112.375
648.78172	22881.975
652.75379	22913.475
656.72306	23300.175
660.68952	23592.175
664.65319	23479.575
668.61405	23220.875
672.57211	23235.875
676.52738	23340.475
680.47986	23397.275
684.42955	23421.975
688.37646	23538.775
692.32058	23573.775
696.26192	23602.875
700.20048	23498.475
704.13626	23446.275
708.06928	23271.075
711.99952	23087.175
715.927	22981.275
719.85171	23020.275
723.77365	22944.675
727.69284	22859.575
731.60928	22746.975
735.52295	22805.875
739.43388	22898.775
743.34206	23067.675
747.24749	23090.475
751.15017	23177.075
755.05012	23286.475
758.94733	23749.075
762.8418	24803.775
766.73354	26555.075
770.62254	28042.275
774.50882	28482.575
778.39237	27592.375
782.27321	26074.175
786.15132	24668.875
790.02671	23801.175
793.89938	23395.075
797.76935	23172.675
801.6366	23064.975
805.50115	23067.975
809.36299	23038.375
813.22213	23032.475
817.07857	22871.275
820.93231	22771.675
824.78336	22717.375
828.63172	22661.075
832.47738	22633.775
836.32036	22602.575
840.16066	22544.275
843.99827	22557.075
847.8332	22577.675
851.66546	22620.175
855.49504	22680.375
859.32195	22705.775
863.1462	22707.575
866.96777	22716.975
870.78668	22703.975
874.60293	22811.875
878.41652	22880.675
882.22745	22970.775
886.03573	23046.075
889.84136	23067.175
893.64433	23030.775
897.44466	22979.175
901.24235	22950.475
905.0374	22905.675
908.8298	22832.875
912.61957	22770.475
916.40671	22828.575
920.19121	22892.375
923.97308	22935.775
927.75233	22993.975
931.52895	22994.475
935.30295	22867.775
939.07433	22623.675
942.84309	22442.375
946.60924	22338.575
950.37278	22310.875
954.13371	22285.775
957.89203	22296.275
961.64774	22332.475
965.40086	22290.075
969.15137	22300.175
972.89929	22273.575
976.64461	22253.475
980.38733	22261.475
984.12747	22307.775
987.86502	22359.675
991.59999	22395.875
995.33237	22507.275
999.06217	22628.275
1002.78939	22861.975
1006.51404	23090.075
1010.23611	23413.075
1013.95561	23545.275
1017.67255	23550.075
1021.38692	23440.675
1025.09872	23286.475
1028.80796	23074.175
1032.51465	23010.275
1036.21877	22985.775
1039.92035	23078.975
1043.61937	23148.975
1047.31584	23210.275
1051.00976	23278.375
1054.70114	23306.675
1058.38998	23388.075
1062.07627	23482.075
1065.76003	23626.375
1069.44126	23810.475
1073.11995	24133.275
1076.79611	24485.475
1080.46974	24718.575
1084.14085	24899.875
1087.80943	25039.975
1091.47549	25101.075
1095.13903	25025.075
1098.80005	24758.475
1102.45857	24582.175
1106.11456	24448.275
1109.76805	24354.175
1113.41903	24376.975
1117.06751	24553.975
1120.71348	24848.675
1124.35696	25184.175
1127.99793	25657.575
1131.63641	25746.975
1135.2724	25551.875
1138.90589	25373.675
1142.5369	25174.375
1146.16542	24980.675
1149.79145	24818.875
1153.415	24619.675
1157.03607	24526.375
1160.65467	24544.575
1164.27079	24810.175
1167.88443	25348.475
1171.49561	26134.975
1175.10432	27332.575
1178.71056	28918.875
1182.31434	30286.675
1185.91565	30894.875
1189.51451	30823.075
1193.11091	30453.575
1196.70485	29753.175
1200.29634	29078.375
1203.88538	28440.775
1207.47197	27746.375
1211.05612	27170.075
1214.63782	26732.275
1218.21708	26385.375
1221.79391	26179.875
1225.36829	26085.375
1228.94024	26043.075
1232.50976	25970.575
1236.07685	25902.575
1239.6415	25838.675
1243.20374	25889.475
1246.76355	25971.875
1250.32093	26147.275
1253.8759	26363.675
1257.42845	26816.575
1260.97859	27233.375
1264.52631	27713.875
1268.07163	28099.975
1271.61453	28411.475
1275.15503	28626.975
1278.69312	28723.575
1282.22882	28816.575
1285.76211	29045.875
1289.29301	29484.775
1292.82151	29969.675
1296.34761	30525.375
1299.87133	31316.675
1303.39266	32481.775
1306.9116	34018.575
1310.42815	35623.875
1313.94233	36244.275
1317.45412	35670.075
1320.96354	34629.975
1324.47058	33593.275
1327.97525	32689.575
1331.47754	32181.375
1334.97747	32125.675
1338.47502	32380.075
1341.97022	33106.975
1345.46305	34182.975
1348.95352	35303.575
1352.44163	36464.275
1355.92738	37701.475
1359.41078	39404.975
1362.89183	40856.375
1366.37053	39808.875
1369.84688	36387.175
1373.32088	32979.175
1376.79254	30845.775
1380.26186	29692.375
1383.72883	29053.675
1387.19347	28566.375
1390.65578	28000.475
1394.11575	27478.975
1397.57339	27047.275
1401.0287	26839.475
1404.48168	26722.575
1407.93234	26654.775
1411.38068	26661.975
1414.82669	26576.175
1418.27039	26417.775
1421.71177	26228.475
1425.15083	25996.875
1428.58758	25880.075
1432.02203	25899.575
1435.45416	26032.775
1438.88399	26234.575
1442.31151	26318.475
1445.73673	26356.975
1449.15965	26522.275
1452.58027	26561.575
1455.9986	26603.475
1459.41463	26773.275
1462.82837	27049.675
1466.23982	27470.675
1469.64898	27882.075
1473.05586	28212.075
1476.46045	28416.975
1479.86276	28521.875
1483.26279	28688.475
1486.66054	28929.175
1490.05602	29328.075
1493.44922	29988.375
1496.84016	31032.075
1500.22882	32697.875
1503.61521	34774.975
1506.99934	36807.575
1510.38121	38007.475
1513.76081	37639.675
1517.13816	35830.175
1520.51324	33454.775
1523.88607	31459.375
1527.25665	30259.775
1530.62498	29622.275
1533.99105	29326.175
1537.35488	29137.775
1540.71647	28928.575
1544.07581	28785.175
1547.4329	28657.875
1550.78776	28609.975
1554.14038	28549.675
1557.49077	28635.775
1560.83892	28767.575
1564.18484	29121.775
1567.52853	29486.075
1570.86999	29826.275
1574.20922	30029.075
1577.54624	29937.475
1580.88103	29250.975
1584.2136	28422.475
1587.54395	27971.375
1590.87208	28084.275
1594.19801	28595.175
1597.52172	29251.375
1600.84321	29547.675
1604.16251	29217.075
1607.47959	28513.175
1610.79447	27626.575
1614.10715	26652.075
1617.41763	25711.875
1620.7259	25032.175
1624.03199	24610.975
1627.33587	24516.675
1630.63757	24698.875
1633.93707	25124.575
1637.23439	26051.075
1640.52951	27447.975
1643.82246	29290.975
1647.11321	31110.975
1650.40179	31993.375
1653.68819	31121.175
1656.97241	28787.875
1660.25446	26445.675
1663.53433	24674.075
1666.81203	23575.075
1670.08756	22842.075
1673.36092	22412.075
1676.63211	22043.275
1679.90115	21776.375
1683.16801	21574.575
1686.43272	21389.475
1689.69527	21179.675
1692.95567	21062.475
1696.2139	20944.175
1699.46999	20878.875
1702.72392	20805.175
1705.97571	20766.775
1709.22535	20709.375
1712.47284	20663.975
1715.71819	20635.475
1718.96139	20589.675
1722.20246	20526.875
1725.44139	20414.075
1728.67818	20361.775
1731.91284	20245.275
1735.14537	20115.975
1738.37576	20051.375
1741.60403	19957.575
1744.83017	19880.075
1748.05418	19872.175
1751.27607	19811.375
1754.49584	19719.175
1757.71349	19709.175
1760.92903	19695.575
1764.14244	19664.875
1767.35375	19637.975
1770.56294	19582.175
1773.77002	19558.675
1776.97499	19541.475
1780.17785	19474.775
1783.37861	19465.375
1786.57727	19448.875
1789.77382	19394.775
1792.96828	19393.075
1796.16064	19349.175
1799.3509	19318.275
1802.53907	19311.575
1805.72514	19199.075
1808.90913	19154.875
1812.09102	19103.575
1815.27083	19062.775
1818.44856	19043.875
1821.6242	19025.675
1824.79776	19028.975
1827.96924	18977.475
1831.13864	18932.475
1834.30597	18895.375
1837.47122	18874.275
1840.6344	18871.475
1843.7955	18840.475
1846.95454	18860.375
1850.11151	18841.275
1853.26642	18804.475
1856.41926	18798.675
1859.57004	18778.375
1862.71876	18784.475
1865.86542	18743.875
1869.01003	18687.675
1872.15258	18693.275
1875.29308	18701.575
1878.43152	18654.675
1881.56792	18646.175
1884.70227	18570.075
1887.83457	18565.075
1890.96482	18550.775
1894.09304	18476.275
1897.21921	18450.575
1900.34335	18437.575
1903.46544	18404.875
1906.58551	18406.775
1909.70353	18376.775
1912.81953	18342.375
1915.93349	18315.775
1919.04543	18338.575
1922.15534	18276.575
1925.26322	18206.875
1928.36908	18194.275
1931.47292	18138.875
1934.57473	18114.475
1937.67453	18073.975
1940.77232	18025.775
1943.86808	17953.275
1946.96184	17938.275
1950.05358	17910.375
1953.14331	17818.775
1956.23103	17779.475
1959.31675	17708.975
1962.40046	17662.875
1965.48217	17618.375
1968.56188	17598.475
1971.63959	17540.075
1974.7153	17474.675
1977.78901	17426.375
1980.86073	17379.475
1983.93046	17281.575
1986.99819	17247.575
1990.06394	17219.875
1993.1277	17180.575
1996.18947	17092.275
1999.24925	17076.675
2002.30706	17016.475
2005.36288	16961.375
2008.41672	16940.275
2011.46859	16861.375
2014.51848	16825.475
2017.56639	16773.175
2020.61233	16704.575
2023.6563	16667.675
2026.6983	16660.375
2029.73833	16595.175
2032.7764	16513.275
2035.8125	16506.175
2038.84664	16427.875
2041.87881	16424.975
2044.90903	16408.975
2047.93729	16357.275
2050.96359	16346.775
2053.98794	16309.075
2057.01034	16297.675
2060.03078	16217.775
2063.04927	16256.475
2066.06582	16279.775
2069.08042	16256.675
2072.09307	16202.475
2075.10378	16216.075
2078.11255	16217.375
2081.11938	16254.075
2084.12426	16208.275
2087.12722	16179.875
2090.12824	16212.175
2093.12732	16183.575
2096.12447	16199.375
2099.11969	16196.875
2102.11299	16190.675
2105.10435	16185.275
2108.09379	16201.875
2111.08131	16204.475
2114.0669	16207.475
2117.05057	16214.975
2120.03233	16246.775
2123.01216	16234.775
2125.99008	16242.675
2128.96609	16274.375
2131.94018	16286.375
2134.91236	16290.175
2137.88263	16274.675
2140.851	16306.075
2143.81746	16289.975
2146.78201	16284.975
2149.74466	16276.075
2152.7054	16304.975
2155.66425	16254.675
2158.6212	16271.975
2161.57625	16242.475
2164.52941	16252.575
2167.48067	16248.875
2170.43004	16230.575
2173.37752	16248.175
2176.32311	16214.375
2179.26681	16210.475
2182.20863	16216.775
2185.14856	16228.775
2188.08661	16215.875
2191.02278	16217.275
2193.95707	16184.575
2196.88948	16171.175
2199.82001	16184.375
2202.74867	16120.075
2205.67545	16129.475
2208.60037	16112.075
2211.52341	16058.775
2214.44458	16064.575
2217.36388	16003.275
2220.28132	15996.975
2223.1969	15907.475
2226.11061	15913.775
2229.02246	15866.175
2231.93245	15845.275
2234.84058	15805.475
2237.74686	15764.675
2240.65128	15734.475
2243.55385	15780.675
2246.45456	15743.675
2249.35343	15686.875
2252.25044	15678.975
2255.14561	15642.475
2258.03893	15646.275
2260.93041	15615.675
2263.82004	15583.375
2266.70783	15553.175
2269.59378	15520.075
2272.4779	15470.875
2275.36017	15437.775
2278.24061	15433.075
2281.11922	15405.075
2283.996	15369.075
2286.87094	15308.975
2289.74405	15298.575
2292.61534	15274.775
2295.4848	15222.075
2298.35243	15235.075
2301.21824	15241.375
2304.08223	15238.075
2306.94439	15193.075
2309.80474	15146.675
2312.66327	15199.575
2315.51999	15142.975
2318.37489	15119.875
2321.22797	15100.975
2324.07925	15090.275
2326.92871	15029.275
2329.77637	15016.475
2332.62222	14963.175
2335.46626	14954.975
2338.3085	14892.675
2341.14893	14903.575
2343.98756	14901.875
2346.8244	14868.775
2349.65943	14889.175
2352.49267	14880.075
2355.32411	14886.075
2358.15376	14877.875
2360.98161	14891.575
2363.80768	14867.175
2366.63195	14892.275
2369.45444	14839.375
2372.27514	14814.975
2375.09405	14810.875
2377.91118	14801.475
2380.72652	14734.775
2383.54009	14689.675
2386.35187	14667.375
2389.16188	14654.275
2391.97011	14591.175
2394.77657	14575.575
2397.58125	14555.475
2400.38416	14521.875
2403.18529	14510.475
2405.98466	14490.975
2408.78226	14434.975
2411.57809	14429.075
2414.37216	14395.775
2417.16446	14424.775
2419.955	14375.175
2422.74378	14407.175
2425.5308	14362.775
2428.31606	14376.175
2431.09956	14373.175
2433.88131	14308.575
2436.6613	14311.475
2439.43954	14335.975
2442.21603	14316.275
2444.99077	14258.275
2447.76377	14311.175
2450.53501	14277.775
2453.30451	14222.275
2456.07226	14244.275
2458.83827	14213.375
2461.60254	14192.575
2464.36507	14160.675
2467.12586	14165.675
2469.88492	14155.675
2472.64224	14149.275
2475.39782	14154.075
2478.15167	14131.575
2480.90379	14147.175
2483.65417	14130.075
2486.40283	14114.975
2489.14976	14121.975
2491.89497	14092.275
2494.63845	14073.675
2497.3802	14072.275
2500.12024	14070.875
2502.85855	14043.575
2505.59514	14009.175
2508.33002	13985.975
2511.06318	13958.575
2513.79462	13931.275
2516.52435	13911.875
2519.25237	13867.875
2521.97867	13833.875
2524.70327	13819.275
2527.42616	13814.375
2530.14734	13800.375
2532.86681	13809.575
2535.58458	13798.075
2538.30065	13747.875
2541.01501	13765.675
2543.72768	13710.175
2546.43864	13716.975
2549.14791	13681.475
2551.85548	13669.975
2554.56136	13647.575
2557.26554	13637.575
2559.96803	13613.975
2562.66883	13535.875
2565.36794	13536.275
2568.06536	13535.775
2570.7611	13519.775
2573.45514	13471.175
2576.14751	13464.075
2578.83819	13466.275
2581.52719	13423.375
2584.21451	13372.075
2586.90015	13355.875
2589.58411	13324.975
2592.2664	13320.175
2594.94701	13295.175
2597.62594	13268.275
2600.30321	13267.875
2602.9788	13243.875
2605.65273	13217.575
2608.32498	13221.175
2610.99557	13185.575
2613.66449	13177.775
2616.33175	13167.675
2618.99734	13167.675
2621.66128	13124.075
2624.32355	13103.875
2626.98416	13072.075
2629.64311	13041.275
2632.30041	13032.175
2634.95605	12990.075
2637.61004	12972.675
2640.26238	12955.075
2642.91306	12961.975
2645.56209	12928.575
2648.20948	12919.675
2650.85521	12913.775
2653.4993	12885.775
2656.14175	12911.975
2658.78255	12911.375
2661.42171	12911.475
2664.05923	12915.375
2666.6951	12913.275
2669.32934	12927.475
2671.96194	12950.875
2674.59291	12932.175
2677.22224	12936.775
2679.84993	12918.675
2682.476	12916.875
2685.10043	12943.475
2687.72324	12895.275
2690.34441	12883.775
2692.96396	12882.375
2695.58188	12903.475
2698.19818	12869.475
2700.81285	12903.275
2703.4259	12865.175
2706.03733	12858.875
2708.64714	12832.175
2711.25533	12869.175
2713.86191	12880.075
2716.46687	12900.075
2719.07021	12860.875
2721.67194	12905.675
2724.27206	12842.275
2726.87057	12850.575
2729.46747	12868.975
2732.06276	12865.875
2734.65644	12856.175
2737.24852	12877.775
2739.83899	12838.075
2742.42786	12826.875
2745.01513	12809.875
2747.60079	12776.875
2750.18486	12747.475
2752.76733	12733.575
2755.3482	12705.875
2757.92747	12706.075
2760.50515	12687.075
2763.08123	12669.175
2765.65573	12627.775
2768.22863	12653.575
2770.79994	12595.175
2773.36967	12579.375
2775.9378	12583.875
2778.50435	12564.475
2781.06932	12541.375
2783.6327	12496.275
2786.1945	12484.975
2788.75471	12469.375
2791.31335	12437.075
2793.87041	12433.175
2796.42589	12402.575
2798.97979	12361.275
2801.53212	12321.175
2804.08288	12320.275
2806.63206	12286.275
2809.17967	12268.275
2811.72571	12197.275
2814.27018	12206.275
2816.81308	12166.475
2819.35442	12175.875
2821.89419	12116.375
2824.43239	12120.875
2826.96904	12099.275
2829.50412	12092.075
2832.03763	12081.175
2834.56959	12072.075
2837.1	12059.875
2839.62884	12027.075
2842.15613	12002.675
2844.68186	12009.775
2847.20604	12009.875
2849.72867	11998.075
2852.24974	11962.475
2854.76927	11955.875
2857.28724	11957.575
2859.80367	11925.375
2862.31855	11916.675
2864.83189	11900.875
2867.34368	11907.675
2869.85393	11881.875
2872.36264	11872.775
2874.8698	11877.775
2877.37543	11842.975
2879.87952	11840.975
2882.38207	11798.575
2884.88308	11816.775
2887.38256	11807.975
2889.88051	11812.275
2892.37692	11807.675
2894.8718	11801.675
2897.36515	11808.475
2899.85698	11824.575
2902.34727	11818.975
2904.83604	11815.075
2907.32328	11854.175
2909.809	11821.075
2912.29319	11823.375
2914.77587	11828.975
2917.25702	11837.675
2919.73665	11805.175
2922.21476	11785.975
2924.69136	11763.175
2927.16644	11785.375
2929.64	11748.775
2932.11205	11748.375
2934.58258	11702.075
2937.05161	11716.075
2939.51912	11701.275
2941.98513	11665.975
2944.44962	11672.175
2946.91261	11649.875
2949.37409	11660.975
2951.83407	11666.075
2954.29254	11660.975
2956.74951	11623.675
2959.20498	11644.875
2961.65895	11634.175
2964.11142	11631.075
2966.56239	11624.875
2969.01186	11599.175
2971.45984	11587.675
2973.90632	11569.775
2976.35131	11533.275
2978.7948	11525.875
2981.23681	11519.475
2983.67732	11477.775
2986.11635	11455.775
2988.55388	11444.075
2990.98993	11421.275
2993.4245	11427.875
2995.85758	11399.975
2998.28917	11362.975
3000.71928	11346.575
3003.14791	11309.575
3005.57506	11275.475
3008.00073	11250.275
3010.42493	11251.075
3012.84764	11262.775
3015.26888	11259.275
3017.68865	11218.675
3020.10694	11201.775
3022.52376	11180.275
3024.9391	11156.075
3027.35298	11148.375
3029.76539	11133.675
3032.17632	11073.575
3034.5858	11074.275
3036.9938	11082.175
3039.40034	11051.875
3041.80542	11071.375
3044.20903	11035.775
3046.61118	11026.075
3049.01187	10972.175
3051.4111	10958.075
3053.80888	10923.375
3056.20519	10929.675
3058.60005	10899.875
3060.99345	10901.675
3063.3854	10878.375
3065.7759	10852.375
3068.16494	10835.075
3070.55254	10797.475
3072.93868	10803.775
3075.32338	10768.475
3077.70662	10762.175
3080.08842	10712.575
3082.46878	10706.275
3084.84769	10672.575
3087.22515	10680.675
3089.60118	10705.775
3091.97576	10683.675
3094.3489	10665.975
3096.72061	10680.675
3099.09087	10696.475
3101.4597	10683.175
3103.82709	10681.175
3106.19305	10659.275
3108.55757	10651.175
3110.92066	10644.975
3113.28232	10644.375
3115.64255	10569.975
3118.00134	10542.775
3120.35871	10560.175
3122.71466	10520.375
3125.06917	10503.575
3127.42226	10500.075
3129.77393	10483.575
