Data from AgNPs_APTES_FTO_UA_100uM_CRN_0uM_R6G_10uM_Scan_RamanShift__28__16-15-22-959.txt Node

Date: Mon Jul 11 16:15:22 BST 2022
User: TCL
Spectrometer: QEP01345
Trigger mode: 4
Integration Time (sec): 7.000000E0
Scans to average: 10
Electric dark correction enabled: true
Nonlinearity correction enabled: false
Boxcar width: 0
XAxis mode: Raman Shifts
Number of Pixels in Spectrum: 1044
>>>>>Begin Spectral Data<<<<<
46.04893	0.0375
50.45542	-0.5625
54.85868	-0.2625
59.25871	-1.6625
63.6555	33.7375
68.04907	38.1375
72.43941	43.7375
76.82654	40.8375
81.21044	46.0375
85.59113	49.3375
89.96862	52.7375
94.34289	49.7375
98.71396	53.0375
103.08183	53.8375
107.4465	54.1375
111.80798	56.6375
116.16626	57.8375
120.52136	59.7375
124.87327	64.3375
129.222	63.5375
133.56755	67.2375
137.90993	72.3375
142.24913	78.9375
146.58517	85.3375
150.91804	98.3375
155.24774	117.7375
159.57429	145.3375
163.89768	189.6375
168.21792	245.3375
172.53501	334.4375
176.84895	457.6375
181.15975	644.5375
185.46741	885.5375
189.77193	1225.0375
194.07331	1634.5375
198.37157	2103.9375
202.6667	2591.4375
206.9587	3080.4375
211.24758	3573.4375
215.53334	4100.4375
219.81599	4621.1375
224.09553	5228.7375
228.37195	5892.6375
232.64527	6596.0375
236.91549	7326.7375
241.18261	7967.2375
245.44663	8536.6375
249.70755	8998.1375
253.96539	9387.8375
258.22014	9706.9375
262.4718	9934.8375
266.72039	10072.6375
270.96589	10108.3375
275.20832	10023.3375
279.44768	9841.2375
283.68397	9669.6375
287.91719	9536.6375
292.14735	9546.7375
296.37445	9665.1375
300.59849	9902.4375
304.81948	10184.5375
309.03742	10342.2375
313.25231	10254.2375
317.46415	9863.3375
321.67296	9345.6375
325.87872	8930.8375
330.08145	8754.9375
334.28114	8775.4375
338.47781	8939.0375
342.67145	9102.3375
346.86207	9431.1375
351.04966	9906.7375
355.23424	10366.4375
359.4158	10748.2375
363.59435	10934.7375
367.76989	11081.0375
371.94243	11131.5375
376.11196	11150.7375
380.27849	11218.8375
384.44203	11186.3375
388.60257	11152.7375
392.76012	11163.9375
396.91468	11264.1375
401.06626	11493.2375
405.21485	11617.9375
409.36047	11400.0375
413.50311	11044.5375
417.64277	10810.1375
421.77947	10587.9375
425.9132	10239.5375
430.04396	10210.3375
434.17176	10244.2375
438.2966	10400.7375
442.41849	10631.5375
446.53742	10892.6375
450.6534	11134.1375
454.76644	11308.1375
458.87653	11355.7375
462.98368	11282.4375
467.08789	11139.1375
471.18916	10999.8375
475.2875	10795.5375
479.38291	10688.3375
483.4754	10652.9375
487.56496	10637.0375
491.6516	10662.6375
495.73531	10695.7375
499.81612	10670.3375
503.89401	10722.0375
507.96899	10759.2375
512.04106	10838.7375
516.11023	11027.9375
520.1765	11130.2375
524.23987	11209.6375
528.30034	11135.7375
532.35792	11098.0375
536.41261	10967.5375
540.46441	10738.0375
544.51333	10604.7375
548.55936	10551.8375
552.60252	10657.9375
556.64279	10763.3375
560.6802	10799.0375
564.71473	10930.4375
568.7464	11149.2375
572.7752	11184.3375
576.80114	10947.1375
580.82422	10747.5375
584.84444	10760.6375
588.86181	10880.8375
592.87633	11061.5375
596.888	11291.0375
600.89682	11652.5375
604.9028	12818.4375
608.90594	15807.2375
612.90624	18845.5375
616.90371	17320.9375
620.89834	13408.2375
624.89015	12065.2375
628.87913	12128.9375
632.86528	12548.4375
636.84862	12796.7375
640.82913	12511.9375
644.80683	11886.6375
648.78172	11381.5375
652.75379	11181.9375
656.72306	11337.9375
660.68952	11569.6375
664.65319	11418.1375
668.61405	11187.6375
672.57211	11210.8375
676.52738	11328.2375
680.47986	11466.1375
684.42955	11597.0375
688.37646	11739.9375
692.32058	11735.8375
696.26192	11626.5375
700.20048	11454.3375
704.13626	11280.7375
708.06928	11060.2375
711.99952	10873.9375
715.927	10764.8375
719.85171	10778.8375
723.77365	10829.9375
727.69284	10850.4375
731.60928	10841.3375
735.52295	10796.5375
739.43388	10713.3375
743.34206	10730.8375
747.24749	10709.3375
751.15017	10678.4375
755.05012	10794.4375
758.94733	11193.6375
762.8418	12135.3375
766.73354	13678.3375
770.62254	15247.1375
774.50882	16006.8375
778.39237	15289.5375
782.27321	13610.8375
786.15132	12063.2375
790.02671	11200.4375
793.89938	10851.9375
797.76935	10712.1375
801.6366	10701.3375
805.50115	10796.7375
809.36299	10914.5375
813.22213	10945.3375
817.07857	10843.5375
820.93231	10729.9375
824.78336	10588.2375
828.63172	10517.1375
832.47738	10461.7375
836.32036	10410.5375
840.16066	10398.3375
843.99827	10425.2375
847.8332	10402.3375
851.66546	10393.4375
855.49504	10394.7375
859.32195	10401.4375
863.1462	10388.5375
866.96777	10406.2375
870.78668	10432.6375
874.60293	10560.8375
878.41652	10690.1375
882.22745	10859.1375
886.03573	10977.6375
889.84136	10943.5375
893.64433	10831.4375
897.44466	10625.5375
901.24235	10436.2375
905.0374	10265.4375
908.8298	10115.8375
912.61957	10021.3375
916.40671	10027.0375
920.19121	10073.6375
923.97308	10164.6375
927.75233	10303.6375
931.52895	10373.7375
935.30295	10326.3375
939.07433	10119.5375
942.84309	9989.0375
946.60924	9929.4375
950.37278	9919.5375
954.13371	9872.6375
957.89203	9834.3375
961.64774	9803.6375
965.40086	9733.4375
969.15137	9652.8375
972.89929	9601.1375
976.64461	9594.2375
980.38733	9578.8375
984.12747	9607.1375
987.86502	9665.4375
991.59999	9757.9375
995.33237	9899.8375
999.06217	10166.9375
1002.78939	10459.2375
1006.51404	10712.8375
1010.23611	10932.5375
1013.95561	11110.3375
1017.67255	11175.8375
1021.38692	11126.7375
1025.09872	10964.1375
1028.80796	10916.7375
1032.51465	11017.0375
1036.21877	11070.9375
1039.92035	11042.0375
1043.61937	10949.6375
1047.31584	10739.7375
1051.00976	10556.0375
1054.70114	10459.5375
1058.38998	10433.1375
1062.07627	10478.2375
1065.76003	10530.0375
1069.44126	10591.1375
1073.11995	10669.9375
1076.79611	10742.9375
1080.46974	10859.1375
1084.14085	10993.7375
1087.80943	11124.6375
1091.47549	11154.1375
1095.13903	10976.7375
1098.80005	10720.3375
1102.45857	10595.0375
1106.11456	10545.8375
1109.76805	10710.1375
1113.41903	10960.8375
1117.06751	11330.6375
1120.71348	11866.2375
1124.35696	12460.0375
1127.99793	13042.4375
1131.63641	13255.0375
1135.2724	13028.1375
1138.90589	12689.4375
1142.5369	12303.6375
1146.16542	11838.8375
1149.79145	11411.2375
1153.415	11166.4375
1157.03607	11012.2375
1160.65467	11031.3375
1164.27079	11327.2375
1167.88443	11803.3375
1171.49561	12490.0375
1175.10432	13568.1375
1178.71056	15058.6375
1182.31434	16409.3375
1185.91565	16861.0375
1189.51451	16648.2375
1193.11091	15941.2375
1196.70485	15122.6375
1200.29634	14533.5375
1203.88538	14078.8375
1207.47197	13485.9375
1211.05612	12846.9375
1214.63782	12362.9375
1218.21708	12062.4375
1221.79391	11935.9375
1225.36829	11884.5375
1228.94024	11789.9375
1232.50976	11691.6375
1236.07685	11644.2375
1239.6415	11685.8375
1243.20374	11753.4375
1246.76355	11829.8375
1250.32093	11983.3375
1253.8759	12211.8375
1257.42845	12496.4375
1260.97859	12825.6375
1264.52631	13115.2375
1268.07163	13350.5375
1271.61453	13655.3375
1275.15503	13891.7375
1278.69312	14044.1375
1282.22882	14228.3375
1285.76211	14495.8375
1289.29301	14916.3375
1292.82151	15353.9375
1296.34761	15910.4375
1299.87133	16707.8375
1303.39266	17982.4375
1306.9116	19700.1375
1310.42815	21421.5375
1313.94233	22043.4375
1317.45412	21210.7375
1320.96354	19850.5375
1324.47058	18510.7375
1327.97525	17439.2375
1331.47754	16843.4375
1334.97747	16722.6375
1338.47502	16942.2375
1341.97022	17497.6375
1345.46305	18271.7375
1348.95352	19318.9375
1352.44163	20659.8375
1355.92738	22539.6375
1359.41078	25095.4375
1362.89183	27107.2375
1366.37053	25930.1375
1369.84688	22191.4375
1373.32088	18779.8375
1376.79254	16799.9375
1380.26186	15750.1375
1383.72883	15198.5375
1387.19347	14796.6375
1390.65578	14414.0375
1394.11575	14106.0375
1397.57339	13961.6375
1401.0287	13924.4375
1404.48168	13941.9375
1407.93234	13926.2375
1411.38068	13963.1375
1414.82669	13896.4375
1418.27039	13760.8375
1421.71177	13534.7375
1425.15083	13267.9375
1428.58758	13153.6375
1432.02203	13236.2375
1435.45416	13377.2375
1438.88399	13501.1375
1442.31151	13571.0375
1445.73673	13723.5375
1449.15965	13949.0375
1452.58027	14081.8375
1455.9986	14161.4375
1459.41463	14314.7375
1462.82837	14561.3375
1466.23982	14817.7375
1469.64898	15085.3375
1473.05586	15205.0375
1476.46045	15228.0375
1479.86276	15212.6375
1483.26279	15255.5375
1486.66054	15419.9375
1490.05602	15700.2375
1493.44922	16164.5375
1496.84016	16944.2375
1500.22882	18250.0375
1503.61521	20110.5375
1506.99934	22194.0375
1510.38121	23759.9375
1513.76081	23889.9375
1517.13816	22245.1375
1520.51324	19786.4375
1523.88607	17636.6375
1527.25665	16216.7375
1530.62498	15460.7375
1533.99105	14984.1375
1537.35488	14734.1375
1540.71647	14579.9375
1544.07581	14523.0375
1547.4329	14589.7375
1550.78776	14635.1375
1554.14038	14677.9375
1557.49077	14804.4375
1560.83892	14961.1375
1564.18484	15249.3375
1567.52853	15534.3375
1570.86999	15735.8375
1574.20922	15899.4375
1577.54624	15751.7375
1580.88103	15200.6375
1584.2136	14497.4375
1587.54395	14178.5375
1590.87208	14366.6375
1594.19801	15033.7375
1597.52172	15941.9375
1600.84321	16386.1375
1604.16251	16052.5375
1607.47959	15271.9375
1610.79447	14383.9375
1614.10715	13572.3375
1617.41763	12904.1375
1620.7259	12442.3375
1624.03199	12225.1375
1627.33587	12247.6375
1630.63757	12482.1375
1633.93707	12978.7375
1637.23439	13690.8375
1640.52951	14792.9375
1643.82246	16201.8375
1647.11321	17740.1375
1650.40179	18564.9375
1653.68819	17913.3375
1656.97241	16042.5375
1660.25446	14083.7375
1663.53433	12759.8375
1666.81203	11930.0375
1670.08756	11439.5375
1673.36092	11126.4375
1676.63211	10864.6375
1679.90115	10698.7375
1683.16801	10518.2375
1686.43272	10380.1375
1689.69527	10246.6375
1692.95567	10120.2375
1696.2139	10027.2375
1699.46999	9933.3375
1702.72392	9778.2375
1705.97571	9668.8375
1709.22535	9556.4375
1712.47284	9497.3375
1715.71819	9446.1375
1718.96139	9370.2375
1722.20246	9260.8375
1725.44139	9171.9375
1728.67818	9061.2375
1731.91284	8985.7375
1735.14537	8915.0375
1738.37576	8862.4375
1741.60403	8825.7375
1744.83017	8789.0375
1748.05418	8773.4375
1751.27607	8746.8375
1754.49584	8701.5375
1757.71349	8713.2375
1760.92903	8730.4375
1764.14244	8703.9375
1767.35375	8654.6375
1770.56294	8622.5375
1773.77002	8574.7375
1776.97499	8549.9375
1780.17785	8511.0375
1783.37861	8482.6375
1786.57727	8465.8375
1789.77382	8465.1375
1792.96828	8450.7375
1796.16064	8433.6375
1799.3509	8412.9375
1802.53907	8410.1375
1805.72514	8363.1375
1808.90913	8364.8375
1812.09102	8324.3375
1815.27083	8318.0375
1818.44856	8312.1375
1821.6242	8278.4375
1824.79776	8265.8375
1827.96924	8263.2375
1831.13864	8244.5375
1834.30597	8262.0375
1837.47122	8237.1375
1840.6344	8214.9375
1843.7955	8211.5375
1846.95454	8218.2375
1850.11151	8216.2375
1853.26642	8210.1375
1856.41926	8194.8375
1859.57004	8211.8375
1862.71876	8193.4375
1865.86542	8185.0375
1869.01003	8199.4375
1872.15258	8192.3375
1875.29308	8182.9375
1878.43152	8170.6375
1881.56792	8146.3375
1884.70227	8157.3375
1887.83457	8145.5375
1890.96482	8137.8375
1894.09304	8141.1375
1897.21921	8152.4375
1900.34335	8130.2375
1903.46544	8120.6375
1906.58551	8130.9375
1909.70353	8127.9375
1912.81953	8100.1375
1915.93349	8109.8375
1919.04543	8092.7375
1922.15534	8074.5375
1925.26322	8058.4375
1928.36908	8043.7375
1931.47292	8026.3375
1934.57473	8019.3375
1937.67453	8006.5375
1940.77232	7994.2375
1943.86808	7996.0375
1946.96184	7962.2375
1950.05358	7961.9375
1953.14331	7939.6375
1956.23103	7904.0375
1959.31675	7894.0375
1962.40046	7880.7375
1965.48217	7871.0375
1968.56188	7830.8375
1971.63959	7818.6375
1974.7153	7806.0375
1977.78901	7777.4375
1980.86073	7765.6375
1983.93046	7743.4375
1986.99819	7709.8375
1990.06394	7680.5375
1993.1277	7668.9375
1996.18947	7622.9375
1999.24925	7615.1375
2002.30706	7604.8375
2005.36288	7609.4375
2008.41672	7561.5375
2011.46859	7535.2375
2014.51848	7519.3375
2017.56639	7495.6375
2020.61233	7524.2375
2023.6563	7495.6375
2026.6983	7477.9375
2029.73833	7443.2375
2032.7764	7440.8375
2035.8125	7425.5375
2038.84664	7423.1375
2041.87881	7408.4375
2044.90903	7390.2375
2047.93729	7379.8375
2050.96359	7390.3375
2053.98794	7381.1375
2057.01034	7364.4375
2060.03078	7379.3375
2063.04927	7349.0375
2066.06582	7357.9375
2069.08042	7350.1375
2072.09307	7357.2375
2075.10378	7366.4375
2078.11255	7353.8375
2081.11938	7358.4375
2084.12426	7372.2375
2087.12722	7367.2375
2090.12824	7338.2375
2093.12732	7361.6375
2096.12447	7368.7375
2099.11969	7372.6375
2102.11299	7367.9375
2105.10435	7372.3375
2108.09379	7397.3375
2111.08131	7388.9375
2114.0669	7380.0375
2117.05057	7378.4375
2120.03233	7378.7375
2123.01216	7399.3375
2125.99008	7415.0375
2128.96609	7421.7375
2131.94018	7433.8375
2134.91236	7445.2375
2137.88263	7431.1375
2140.851	7420.4375
2143.81746	7421.2375
2146.78201	7436.1375
2149.74466	7448.5375
2152.7054	7461.5375
2155.66425	7438.4375
2158.6212	7439.5375
2161.57625	7443.8375
2164.52941	7428.8375
2167.48067	7425.6375
2170.43004	7447.1375
2173.37752	7435.0375
2176.32311	7437.8375
2179.26681	7457.4375
2182.20863	7442.4375
2185.14856	7466.6375
2188.08661	7446.6375
2191.02278	7455.9375
2193.95707	7452.1375
2196.88948	7450.9375
2199.82001	7446.5375
2202.74867	7430.9375
2205.67545	7451.5375
2208.60037	7443.8375
2211.52341	7434.2375
2214.44458	7431.5375
2217.36388	7400.8375
2220.28132	7407.5375
2223.1969	7402.5375
2226.11061	7389.4375
2229.02246	7363.0375
2231.93245	7378.5375
2234.84058	7344.4375
2237.74686	7347.7375
2240.65128	7340.2375
2243.55385	7324.9375
2246.45456	7333.9375
2249.35343	7328.3375
2252.25044	7321.2375
2255.14561	7330.0375
2258.03893	7329.9375
2260.93041	7316.3375
2263.82004	7299.0375
2266.70783	7312.7375
2269.59378	7294.3375
2272.4779	7259.0375
2275.36017	7248.1375
2278.24061	7245.3375
2281.11922	7236.3375
2283.996	7204.4375
2286.87094	7188.5375
2289.74405	7188.4375
2292.61534	7179.0375
2295.4848	7173.7375
2298.35243	7171.9375
2301.21824	7169.1375
2304.08223	7176.3375
2306.94439	7189.0375
2309.80474	7175.3375
2312.66327	7176.2375
2315.51999	7194.4375
2318.37489	7175.3375
2321.22797	7167.9375
2324.07925	7168.0375
2326.92871	7159.9375
2329.77637	7183.9375
2332.62222	7128.5375
2335.46626	7170.8375
2338.3085	7153.7375
2341.14893	7145.5375
2343.98756	7163.2375
2346.8244	7150.7375
2349.65943	7173.5375
2352.49267	7170.5375
2355.32411	7164.4375
2358.15376	7172.8375
2360.98161	7158.2375
2363.80768	7169.1375
2366.63195	7167.8375
2369.45444	7182.6375
2372.27514	7165.4375
2375.09405	7156.4375
2377.91118	7126.2375
2380.72652	7136.4375
2383.54009	7110.4375
2386.35187	7105.2375
2389.16188	7097.5375
2391.97011	7085.5375
2394.77657	7046.3375
2397.58125	7040.3375
2400.38416	7053.8375
2403.18529	7027.5375
2405.98466	7011.4375
2408.78226	6996.4375
2411.57809	6988.5375
2414.37216	6986.4375
2417.16446	6999.1375
2419.955	6985.1375
2422.74378	6960.7375
2425.5308	6970.1375
2428.31606	6966.4375
2431.09956	6974.7375
2433.88131	6965.2375
2436.6613	6963.8375
2439.43954	6959.3375
2442.21603	6947.2375
2444.99077	6958.2375
2447.76377	6977.0375
2450.53501	6970.9375
2453.30451	6958.7375
2456.07226	6960.1375
2458.83827	6935.4375
2461.60254	6961.9375
2464.36507	6942.3375
2467.12586	6933.6375
2469.88492	6923.7375
2472.64224	6955.4375
2475.39782	6963.9375
2478.15167	6955.3375
2480.90379	6951.9375
2483.65417	6969.5375
2486.40283	6979.2375
2489.14976	6987.9375
2491.89497	6995.4375
2494.63845	7005.8375
2497.3802	7002.0375
2500.12024	6994.4375
2502.85855	7005.0375
2505.59514	6989.6375
2508.33002	6978.6375
2511.06318	6950.8375
2513.79462	6948.3375
2516.52435	6934.9375
2519.25237	6911.4375
2521.97867	6908.2375
2524.70327	6901.1375
2527.42616	6878.3375
2530.14734	6877.5375
2532.86681	6878.3375
2535.58458	6896.7375
2538.30065	6913.0375
2541.01501	6889.6375
2543.72768	6890.5375
2546.43864	6886.6375
2549.14791	6855.4375
2551.85548	6898.1375
2554.56136	6856.1375
2557.26554	6840.8375
2559.96803	6838.2375
2562.66883	6831.8375
2565.36794	6826.0375
2568.06536	6817.6375
2570.7611	6827.8375
2573.45514	6820.3375
2576.14751	6809.2375
2578.83819	6812.2375
2581.52719	6802.3375
2584.21451	6807.8375
2586.90015	6785.9375
2589.58411	6771.7375
2592.2664	6768.4375
2594.94701	6780.3375
2597.62594	6782.0375
2600.30321	6788.3375
2602.9788	6770.6375
2605.65273	6755.5375
2608.32498	6766.2375
2610.99557	6764.6375
2613.66449	6748.3375
2616.33175	6774.8375
2618.99734	6788.1375
2621.66128	6766.1375
2624.32355	6758.4375
2626.98416	6749.4375
2629.64311	6761.4375
2632.30041	6757.3375
2634.95605	6737.5375
2637.61004	6720.7375
2640.26238	6715.0375
2642.91306	6700.4375
2645.56209	6708.2375
2648.20948	6714.8375
2650.85521	6706.6375
2653.4993	6698.3375
2656.14175	6697.1375
2658.78255	6701.7375
2661.42171	6704.5375
2664.05923	6715.1375
2666.6951	6724.0375
2669.32934	6733.2375
2671.96194	6746.5375
2674.59291	6754.7375
2677.22224	6768.6375
2679.84993	6779.2375
2682.476	6748.5375
2685.10043	6749.5375
2687.72324	6729.4375
2690.34441	6750.9375
2692.96396	6722.6375
2695.58188	6773.0375
2698.19818	6746.5375
2700.81285	6753.6375
2703.4259	6749.3375
2706.03733	6749.4375
2708.64714	6762.2375
2711.25533	6798.5375
2713.86191	6781.6375
2716.46687	6798.0375
2719.07021	6790.9375
2721.67194	6784.4375
2724.27206	6785.2375
2726.87057	6790.4375
2729.46747	6800.5375
2732.06276	6802.7375
2734.65644	6810.6375
2737.24852	6795.3375
2739.83899	6817.7375
2742.42786	6783.3375
2745.01513	6787.7375
2747.60079	6782.5375
2750.18486	6782.1375
2752.76733	6771.2375
2755.3482	6766.3375
2757.92747	6777.9375
2760.50515	6766.3375
2763.08123	6775.3375
2765.65573	6744.0375
2768.22863	6732.9375
2770.79994	6732.2375
2773.36967	6749.0375
2775.9378	6731.8375
2778.50435	6744.1375
2781.06932	6730.4375
2783.6327	6723.3375
2786.1945	6724.7375
2788.75471	6716.4375
2791.31335	6696.8375
2793.87041	6702.3375
2796.42589	6677.1375
2798.97979	6691.5375
2801.53212	6675.7375
2804.08288	6670.7375
2806.63206	6649.5375
2809.17967	6651.9375
2811.72571	6624.6375
2814.27018	6638.1375
2816.81308	6596.2375
2819.35442	6616.6375
2821.89419	6601.3375
2824.43239	6640.7375
2826.96904	6616.9375
2829.50412	6628.8375
2832.03763	6625.6375
2834.56959	6618.5375
2837.1	6605.5375
2839.62884	6597.4375
2842.15613	6575.8375
2844.68186	6602.2375
2847.20604	6599.9375
2849.72867	6619.6375
2852.24974	6618.8375
2854.76927	6608.6375
2857.28724	6610.0375
2859.80367	6611.3375
2862.31855	6590.1375
2864.83189	6603.9375
2867.34368	6575.1375
2869.85393	6576.5375
2872.36264	6595.9375
2874.8698	6594.3375
2877.37543	6605.4375
2879.87952	6581.4375
2882.38207	6594.1375
2884.88308	6583.6375
2887.38256	6592.8375
2889.88051	6582.3375
2892.37692	6609.5375
2894.8718	6578.5375
2897.36515	6631.2375
2899.85698	6616.4375
2902.34727	6644.3375
2904.83604	6634.9375
2907.32328	6668.4375
2909.809	6630.4375
2912.29319	6641.8375
2914.77587	6648.0375
2917.25702	6651.4375
2919.73665	6669.6375
2922.21476	6668.1375
2924.69136	6670.5375
2927.16644	6654.6375
2929.64	6662.7375
2932.11205	6639.8375
2934.58258	6619.4375
2937.05161	6610.9375
2939.51912	6609.1375
2941.98513	6628.1375
2944.44962	6597.1375
2946.91261	6588.2375
2949.37409	6597.4375
2951.83407	6581.8375
2954.29254	6581.1375
2956.74951	6589.8375
2959.20498	6573.2375
2961.65895	6570.2375
2964.11142	6575.0375
2966.56239	6573.2375
2969.01186	6575.8375
2971.45984	6552.8375
2973.90632	6532.7375
2976.35131	6513.7375
2978.7948	6525.7375
2981.23681	6502.3375
2983.67732	6496.4375
2986.11635	6495.8375
2988.55388	6493.4375
2990.98993	6450.2375
2993.4245	6465.5375
2995.85758	6469.9375
2998.28917	6443.8375
3000.71928	6439.2375
3003.14791	6407.3375
3005.57506	6415.6375
3008.00073	6368.9375
3010.42493	6398.7375
3012.84764	6399.7375
3015.26888	6382.9375
3017.68865	6359.6375
3020.10694	6351.5375
3022.52376	6348.7375
3024.9391	6329.9375
3027.35298	6353.1375
3029.76539	6321.5375
3032.17632	6345.9375
3034.5858	6322.3375
3036.9938	6312.7375
3039.40034	6298.1375
3041.80542	6309.9375
3044.20903	6304.2375
3046.61118	6326.4375
3049.01187	6295.7375
3051.4111	6284.3375
3053.80888	6269.6375
3056.20519	6274.1375
3058.60005	6256.8375
3060.99345	6259.0375
3063.3854	6228.0375
3065.7759	6215.6375
3068.16494	6197.4375
3070.55254	6181.9375
3072.93868	6188.5375
3075.32338	6191.5375
3077.70662	6195.4375
3080.08842	6151.9375
3082.46878	6140.6375
3084.84769	6121.9375
