Data from AgNPs_APTES_FTO_UA_100uM_CRN_0uM_R6G_10uM_Scan_RamanShift__5__15-48-32-932.txt Node

Date: Mon Jul 11 15:48:32 BST 2022
User: TCL
Spectrometer: QEP01345
Trigger mode: 4
Integration Time (sec): 7.000000E0
Scans to average: 10
Electric dark correction enabled: true
Nonlinearity correction enabled: false
Boxcar width: 0
XAxis mode: Raman Shifts
Number of Pixels in Spectrum: 1044
>>>>>Begin Spectral Data<<<<<
46.04893	-0.525
50.45542	0.575
54.85868	-1.225
59.25871	-1.625
63.6555	42.975
68.04907	44.875
72.43941	48.575
76.82654	51.375
81.21044	56.575
85.59113	56.575
89.96862	61.275
94.34289	63.675
98.71396	64.775
103.08183	66.175
107.4465	68.075
111.80798	68.375
116.16626	69.175
120.52136	71.675
124.87327	74.775
129.222	82.875
133.56755	84.975
137.90993	92.675
142.24913	101.375
146.58517	112.875
150.91804	128.675
155.24774	157.275
159.57429	190.175
163.89768	253.475
168.21792	325.575
172.53501	448.875
176.84895	618.275
181.15975	870.575
185.46741	1214.175
189.77193	1678.475
194.07331	2258.775
198.37157	2900.975
202.6667	3602.375
206.9587	4298.575
211.24758	4997.975
215.53334	5689.975
219.81599	6414.375
224.09553	7228.475
228.37195	8115.775
232.64527	9075.475
236.91549	10080.975
241.18261	11078.075
245.44663	11954.075
249.70755	12719.475
253.96539	13324.375
258.22014	13775.875
262.4718	14047.875
266.72039	14198.175
270.96589	14159.975
275.20832	13969.275
279.44768	13677.875
283.68397	13329.775
287.91719	13014.375
292.14735	12836.775
296.37445	12663.175
300.59849	12652.375
304.81948	12680.575
309.03742	12647.275
313.25231	12441.975
317.46415	12133.875
321.67296	11779.175
325.87872	11540.675
330.08145	11450.475
334.28114	11458.875
338.47781	11568.675
342.67145	11662.275
346.86207	11892.375
351.04966	12189.475
355.23424	12469.675
359.4158	12747.475
363.59435	12948.075
367.76989	13140.275
371.94243	13260.575
376.11196	13355.175
380.27849	13446.275
384.44203	13569.075
388.60257	13630.575
392.76012	13727.575
396.91468	13865.375
401.06626	14007.975
405.21485	14150.975
409.36047	14073.175
413.50311	13857.775
417.64277	13594.675
421.77947	13477.375
425.9132	13403.875
430.04396	13425.675
434.17176	13461.875
438.2966	13580.375
442.41849	13783.275
446.53742	13992.975
450.6534	14212.675
454.76644	14389.375
458.87653	14510.675
462.98368	14542.775
467.08789	14482.475
471.18916	14374.775
475.2875	14286.375
479.38291	14193.875
483.4754	14156.975
487.56496	14104.775
491.6516	14085.075
495.73531	14087.375
499.81612	14108.475
503.89401	14209.475
507.96899	14259.675
512.04106	14291.375
516.11023	14346.275
520.1765	14339.475
524.23987	14304.275
528.30034	14271.475
532.35792	14263.775
536.41261	14221.775
540.46441	14122.275
544.51333	14119.975
548.55936	14150.675
552.60252	14242.775
556.64279	14402.375
560.6802	14539.075
564.71473	14618.675
568.7464	14691.975
572.7752	14669.075
576.80114	14623.475
580.82422	14621.775
584.84444	14729.975
588.86181	14767.875
592.87633	14815.375
596.888	14840.975
600.89682	15133.075
604.9028	16051.775
608.90594	18066.875
612.90624	19998.275
616.90371	18677.375
620.89834	15885.275
624.89015	14742.875
628.87913	14655.375
632.86528	14976.075
636.84862	15228.475
640.82913	15187.975
644.80683	14818.275
648.78172	14572.375
652.75379	14588.575
656.72306	14813.875
660.68952	15097.675
664.65319	15090.375
668.61405	15057.975
672.57211	15301.975
676.52738	15682.575
680.47986	16295.075
684.42955	17034.775
688.37646	17563.375
692.32058	17557.575
696.26192	17064.075
700.20048	16571.075
704.13626	16370.175
708.06928	16258.075
711.99952	16027.075
715.927	15674.075
719.85171	15295.175
723.77365	15049.675
727.69284	14828.275
731.60928	14750.575
735.52295	14781.275
739.43388	14727.275
743.34206	14670.375
747.24749	14589.675
751.15017	14494.675
755.05012	14550.775
758.94733	14844.275
762.8418	15493.675
766.73354	16604.675
770.62254	17840.475
774.50882	18431.375
778.39237	18043.875
782.27321	16926.975
786.15132	15876.475
790.02671	15211.275
793.89938	14846.775
797.76935	14637.375
801.6366	14478.975
805.50115	14358.175
809.36299	14264.575
813.22213	14208.175
817.07857	14152.375
820.93231	14143.275
824.78336	14115.475
828.63172	14125.175
832.47738	14067.275
836.32036	14032.975
840.16066	14016.775
843.99827	14009.175
847.8332	14034.075
851.66546	14065.275
855.49504	14124.275
859.32195	14190.775
863.1462	14210.875
866.96777	14207.975
870.78668	14223.175
874.60293	14262.675
878.41652	14272.375
882.22745	14283.775
886.03573	14307.175
889.84136	14285.675
893.64433	14258.475
897.44466	14190.775
901.24235	14122.675
905.0374	14082.175
908.8298	14032.775
912.61957	13992.975
916.40671	14010.775
920.19121	14053.175
923.97308	14120.075
927.75233	14151.775
931.52895	14147.175
935.30295	14122.075
939.07433	14004.675
942.84309	13937.075
946.60924	13937.975
950.37278	13942.075
954.13371	13970.475
957.89203	13966.375
961.64774	13951.775
965.40086	13907.675
969.15137	13820.975
972.89929	13721.575
976.64461	13710.875
980.38733	13658.375
984.12747	13614.575
987.86502	13667.975
991.59999	13697.075
995.33237	13778.975
999.06217	13882.875
1002.78939	14030.575
1006.51404	14210.075
1010.23611	14414.275
1013.95561	14619.375
1017.67255	14661.175
1021.38692	14577.075
1025.09872	14406.675
1028.80796	14225.475
1032.51465	14139.475
1036.21877	14148.675
1039.92035	14204.175
1043.61937	14262.475
1047.31584	14297.075
1051.00976	14338.175
1054.70114	14390.575
1058.38998	14450.575
1062.07627	14529.075
1065.76003	14633.675
1069.44126	14795.675
1073.11995	14995.675
1076.79611	15209.675
1080.46974	15329.775
1084.14085	15381.475
1087.80943	15449.375
1091.47549	15535.275
1095.13903	15518.275
1098.80005	15406.075
1102.45857	15247.975
1106.11456	15120.575
1109.76805	15124.575
1113.41903	15186.375
1117.06751	15282.275
1120.71348	15497.675
1124.35696	15803.975
1127.99793	16090.675
1131.63641	16266.675
1135.2724	16190.275
1138.90589	16056.275
1142.5369	15934.375
1146.16542	15738.975
1149.79145	15551.275
1153.415	15451.275
1157.03607	15314.175
1160.65467	15431.475
1164.27079	15713.475
1167.88443	16098.375
1171.49561	16711.875
1175.10432	17580.375
1178.71056	18715.075
1182.31434	19709.175
1185.91565	20306.675
1189.51451	20387.275
1193.11091	20157.675
1196.70485	19669.375
1200.29634	19093.175
1203.88538	18517.475
1207.47197	17859.775
1211.05612	17350.475
1214.63782	16919.575
1218.21708	16612.775
1221.79391	16426.175
1225.36829	16282.075
1228.94024	16227.575
1232.50976	16149.775
1236.07685	16151.475
1239.6415	16156.675
1243.20374	16216.175
1246.76355	16258.875
1250.32093	16431.175
1253.8759	16638.075
1257.42845	16938.575
1260.97859	17299.075
1264.52631	17671.075
1268.07163	17988.075
1271.61453	18269.575
1275.15503	18543.075
1278.69312	18737.975
1282.22882	18899.775
1285.76211	19157.675
1289.29301	19485.175
1292.82151	19971.675
1296.34761	20484.975
1299.87133	21191.475
1303.39266	21990.475
1306.9116	23073.075
1310.42815	24226.775
1313.94233	24758.775
1317.45412	24578.775
1320.96354	23952.375
1324.47058	23226.775
1327.97525	22492.775
1331.47754	21980.475
1334.97747	21799.475
1338.47502	21918.275
1341.97022	22325.675
1345.46305	22959.075
1348.95352	23741.575
1352.44163	24643.275
1355.92738	25551.675
1359.41078	26723.275
1362.89183	27780.475
1366.37053	27076.775
1369.84688	24729.975
1373.32088	22435.175
1376.79254	20971.675
1380.26186	20166.375
1383.72883	19683.375
1387.19347	19345.875
1390.65578	18955.075
1394.11575	18632.275
1397.57339	18382.775
1401.0287	18206.175
1404.48168	18099.875
1407.93234	18026.875
1411.38068	17991.975
1414.82669	17830.475
1418.27039	17625.375
1421.71177	17455.175
1425.15083	17262.075
1428.58758	17188.775
1432.02203	17266.375
1435.45416	17494.375
1438.88399	17730.875
1442.31151	17969.675
1445.73673	18282.175
1449.15965	18605.775
1452.58027	18963.875
1455.9986	19337.775
1459.41463	19664.075
1462.82837	20065.675
1466.23982	20431.575
1469.64898	20706.075
1473.05586	20767.375
1476.46045	20620.375
1479.86276	20389.375
1483.26279	20123.375
1486.66054	19937.175
1490.05602	19872.775
1493.44922	20037.475
1496.84016	20486.875
1500.22882	21389.275
1503.61521	22642.575
1506.99934	24035.875
1510.38121	25023.875
1513.76081	25065.775
1517.13816	24171.275
1520.51324	22665.975
1523.88607	21350.175
1527.25665	20369.175
1530.62498	19832.875
1533.99105	19590.875
1537.35488	19424.375
1540.71647	19290.875
1544.07581	19202.175
1547.4329	19136.475
1550.78776	19025.175
1554.14038	18922.175
1557.49077	18938.475
1560.83892	18991.975
1564.18484	19219.575
1567.52853	19450.575
1570.86999	19713.775
1574.20922	19856.475
1577.54624	19794.975
1580.88103	19389.075
1584.2136	18795.475
1587.54395	18490.375
1590.87208	18559.575
1594.19801	18932.875
1597.52172	19556.875
1600.84321	19863.075
1604.16251	19573.975
1607.47959	19012.475
1610.79447	18285.575
1614.10715	17489.175
1617.41763	16794.575
1620.7259	16218.275
1624.03199	15909.775
1627.33587	15798.775
1630.63757	15881.275
1633.93707	16249.475
1637.23439	16905.175
1640.52951	17897.275
1643.82246	19140.375
1647.11321	20366.275
1650.40179	20990.375
1653.68819	20502.375
1656.97241	19026.575
1660.25446	17450.375
1663.53433	16297.975
1666.81203	15585.475
1670.08756	15131.975
1673.36092	14833.475
1676.63211	14605.175
1679.90115	14432.075
1683.16801	14225.275
1686.43272	14091.075
1689.69527	13946.175
1692.95567	13790.675
1696.2139	13732.375
1699.46999	13605.275
1702.72392	13522.275
1705.97571	13449.875
1709.22535	13375.575
1712.47284	13326.375
1715.71819	13243.675
1718.96139	13172.175
1722.20246	13104.375
1725.44139	13024.575
1728.67818	12931.075
1731.91284	12842.175
1735.14537	12736.875
1738.37576	12653.775
1741.60403	12574.075
1744.83017	12498.575
1748.05418	12429.175
1751.27607	12401.575
1754.49584	12338.175
1757.71349	12324.475
1760.92903	12315.175
1764.14244	12317.175
1767.35375	12270.575
1770.56294	12232.475
1773.77002	12226.475
1776.97499	12210.875
1780.17785	12156.575
1783.37861	12159.775
1786.57727	12105.775
1789.77382	12087.775
1792.96828	12033.975
1796.16064	11993.475
1799.3509	12017.075
1802.53907	11967.375
1805.72514	11967.075
1808.90913	11918.175
1812.09102	11889.775
1815.27083	11860.075
1818.44856	11827.675
1821.6242	11806.875
1824.79776	11802.875
1827.96924	11793.975
1831.13864	11778.075
1834.30597	11742.575
1837.47122	11740.575
1840.6344	11722.375
1843.7955	11752.075
1846.95454	11724.575
1850.11151	11709.375
1853.26642	11702.375
1856.41926	11696.775
1859.57004	11686.175
1862.71876	11637.575
1865.86542	11662.675
1869.01003	11668.675
1872.15258	11635.075
1875.29308	11640.375
1878.43152	11645.275
1881.56792	11615.475
1884.70227	11595.575
1887.83457	11626.375
1890.96482	11591.975
1894.09304	11591.475
1897.21921	11594.675
1900.34335	11598.075
1903.46544	11607.275
1906.58551	11581.075
1909.70353	11565.175
1912.81953	11568.975
1915.93349	11555.375
1919.04543	11496.775
1922.15534	11493.775
1925.26322	11471.175
1928.36908	11484.375
1931.47292	11442.175
1934.57473	11422.075
1937.67453	11421.775
1940.77232	11368.375
1943.86808	11341.775
1946.96184	11327.075
1950.05358	11316.875
1953.14331	11275.075
1956.23103	11241.475
1959.31675	11210.675
1962.40046	11173.075
1965.48217	11174.775
1968.56188	11136.375
1971.63959	11106.975
1974.7153	11067.875
1977.78901	11044.975
1980.86073	11013.675
1983.93046	10991.175
1986.99819	10939.575
1990.06394	10911.975
1993.1277	10870.575
1996.18947	10843.075
1999.24925	10821.075
2002.30706	10799.175
2005.36288	10771.475
2008.41672	10752.975
2011.46859	10726.475
2014.51848	10679.675
2017.56639	10665.075
2020.61233	10650.975
2023.6563	10624.175
2026.6983	10604.075
2029.73833	10613.375
2032.7764	10565.575
2035.8125	10548.775
2038.84664	10523.875
2041.87881	10515.075
2044.90903	10520.975
2047.93729	10499.575
2050.96359	10515.675
2053.98794	10506.375
2057.01034	10511.075
2060.03078	10485.175
2063.04927	10493.475
2066.06582	10521.075
2069.08042	10537.475
2072.09307	10560.275
2075.10378	10543.275
2078.11255	10546.375
2081.11938	10606.675
2084.12426	10617.075
2087.12722	10624.375
2090.12824	10632.875
2093.12732	10635.775
2096.12447	10675.875
2099.11969	10695.075
2102.11299	10718.875
2105.10435	10728.675
2108.09379	10728.475
2111.08131	10734.775
2114.0669	10747.475
2117.05057	10731.875
2120.03233	10750.375
2123.01216	10765.675
2125.99008	10785.475
2128.96609	10768.375
2131.94018	10792.075
2134.91236	10772.075
2137.88263	10776.875
2140.851	10724.375
2143.81746	10728.675
2146.78201	10728.975
2149.74466	10705.075
2152.7054	10682.775
2155.66425	10652.875
2158.6212	10624.175
2161.57625	10578.275
2164.52941	10589.775
2167.48067	10565.575
2170.43004	10571.975
2173.37752	10579.875
2176.32311	10601.175
2179.26681	10566.575
2182.20863	10542.375
2185.14856	10556.675
2188.08661	10568.375
2191.02278	10588.575
2193.95707	10585.075
2196.88948	10553.875
2199.82001	10565.575
2202.74867	10553.575
2205.67545	10537.975
2208.60037	10537.775
2211.52341	10524.575
2214.44458	10499.875
2217.36388	10448.775
2220.28132	10465.475
2223.1969	10428.775
2226.11061	10422.375
2229.02246	10392.275
2231.93245	10396.975
2234.84058	10394.175
2237.74686	10374.875
2240.65128	10381.975
2243.55385	10361.175
2246.45456	10347.475
2249.35343	10345.675
2252.25044	10312.975
2255.14561	10320.975
2258.03893	10329.275
2260.93041	10311.275
2263.82004	10314.475
2266.70783	10282.575
2269.59378	10257.575
2272.4779	10215.275
2275.36017	10190.075
2278.24061	10197.775
2281.11922	10179.075
2283.996	10130.875
2286.87094	10120.975
2289.74405	10116.875
2292.61534	10098.175
2295.4848	10084.775
2298.35243	10109.775
2301.21824	10120.075
2304.08223	10104.875
2306.94439	10115.375
2309.80474	10103.675
2312.66327	10098.375
2315.51999	10078.775
2318.37489	10091.275
2321.22797	10069.875
2324.07925	10085.475
2326.92871	10073.975
2329.77637	10050.075
2332.62222	10027.975
2335.46626	10008.475
2338.3085	10015.975
2341.14893	10025.775
2343.98756	10027.375
2346.8244	10022.475
2349.65943	10032.075
2352.49267	10000.475
2355.32411	10008.875
2358.15376	9994.175
2360.98161	10012.675
2363.80768	10016.775
2366.63195	10022.175
2369.45444	10009.775
2372.27514	10010.975
2375.09405	10008.275
2377.91118	9987.775
2380.72652	9996.475
2383.54009	9961.875
2386.35187	9963.075
2389.16188	9934.675
2391.97011	9896.675
2394.77657	9896.975
2397.58125	9872.875
2400.38416	9858.775
2403.18529	9829.175
2405.98466	9835.775
2408.78226	9811.975
2411.57809	9826.975
2414.37216	9833.275
2417.16446	9823.875
2419.955	9809.075
2422.74378	9807.075
2425.5308	9803.375
2428.31606	9834.075
2431.09956	9815.475
2433.88131	9785.875
2436.6613	9792.675
2439.43954	9772.675
2442.21603	9774.075
2444.99077	9759.475
2447.76377	9780.675
2450.53501	9775.275
2453.30451	9792.575
2456.07226	9744.575
2458.83827	9741.975
2461.60254	9738.475
2464.36507	9736.975
2467.12586	9728.075
2469.88492	9725.575
2472.64224	9729.475
2475.39782	9734.075
2478.15167	9731.975
2480.90379	9746.275
2483.65417	9752.475
2486.40283	9748.875
2489.14976	9767.175
2491.89497	9765.875
2494.63845	9777.375
2497.3802	9759.975
2500.12024	9723.675
2502.85855	9726.175
2505.59514	9726.375
2508.33002	9726.875
2511.06318	9691.475
2513.79462	9676.375
2516.52435	9653.275
2519.25237	9665.775
2521.97867	9658.875
2524.70327	9670.375
2527.42616	9660.275
2530.14734	9664.375
2532.86681	9656.075
2535.58458	9651.575
2538.30065	9635.575
2541.01501	9643.375
2543.72768	9608.975
2546.43864	9604.175
2549.14791	9584.775
2551.85548	9614.375
2554.56136	9589.975
2557.26554	9587.375
2559.96803	9574.175
2562.66883	9537.375
2565.36794	9561.775
2568.06536	9543.975
2570.7611	9510.075
2573.45514	9528.075
2576.14751	9509.375
2578.83819	9486.475
2581.52719	9476.875
2584.21451	9485.975
2586.90015	9452.675
2589.58411	9411.475
2592.2664	9433.075
2594.94701	9425.675
2597.62594	9449.075
2600.30321	9426.575
2602.9788	9418.075
2605.65273	9419.475
2608.32498	9409.175
2610.99557	9395.975
2613.66449	9386.575
2616.33175	9393.175
2618.99734	9387.175
2621.66128	9391.775
2624.32355	9370.175
2626.98416	9344.775
2629.64311	9328.975
2632.30041	9348.375
2634.95605	9329.175
2637.61004	9324.475
2640.26238	9323.075
2642.91306	9313.375
2645.56209	9300.275
2648.20948	9293.375
2650.85521	9306.275
2653.4993	9294.575
2656.14175	9283.975
2658.78255	9303.475
2661.42171	9300.175
2664.05923	9330.475
2666.6951	9323.575
2669.32934	9338.575
2671.96194	9353.075
2674.59291	9361.275
2677.22224	9366.575
2679.84993	9351.575
2682.476	9355.975
2685.10043	9348.675
2687.72324	9346.075
2690.34441	9372.675
2692.96396	9364.875
2695.58188	9398.675
2698.19818	9382.975
2700.81285	9361.075
2703.4259	9367.475
2706.03733	9388.975
2708.64714	9404.075
2711.25533	9419.175
2713.86191	9409.175
2716.46687	9430.975
2719.07021	9415.675
2721.67194	9438.075
2724.27206	9420.675
2726.87057	9453.175
2729.46747	9449.375
2732.06276	9445.775
2734.65644	9467.575
2737.24852	9445.975
2739.83899	9453.675
2742.42786	9458.175
2745.01513	9432.675
2747.60079	9440.575
2750.18486	9414.175
2752.76733	9407.975
2755.3482	9395.175
2757.92747	9400.075
2760.50515	9398.575
2763.08123	9414.475
2765.65573	9359.375
2768.22863	9361.375
2770.79994	9349.675
2773.36967	9375.675
2775.9378	9375.075
2778.50435	9367.375
2781.06932	9336.575
2783.6327	9339.775
2786.1945	9323.075
2788.75471	9308.975
2791.31335	9268.475
2793.87041	9278.775
2796.42589	9269.575
2798.97979	9281.275
2801.53212	9241.775
2804.08288	9239.275
2806.63206	9213.675
2809.17967	9210.075
2811.72571	9173.075
2814.27018	9187.075
2816.81308	9125.875
2819.35442	9136.675
2821.89419	9113.175
2824.43239	9131.175
2826.96904	9122.175
2829.50412	9110.975
2832.03763	9083.075
2834.56959	9094.475
2837.1	9071.975
2839.62884	9068.875
2842.15613	9060.675
2844.68186	9092.775
2847.20604	9070.675
2849.72867	9097.775
2852.24974	9101.375
2854.76927	9087.875
2857.28724	9090.875
2859.80367	9069.575
2862.31855	9063.675
2864.83189	9060.275
2867.34368	9044.975
2869.85393	9070.975
2872.36264	9052.375
2874.8698	9052.775
2877.37543	9039.375
2879.87952	9074.975
2882.38207	9078.375
2884.88308	9070.275
2887.38256	9088.775
2889.88051	9051.475
2892.37692	9096.275
2894.8718	9093.475
2897.36515	9127.175
2899.85698	9116.175
2902.34727	9138.875
2904.83604	9154.775
2907.32328	9179.475
2909.809	9198.975
2912.29319	9172.675
2914.77587	9182.275
2917.25702	9190.075
2919.73665	9202.475
2922.21476	9207.875
2924.69136	9207.075
2927.16644	9200.275
2929.64	9201.375
2932.11205	9211.175
2934.58258	9179.975
2937.05161	9184.375
2939.51912	9173.275
2941.98513	9149.375
2944.44962	9142.075
2946.91261	9125.175
2949.37409	9152.675
2951.83407	9126.575
2954.29254	9133.175
2956.74951	9129.475
2959.20498	9147.075
2961.65895	9157.475
2964.11142	9139.775
2966.56239	9154.075
2969.01186	9146.675
2971.45984	9134.175
2973.90632	9119.375
2976.35131	9075.675
2978.7948	9068.475
2981.23681	9084.975
2983.67732	9063.075
2986.11635	9052.775
2988.55388	9030.475
2990.98993	9039.075
2993.4245	9018.875
2995.85758	9001.975
2998.28917	8978.675
3000.71928	8963.975
3003.14791	8958.675
3005.57506	8964.975
3008.00073	8920.675
3010.42493	8918.775
3012.84764	8917.175
3015.26888	8938.175
3017.68865	8900.575
3020.10694	8910.175
3022.52376	8884.975
3024.9391	8877.075
3027.35298	8868.375
3029.76539	8873.775
3032.17632	8875.075
3034.5858	8833.575
3036.9938	8852.375
3039.40034	8829.775
3041.80542	8834.475
3044.20903	8835.475
3046.61118	8854.875
3049.01187	8828.975
3051.4111	8813.075
3053.80888	8824.275
3056.20519	8813.375
3058.60005	8773.475
3060.99345	8766.075
3063.3854	8750.575
3065.7759	8733.375
3068.16494	8758.475
3070.55254	8720.875
3072.93868	8713.575
3075.32338	8707.675
3077.70662	8685.975
3080.08842	8684.375
3082.46878	8665.475
3084.84769	8648.175
3087.22515	8648.675
3089.60118	8662.375
3091.97576	8664.175
3094.3489	8679.975
3096.72061	8694.075
3099.09087	8694.575
3101.4597	8676.075
3103.82709	8701.375
3106.19305	8703.175
3108.55757	8735.075
3110.92066	8687.275
3113.28232	8684.875
3115.64255	8668.775
3118.00134	8663.975
3120.35871	8641.175
3122.71466	8624.675
3125.06917	8614.475
3127.42226	8598.175
3129.77393	8605.375
3132.12417	8592.975
3134.47299	8624.175
3136.82039	8620.675
3139.16636	8626.375
3141.51092	8627.675
3143.85406	8632.875
3146.19579	8630.275
3148.53609	8627.975
3150.87499	8664.275
3153.21246	8658.675
3155.54853	8677.275
3157.88318	8704.675
3160.21642	8703.675
3162.54826	8714.575
3164.87868	8692.675
