Data from AgNPs_APTES_FTO_UA_100uM_CRN_0uM_R6G_10uM_Scan_RamanShift__50__16-41-02-984.txt Node

Date: Mon Jul 11 16:41:02 BST 2022
User: TCL
Spectrometer: QEP01345
Trigger mode: 4
Integration Time (sec): 7.000000E0
Scans to average: 10
Electric dark correction enabled: true
Nonlinearity correction enabled: false
Boxcar width: 0
XAxis mode: Raman Shifts
Number of Pixels in Spectrum: 1044
>>>>>Begin Spectral Data<<<<<
46.04893	-1.175
50.45542	-0.775
54.85868	0.125
59.25871	-1.175
63.6555	61.125
68.04907	63.625
72.43941	66.125
76.82654	69.025
81.21044	72.225
85.59113	74.325
89.96862	75.425
94.34289	77.225
98.71396	82.325
103.08183	85.125
107.4465	87.325
111.80798	87.425
116.16626	92.025
120.52136	97.025
124.87327	103.325
129.222	106.525
133.56755	113.425
137.90993	126.825
142.24913	136.125
146.58517	151.325
150.91804	176.125
155.24774	210.025
159.57429	263.625
163.89768	336.525
168.21792	438.325
172.53501	606.625
176.84895	839.425
181.15975	1191.425
185.46741	1672.925
189.77193	2306.025
194.07331	3111.325
198.37157	4005.525
202.6667	4979.725
206.9587	5918.225
211.24758	6887.925
215.53334	7816.425
219.81599	8871.825
224.09553	9975.025
228.37195	11207.825
232.64527	12573.825
236.91549	14007.425
241.18261	15361.425
245.44663	16589.225
249.70755	17714.525
253.96539	18634.025
258.22014	19324.425
262.4718	19821.025
266.72039	20086.525
270.96589	20057.125
275.20832	19800.025
279.44768	19436.325
283.68397	19001.425
287.91719	18604.425
292.14735	18337.425
296.37445	18227.225
300.59849	18260.825
304.81948	18396.625
309.03742	18492.125
313.25231	18395.825
317.46415	18043.225
321.67296	17555.525
325.87872	17172.825
330.08145	16977.925
334.28114	17000.225
338.47781	17152.325
342.67145	17349.225
346.86207	17719.325
351.04966	18152.625
355.23424	18583.325
359.4158	18931.125
363.59435	19152.325
367.76989	19308.125
371.94243	19346.725
376.11196	19373.325
380.27849	19379.125
384.44203	19464.125
388.60257	19557.125
392.76012	19698.725
396.91468	19963.925
401.06626	20255.125
405.21485	20446.925
409.36047	20294.825
413.50311	19937.825
417.64277	19633.925
421.77947	19520.025
425.9132	19506.825
430.04396	19604.025
434.17176	19657.925
438.2966	19800.025
442.41849	20049.925
446.53742	20366.925
450.6534	20664.425
454.76644	20912.225
458.87653	20979.425
462.98368	20974.625
467.08789	20877.625
471.18916	20684.025
475.2875	20409.425
479.38291	20245.825
483.4754	20132.925
487.56496	20097.325
491.6516	20158.725
495.73531	20279.125
499.81612	20441.825
503.89401	20620.825
507.96899	20797.025
512.04106	20804.325
516.11023	20836.725
520.1765	20817.925
524.23987	20717.725
528.30034	20608.525
532.35792	20454.925
536.41261	20305.525
540.46441	20084.725
544.51333	20025.025
548.55936	20162.025
552.60252	20403.225
556.64279	20659.225
560.6802	20905.425
564.71473	20995.225
568.7464	21217.325
572.7752	21368.125
576.80114	21405.025
580.82422	21481.425
584.84444	21771.925
588.86181	22119.625
592.87633	22379.725
596.888	22486.125
600.89682	22714.525
604.9028	23811.725
608.90594	26683.325
612.90624	29238.725
616.90371	27196.925
620.89834	22988.525
624.89015	21365.225
628.87913	21236.925
632.86528	21575.725
636.84862	21817.825
640.82913	21667.625
644.80683	21290.025
648.78172	21018.425
652.75379	21070.525
656.72306	21391.825
660.68952	21702.725
664.65319	21458.425
668.61405	21141.525
672.57211	21179.425
676.52738	21296.525
680.47986	21343.625
684.42955	21358.625
688.37646	21459.825
692.32058	21490.125
696.26192	21440.925
700.20048	21437.225
704.13626	21377.525
708.06928	21215.225
711.99952	21014.625
715.927	20970.025
719.85171	20950.225
723.77365	20901.525
727.69284	20808.925
731.60928	20739.325
735.52295	20768.725
739.43388	20861.725
743.34206	20939.325
747.24749	20986.325
751.15017	21057.125
755.05012	21223.325
758.94733	21724.425
762.8418	22883.125
766.73354	24600.525
770.62254	26188.425
774.50882	26510.425
778.39237	25553.125
782.27321	23929.925
786.15132	22547.725
790.02671	21660.125
793.89938	21224.525
797.76935	21054.025
801.6366	20974.825
805.50115	20954.425
809.36299	20936.525
813.22213	20877.925
817.07857	20790.125
820.93231	20640.425
824.78336	20539.625
828.63172	20482.225
832.47738	20435.025
836.32036	20405.125
840.16066	20335.125
843.99827	20359.325
847.8332	20371.025
851.66546	20412.825
855.49504	20485.025
859.32195	20532.925
863.1462	20509.325
866.96777	20499.725
870.78668	20562.225
874.60293	20629.425
878.41652	20663.025
882.22745	20747.725
886.03573	20848.225
889.84136	20874.825
893.64433	20819.025
897.44466	20746.025
901.24235	20697.925
905.0374	20622.725
908.8298	20534.225
912.61957	20486.825
916.40671	20529.625
920.19121	20611.425
923.97308	20697.125
927.75233	20769.225
931.52895	20747.925
935.30295	20597.125
939.07433	20353.425
942.84309	20165.225
946.60924	20045.525
950.37278	20012.225
954.13371	20026.125
957.89203	20017.925
961.64774	20049.225
965.40086	20017.025
969.15137	20019.025
972.89929	20000.025
976.64461	20006.925
980.38733	20045.625
984.12747	20054.425
987.86502	20081.825
991.59999	20157.025
995.33237	20271.925
999.06217	20419.625
1002.78939	20693.025
1006.51404	21030.325
1010.23611	21324.125
1013.95561	21500.725
1017.67255	21497.925
1021.38692	21387.125
1025.09872	21187.225
1028.80796	20943.325
1032.51465	20865.725
1036.21877	20818.925
1039.92035	20932.525
1043.61937	20997.325
1047.31584	21019.325
1051.00976	21034.625
1054.70114	21102.625
1058.38998	21168.325
1062.07627	21273.125
1065.76003	21445.825
1069.44126	21676.325
1073.11995	22000.725
1076.79611	22370.525
1080.46974	22626.825
1084.14085	22809.725
1087.80943	22955.025
1091.47549	23049.625
1095.13903	22965.125
1098.80005	22654.125
1102.45857	22373.925
1106.11456	22200.925
1109.76805	22090.225
1113.41903	22205.125
1117.06751	22341.225
1120.71348	22756.825
1124.35696	23204.225
1127.99793	23677.125
1131.63641	23805.225
1135.2724	23631.825
1138.90589	23416.125
1142.5369	23227.125
1146.16542	23093.625
1149.79145	22863.325
1153.415	22652.925
1157.03607	22550.625
1160.65467	22694.425
1164.27079	23000.725
1167.88443	23616.525
1171.49561	24480.825
1175.10432	25856.125
1178.71056	27512.525
1182.31434	28960.625
1185.91565	29649.725
1189.51451	29595.525
1193.11091	29145.225
1196.70485	28333.425
1200.29634	27609.225
1203.88538	26941.825
1207.47197	26303.425
1211.05612	25644.225
1214.63782	25210.825
1218.21708	24808.925
1221.79391	24558.125
1225.36829	24408.225
1228.94024	24353.525
1232.50976	24289.125
1236.07685	24168.425
1239.6415	24095.325
1243.20374	24078.825
1246.76355	24201.525
1250.32093	24416.425
1253.8759	24648.925
1257.42845	25132.125
1260.97859	25647.425
1264.52631	26188.925
1268.07163	26687.525
1271.61453	27055.025
1275.15503	27374.325
1278.69312	27550.125
1282.22882	27729.725
1285.76211	28028.425
1289.29301	28572.225
1292.82151	29170.825
1296.34761	29905.325
1299.87133	30900.525
1303.39266	32166.425
1306.9116	33826.725
1310.42815	35555.625
1313.94233	36294.025
1317.45412	35621.725
1320.96354	34466.425
1324.47058	33339.925
1327.97525	32431.825
1331.47754	31908.625
1334.97747	31797.025
1338.47502	32032.925
1341.97022	32655.925
1345.46305	33588.325
1348.95352	34666.125
1352.44163	35831.525
1355.92738	37100.825
1359.41078	38855.725
1362.89183	40508.925
1366.37053	39450.425
1369.84688	35832.025
1373.32088	32219.425
1376.79254	29892.925
1380.26186	28775.825
1383.72883	28153.625
1387.19347	27688.525
1390.65578	27132.925
1394.11575	26615.225
1397.57339	26241.225
1401.0287	26062.425
1404.48168	25981.825
1407.93234	25883.925
1411.38068	25793.825
1414.82669	25660.925
1418.27039	25359.425
1421.71177	25121.725
1425.15083	24872.125
1428.58758	24761.525
1432.02203	24894.825
1435.45416	25108.125
1438.88399	25430.525
1442.31151	25505.525
1445.73673	25597.025
1449.15965	25717.625
1452.58027	25787.925
1455.9986	25772.825
1459.41463	25992.125
1462.82837	26361.425
1466.23982	26769.025
1469.64898	27163.825
1473.05586	27418.325
1476.46045	27601.925
1479.86276	27633.825
1483.26279	27836.825
1486.66054	27987.725
1490.05602	28423.025
1493.44922	29076.825
1496.84016	30066.425
1500.22882	31678.925
1503.61521	33648.725
1506.99934	35657.725
1510.38121	36888.925
1513.76081	36629.925
1517.13816	34856.525
1520.51324	32545.925
1523.88607	30538.025
1527.25665	29346.725
1530.62498	28736.825
1533.99105	28481.225
1537.35488	28263.025
1540.71647	27991.725
1544.07581	27701.425
1547.4329	27518.025
1550.78776	27324.725
1554.14038	27206.425
1557.49077	27244.625
1560.83892	27390.625
1564.18484	27668.425
1567.52853	28034.725
1570.86999	28338.725
1574.20922	28561.825
1577.54624	28448.425
1580.88103	27829.625
1584.2136	27082.225
1587.54395	26770.025
1590.87208	27065.525
1594.19801	27790.925
1597.52172	28702.525
1600.84321	28998.625
1604.16251	28557.625
1607.47959	27617.025
1610.79447	26548.625
1614.10715	25312.825
1617.41763	24245.425
1620.7259	23482.125
1624.03199	23082.725
1627.33587	23006.425
1630.63757	23220.425
1633.93707	23897.425
1637.23439	25074.825
1640.52951	26838.925
1643.82246	29094.125
1647.11321	31122.725
1650.40179	31851.525
1653.68819	30585.025
1656.97241	27916.925
1660.25446	25196.025
1663.53433	23276.725
1666.81203	22025.325
1670.08756	21249.725
1673.36092	20752.225
1676.63211	20415.725
1679.90115	20113.825
1683.16801	19839.325
1686.43272	19651.725
1689.69527	19410.825
1692.95567	19293.125
1696.2139	19138.625
1699.46999	19055.625
1702.72392	18935.325
1705.97571	18854.125
1709.22535	18801.025
1712.47284	18757.125
1715.71819	18747.625
1718.96139	18653.625
1722.20246	18596.725
1725.44139	18524.525
1728.67818	18394.625
1731.91284	18334.225
1735.14537	18230.825
1738.37576	18136.425
1741.60403	18075.125
1744.83017	18023.225
1748.05418	17966.725
1751.27607	17920.925
1754.49584	17845.425
1757.71349	17825.325
1760.92903	17801.525
1764.14244	17735.225
1767.35375	17739.025
1770.56294	17713.825
1773.77002	17682.925
1776.97499	17656.625
1780.17785	17616.525
1783.37861	17578.025
1786.57727	17589.925
1789.77382	17525.225
1792.96828	17512.625
1796.16064	17474.425
1799.3509	17445.125
1802.53907	17425.825
1805.72514	17410.025
1808.90913	17306.725
1812.09102	17275.025
1815.27083	17229.125
1818.44856	17237.825
1821.6242	17168.425
1824.79776	17203.725
1827.96924	17183.025
1831.13864	17135.425
1834.30597	17119.125
1837.47122	17091.925
1840.6344	17058.125
1843.7955	17072.625
1846.95454	17061.125
1850.11151	17041.525
1853.26642	17011.125
1856.41926	17026.025
1859.57004	17014.225
1862.71876	17007.325
1865.86542	17002.725
1869.01003	16918.525
1872.15258	16903.725
1875.29308	16884.025
1878.43152	16894.125
1881.56792	16864.225
1884.70227	16813.625
1887.83457	16807.325
1890.96482	16800.525
1894.09304	16743.925
1897.21921	16733.525
1900.34335	16694.925
1903.46544	16656.825
1906.58551	16657.725
1909.70353	16676.125
1912.81953	16623.925
1915.93349	16614.625
1919.04543	16585.525
1922.15534	16545.325
1925.26322	16500.925
1928.36908	16480.825
1931.47292	16450.825
1934.57473	16413.725
1937.67453	16347.425
1940.77232	16332.025
1943.86808	16259.925
1946.96184	16238.625
1950.05358	16211.725
1953.14331	16163.525
1956.23103	16082.025
1959.31675	16047.125
1962.40046	16020.125
1965.48217	15960.725
1968.56188	15954.225
1971.63959	15860.525
1974.7153	15829.925
1977.78901	15777.125
1980.86073	15742.125
1983.93046	15679.125
1986.99819	15642.425
1990.06394	15569.325
1993.1277	15579.925
1996.18947	15500.325
1999.24925	15491.325
2002.30706	15447.025
2005.36288	15396.825
2008.41672	15326.425
2011.46859	15287.725
2014.51848	15259.925
2017.56639	15218.825
2020.61233	15193.825
2023.6563	15133.725
2026.6983	15088.825
2029.73833	15079.225
2032.7764	14996.825
2035.8125	14979.825
2038.84664	14946.725
2041.87881	14909.125
2044.90903	14905.925
2047.93729	14882.025
2050.96359	14864.125
2053.98794	14813.225
2057.01034	14806.125
2060.03078	14785.325
2063.04927	14738.025
2066.06582	14763.625
2069.08042	14770.025
2072.09307	14749.625
2075.10378	14726.325
2078.11255	14735.825
2081.11938	14725.725
2084.12426	14743.925
2087.12722	14712.525
2090.12824	14729.925
2093.12732	14722.225
2096.12447	14738.925
2099.11969	14713.925
2102.11299	14747.225
2105.10435	14727.825
2108.09379	14729.525
2111.08131	14731.825
2114.0669	14710.025
2117.05057	14724.825
2120.03233	14738.325
2123.01216	14774.625
2125.99008	14774.525
2128.96609	14799.125
2131.94018	14808.025
2134.91236	14785.425
2137.88263	14794.125
2140.851	14804.025
2143.81746	14814.025
2146.78201	14793.325
2149.74466	14813.225
2152.7054	14822.225
2155.66425	14792.625
2158.6212	14765.125
2161.57625	14768.625
2164.52941	14779.025
2167.48067	14736.825
2170.43004	14780.625
2173.37752	14740.425
2176.32311	14723.325
2179.26681	14744.025
2182.20863	14766.325
2185.14856	14732.325
2188.08661	14745.325
2191.02278	14744.325
2193.95707	14714.125
2196.88948	14708.125
2199.82001	14708.725
2202.74867	14643.125
2205.67545	14645.525
2208.60037	14655.425
2211.52341	14641.925
2214.44458	14590.825
2217.36388	14582.325
2220.28132	14545.425
2223.1969	14459.825
2226.11061	14464.125
2229.02246	14422.125
2231.93245	14405.925
2234.84058	14368.125
2237.74686	14338.225
2240.65128	14348.925
2243.55385	14340.925
2246.45456	14342.625
2249.35343	14273.225
2252.25044	14244.425
2255.14561	14245.525
2258.03893	14229.325
2260.93041	14232.425
2263.82004	14190.125
2266.70783	14161.325
2269.59378	14089.225
2272.4779	14096.325
2275.36017	14074.325
2278.24061	14086.525
2281.11922	14010.225
2283.996	13992.425
2286.87094	13992.925
2289.74405	13951.125
2292.61534	13905.025
2295.4848	13884.825
2298.35243	13894.025
2301.21824	13893.925
2304.08223	13898.325
2306.94439	13865.625
2309.80474	13846.425
2312.66327	13855.025
2315.51999	13829.825
2318.37489	13813.625
2321.22797	13791.625
2324.07925	13746.325
2326.92871	13691.725
2329.77637	13709.925
2332.62222	13682.925
2335.46626	13633.325
2338.3085	13617.025
2341.14893	13617.525
2343.98756	13637.125
2346.8244	13605.225
2349.65943	13604.825
2352.49267	13574.925
2355.32411	13615.325
2358.15376	13612.725
2360.98161	13622.025
2363.80768	13577.525
2366.63195	13597.125
2369.45444	13590.125
2372.27514	13540.025
2375.09405	13563.425
2377.91118	13517.125
2380.72652	13509.525
2383.54009	13461.525
2386.35187	13447.225
2389.16188	13387.725
2391.97011	13398.225
2394.77657	13326.925
2397.58125	13299.825
2400.38416	13313.825
2403.18529	13272.925
2405.98466	13252.525
2408.78226	13228.925
2411.57809	13212.725
2414.37216	13165.825
2417.16446	13191.725
2419.955	13194.325
2422.74378	13167.125
2425.5308	13146.825
2428.31606	13138.525
2431.09956	13159.425
2433.88131	13123.125
2436.6613	13125.525
2439.43954	13142.625
2442.21603	13123.025
2444.99077	13083.625
2447.76377	13090.325
2450.53501	13073.525
2453.30451	13084.125
2456.07226	13045.325
2458.83827	13030.125
2461.60254	13005.525
2464.36507	13003.225
2467.12586	13007.725
2469.88492	12978.325
2472.64224	12975.325
2475.39782	12974.425
2478.15167	12987.225
2480.90379	12971.625
2483.65417	12967.625
2486.40283	12987.225
2489.14976	12960.725
2491.89497	12962.425
2494.63845	12909.325
2497.3802	12941.925
2500.12024	12917.225
2502.85855	12895.325
2505.59514	12883.425
2508.33002	12861.825
2511.06318	12789.825
2513.79462	12807.125
2516.52435	12766.525
2519.25237	12742.325
2521.97867	12693.625
2524.70327	12724.825
2527.42616	12708.925
2530.14734	12702.225
2532.86681	12688.325
2535.58458	12703.525
2538.30065	12684.225
2541.01501	12674.525
2543.72768	12625.425
2546.43864	12647.125
2549.14791	12638.025
2551.85548	12618.025
2554.56136	12593.325
2557.26554	12574.525
2559.96803	12559.825
2562.66883	12512.625
2565.36794	12530.825
2568.06536	12492.425
2570.7611	12474.725
2573.45514	12438.925
2576.14751	12417.125
2578.83819	12409.825
2581.52719	12394.425
2584.21451	12360.625
2586.90015	12311.725
2589.58411	12287.725
2592.2664	12290.525
2594.94701	12277.625
2597.62594	12262.925
2600.30321	12257.625
2602.9788	12258.925
2605.65273	12229.025
2608.32498	12246.425
2610.99557	12202.425
2613.66449	12185.025
2616.33175	12178.425
2618.99734	12205.825
2621.66128	12162.425
2624.32355	12123.225
2626.98416	12096.225
2629.64311	12070.425
2632.30041	12076.625
2634.95605	12063.425
2637.61004	12010.525
2640.26238	12002.025
2642.91306	11985.525
2645.56209	11959.225
2648.20948	11984.225
2650.85521	11983.525
2653.4993	11964.425
2656.14175	11961.725
2658.78255	11965.425
2661.42171	11969.625
2664.05923	11979.425
2666.6951	12002.225
2669.32934	12012.725
2671.96194	11981.725
2674.59291	12009.925
2677.22224	11987.825
2679.84993	12013.525
2682.476	11979.025
2685.10043	12002.425
2687.72324	11949.325
2690.34441	11945.425
2692.96396	11945.125
2695.58188	11976.825
2698.19818	11960.025
2700.81285	11983.025
2703.4259	11979.525
2706.03733	11979.625
2708.64714	11940.225
2711.25533	11986.925
2713.86191	11994.825
2716.46687	12011.025
2719.07021	12002.825
2721.67194	11987.025
2724.27206	11968.325
2726.87057	11960.125
2729.46747	11996.525
2732.06276	11999.225
2734.65644	11958.525
2737.24852	11965.425
2739.83899	11919.225
2742.42786	11932.525
2745.01513	11907.725
2747.60079	11892.225
2750.18486	11891.725
2752.76733	11875.625
2755.3482	11890.225
2757.92747	11846.925
2760.50515	11788.525
2763.08123	11815.325
2765.65573	11780.825
2768.22863	11783.625
2770.79994	11736.725
2773.36967	11734.725
2775.9378	11730.225
2778.50435	11731.725
2781.06932	11690.025
2783.6327	11679.825
2786.1945	11658.425
2788.75471	11649.925
2791.31335	11631.325
2793.87041	11620.825
2796.42589	11567.825
2798.97979	11560.825
2801.53212	11525.225
2804.08288	11524.125
2806.63206	11453.625
2809.17967	11481.325
2811.72571	11392.225
2814.27018	11403.325
2816.81308	11363.125
2819.35442	11344.725
2821.89419	11303.725
2824.43239	11332.125
2826.96904	11319.925
2829.50412	11315.125
2832.03763	11278.025
2834.56959	11305.725
2837.1	11263.225
2839.62884	11260.025
2842.15613	11231.725
2844.68186	11240.325
2847.20604	11208.825
2849.72867	11232.625
2852.24974	11175.025
2854.76927	11202.725
2857.28724	11201.825
2859.80367	11149.525
2862.31855	11148.625
2864.83189	11153.925
2867.34368	11136.325
2869.85393	11158.325
2872.36264	11103.825
2874.8698	11112.025
2877.37543	11115.625
2879.87952	11131.025
2882.38207	11097.225
2884.88308	11107.825
2887.38256	11077.325
2889.88051	11081.225
2892.37692	11076.225
2894.8718	11071.325
2897.36515	11076.825
2899.85698	11107.925
2902.34727	11084.825
2904.83604	11088.325
2907.32328	11133.425
2909.809	11109.425
2912.29319	11093.725
2914.77587	11117.425
2917.25702	11101.425
2919.73665	11111.925
2922.21476	11105.725
2924.69136	11058.125
2927.16644	11063.625
2929.64	11039.725
2932.11205	11020.125
2934.58258	10994.925
2937.05161	10987.925
2939.51912	10986.525
2941.98513	10996.325
2944.44962	10978.725
2946.91261	10935.525
2949.37409	10950.125
2951.83407	10947.525
2954.29254	10945.325
2956.74951	10923.225
2959.20498	10934.625
2961.65895	10939.925
2964.11142	10906.425
2966.56239	10901.725
2969.01186	10893.625
2971.45984	10858.525
2973.90632	10870.125
2976.35131	10838.825
2978.7948	10822.325
2981.23681	10826.625
2983.67732	10791.125
2986.11635	10763.125
2988.55388	10743.925
2990.98993	10716.325
2993.4245	10704.425
2995.85758	10710.825
2998.28917	10654.525
3000.71928	10662.225
3003.14791	10617.925
3005.57506	10595.725
3008.00073	10555.425
3010.42493	10578.925
3012.84764	10568.525
3015.26888	10590.525
3017.68865	10535.925
3020.10694	10534.325
3022.52376	10498.425
3024.9391	10488.025
3027.35298	10451.425
3029.76539	10442.925
3032.17632	10416.725
3034.5858	10409.725
3036.9938	10417.925
3039.40034	10393.125
3041.80542	10375.225
3044.20903	10364.125
3046.61118	10389.625
3049.01187	10354.225
3051.4111	10336.125
3053.80888	10298.425
3056.20519	10275.725
3058.60005	10254.525
3060.99345	10253.725
3063.3854	10225.525
3065.7759	10212.925
3068.16494	10184.025
3070.55254	10151.625
3072.93868	10127.625
3075.32338	10112.225
3077.70662	10123.625
3080.08842	10059.025
3082.46878	10055.625
3084.84769	10036.125
3087.22515	10033.425
3089.60118	10060.725
3091.97576	10031.025
3094.3489	10030.125
3096.72061	10025.825
3099.09087	10064.025
3101.4597	10035.725
3103.82709	10049.225
3106.19305	10023.725
3108.55757	10056.925
3110.92066	9997.125
3113.28232	9995.925
3115.64255	9977.425
3118.00134	9937.425
3120.35871	9917.525
3122.71466	9906.225
3125.06917	9880.325
3127.42226	9873.925
3129.77393	9875.025
