Data from AgNPs_APTES_FTO_UA_100uM_CRN_0uM_R6G_10uM_Scan_RamanShift__58__16-50-22-995.txt Node

Date: Mon Jul 11 16:50:22 BST 2022
User: TCL
Spectrometer: QEP01345
Trigger mode: 4
Integration Time (sec): 7.000000E0
Scans to average: 10
Electric dark correction enabled: true
Nonlinearity correction enabled: false
Boxcar width: 0
XAxis mode: Raman Shifts
Number of Pixels in Spectrum: 1044
>>>>>Begin Spectral Data<<<<<
46.04893	-0.675
50.45542	-0.875
54.85868	-1.175
59.25871	-0.875
63.6555	65.025
68.04907	68.325
72.43941	71.425
76.82654	76.425
81.21044	79.025
85.59113	80.225
89.96862	83.725
94.34289	86.525
98.71396	88.625
103.08183	93.225
107.4465	93.125
111.80798	97.525
116.16626	95.725
120.52136	103.125
124.87327	107.925
129.222	114.325
133.56755	117.025
137.90993	127.525
142.24913	139.225
146.58517	155.625
150.91804	182.525
155.24774	214.125
159.57429	266.225
163.89768	333.225
168.21792	447.525
172.53501	610.625
176.84895	856.725
181.15975	1204.125
185.46741	1689.225
189.77193	2337.425
194.07331	3140.125
198.37157	4060.025
202.6667	5037.825
206.9587	5978.625
211.24758	6936.125
215.53334	7846.725
219.81599	8811.225
224.09553	9885.625
228.37195	11061.425
232.64527	12351.425
236.91549	13765.825
241.18261	15223.525
245.44663	16666.425
249.70755	18013.625
253.96539	19187.125
258.22014	20111.225
262.4718	20814.425
266.72039	21180.525
270.96589	21245.325
275.20832	21175.825
279.44768	20874.125
283.68397	20517.125
287.91719	20185.425
292.14735	19821.525
296.37445	19534.525
300.59849	19366.325
304.81948	19262.825
309.03742	19147.725
313.25231	19088.325
317.46415	19019.625
321.67296	18978.925
325.87872	19003.525
330.08145	19092.925
334.28114	19237.825
338.47781	19458.625
342.67145	19695.125
346.86207	19936.325
351.04966	20208.425
355.23424	20507.125
359.4158	20776.825
363.59435	21051.725
367.76989	21349.625
371.94243	21569.725
376.11196	21792.025
380.27849	21987.425
384.44203	22204.325
388.60257	22413.025
392.76012	22603.025
396.91468	22858.825
401.06626	23070.525
405.21485	23259.525
409.36047	23351.225
413.50311	23383.125
417.64277	23406.925
421.77947	23479.325
425.9132	23512.525
430.04396	23685.525
434.17176	23828.925
438.2966	24029.325
442.41849	24231.425
446.53742	24487.725
450.6534	24735.225
454.76644	24993.825
458.87653	25171.125
462.98368	25341.325
467.08789	25428.625
471.18916	25440.725
475.2875	25427.225
479.38291	25389.225
483.4754	25432.025
487.56496	25462.725
491.6516	25524.225
495.73531	25555.525
499.81612	25665.525
503.89401	25861.925
507.96899	25926.825
512.04106	26034.125
516.11023	26099.925
520.1765	26087.825
524.23987	26151.425
528.30034	26147.025
532.35792	26214.625
536.41261	26159.525
540.46441	26204.625
544.51333	26262.725
548.55936	26362.825
552.60252	26461.225
556.64279	26639.325
560.6802	26821.225
564.71473	26926.925
568.7464	26939.125
572.7752	26957.225
576.80114	26936.225
580.82422	26997.925
584.84444	27129.025
588.86181	27220.025
592.87633	27369.725
596.888	27540.925
600.89682	27767.125
604.9028	28392.125
608.90594	29425.025
612.90624	30228.425
616.90371	29597.925
620.89834	28426.525
624.89015	27988.525
628.87913	28035.925
632.86528	28219.825
636.84862	28345.025
640.82913	28329.325
644.80683	28263.525
648.78172	28215.825
652.75379	28315.925
656.72306	28532.625
660.68952	28709.725
664.65319	28812.025
668.61405	28871.925
672.57211	29022.425
676.52738	29109.025
680.47986	29172.825
684.42955	29232.825
688.37646	29352.125
692.32058	29516.725
696.26192	29682.325
700.20048	29838.625
704.13626	29833.025
708.06928	29768.725
711.99952	29704.425
715.927	29648.325
719.85171	29645.725
723.77365	29629.125
727.69284	29596.425
731.60928	29526.125
735.52295	29548.725
739.43388	29593.925
743.34206	29724.525
747.24749	29814.325
751.15017	29836.925
755.05012	29915.025
758.94733	30008.225
762.8418	30354.325
766.73354	30847.925
770.62254	31426.825
774.50882	31714.725
778.39237	31677.725
782.27321	31348.625
786.15132	30958.325
790.02671	30604.725
793.89938	30421.125
797.76935	30302.025
801.6366	30331.725
805.50115	30281.525
809.36299	30360.125
813.22213	30295.525
817.07857	30328.825
820.93231	30358.525
824.78336	30378.225
828.63172	30390.825
832.47738	30425.825
836.32036	30468.025
840.16066	30511.525
843.99827	30584.125
847.8332	30638.425
851.66546	30648.525
855.49504	30717.925
859.32195	30738.725
863.1462	30835.325
866.96777	30878.925
870.78668	30944.025
874.60293	31004.425
878.41652	31085.125
882.22745	31147.425
886.03573	31213.525
889.84136	31225.625
893.64433	31282.625
897.44466	31254.925
901.24235	31250.425
905.0374	31263.825
908.8298	31245.625
912.61957	31234.325
916.40671	31296.625
920.19121	31260.125
923.97308	31248.225
927.75233	31222.525
931.52895	31254.625
935.30295	31254.625
939.07433	31191.025
942.84309	31147.425
946.60924	31136.025
950.37278	31076.625
954.13371	31094.525
957.89203	31033.325
961.64774	31072.225
965.40086	31037.325
969.15137	31005.825
972.89929	31012.025
976.64461	31019.625
980.38733	31028.925
984.12747	31064.025
987.86502	31077.225
991.59999	31133.625
995.33237	31198.225
999.06217	31328.225
1002.78939	31485.425
1006.51404	31600.025
1010.23611	31765.525
1013.95561	31838.725
1017.67255	31905.425
1021.38692	31975.325
1025.09872	31856.125
1028.80796	31782.225
1032.51465	31723.025
1036.21877	31731.525
1039.92035	31715.625
1043.61937	31849.225
1047.31584	31865.225
1051.00976	31938.125
1054.70114	31979.925
1058.38998	32014.425
1062.07627	32081.425
1065.76003	32199.125
1069.44126	32337.725
1073.11995	32521.125
1076.79611	32804.825
1080.46974	32913.325
1084.14085	32858.125
1087.80943	32861.925
1091.47549	32851.825
1095.13903	32925.025
1098.80005	32935.225
1102.45857	32992.725
1106.11456	33023.425
1109.76805	32856.625
1113.41903	32830.025
1117.06751	32698.825
1120.71348	32754.225
1124.35696	32777.625
1127.99793	32818.325
1131.63641	32927.225
1135.2724	32875.825
1138.90589	32827.625
1142.5369	32759.925
1146.16542	32722.525
1149.79145	32618.725
1153.415	32481.425
1157.03607	32343.225
1160.65467	32331.925
1164.27079	32463.425
1167.88443	32655.125
1171.49561	32891.525
1175.10432	33233.725
1178.71056	33703.125
1182.31434	34187.425
1185.91565	34521.425
1189.51451	34770.625
1193.11091	34893.625
1196.70485	34845.225
1200.29634	34753.325
1203.88538	34475.625
1207.47197	34238.425
1211.05612	34038.025
1214.63782	33817.825
1218.21708	33611.425
1221.79391	33416.425
1225.36829	33348.725
1228.94024	33320.125
1232.50976	33260.425
1236.07685	33235.225
1239.6415	33294.525
1243.20374	33329.225
1246.76355	33438.725
1250.32093	33581.425
1253.8759	33659.025
1257.42845	33908.525
1260.97859	34127.225
1264.52631	34293.825
1268.07163	34370.225
1271.61453	34539.725
1275.15503	34497.625
1278.69312	34526.625
1282.22882	34522.825
1285.76211	34529.125
1289.29301	34512.425
1292.82151	34655.425
1296.34761	34820.425
1299.87133	35047.125
1303.39266	35372.525
1306.9116	35818.625
1310.42815	36280.925
1313.94233	36538.525
1317.45412	36577.425
1320.96354	36472.625
1324.47058	36223.625
1327.97525	35856.225
1331.47754	35579.425
1334.97747	35436.725
1338.47502	35623.525
1341.97022	36069.825
1345.46305	36707.925
1348.95352	37291.125
1352.44163	37627.825
1355.92738	37716.525
1359.41078	37821.225
1362.89183	37756.925
1366.37053	37158.825
1369.84688	36180.125
1373.32088	35197.125
1376.79254	34541.925
1380.26186	34009.825
1383.72883	33690.025
1387.19347	33454.225
1390.65578	33160.625
1394.11575	32906.125
1397.57339	32694.025
1401.0287	32557.525
1404.48168	32455.425
1407.93234	32433.525
1411.38068	32457.225
1414.82669	32488.125
1418.27039	32365.725
1421.71177	32267.125
1425.15083	32164.525
1428.58758	32063.425
1432.02203	32060.925
1435.45416	31972.425
1438.88399	31938.325
1442.31151	31907.525
1445.73673	31902.825
1449.15965	31957.425
1452.58027	31983.925
1455.9986	31964.825
1459.41463	31955.325
1462.82837	32158.125
1466.23982	32347.025
1469.64898	32616.525
1473.05586	32778.725
1476.46045	32858.325
1479.86276	32928.825
1483.26279	33060.925
1486.66054	33144.425
1490.05602	33285.925
1493.44922	33543.825
1496.84016	33854.425
1500.22882	34392.425
1503.61521	34974.125
1506.99934	35426.125
1510.38121	35565.725
1513.76081	35304.125
1517.13816	34897.125
1520.51324	34428.325
1523.88607	34040.525
1527.25665	33760.625
1530.62498	33676.225
1533.99105	33615.925
1537.35488	33683.225
1540.71647	33720.125
1544.07581	33735.825
1547.4329	33697.025
1550.78776	33724.125
1554.14038	33669.425
1557.49077	33634.125
1560.83892	33669.925
1564.18484	33788.825
1567.52853	33933.625
1570.86999	33976.625
1574.20922	34064.525
1577.54624	33981.625
1580.88103	33847.425
1584.2136	33612.925
1587.54395	33469.925
1590.87208	33479.025
1594.19801	33680.225
1597.52172	33973.325
1600.84321	34117.725
1604.16251	34111.525
1607.47959	33955.425
1610.79447	33581.725
1614.10715	33034.525
1617.41763	32556.725
1620.7259	32176.825
1624.03199	31935.125
1627.33587	31818.925
1630.63757	31744.725
1633.93707	31755.625
1637.23439	32065.225
1640.52951	32528.225
1643.82246	33049.825
1647.11321	33475.625
1650.40179	33629.525
1653.68819	33241.025
1656.97241	32514.025
1660.25446	31828.325
1663.53433	31260.225
1666.81203	30931.125
1670.08756	30667.925
1673.36092	30485.425
1676.63211	30327.625
1679.90115	30243.525
1683.16801	30124.925
1686.43272	30041.225
1689.69527	29939.125
1692.95567	29885.325
1696.2139	29961.825
1699.46999	29930.825
1702.72392	29951.825
1705.97571	29899.425
1709.22535	29925.425
1712.47284	29894.125
1715.71819	29872.325
1718.96139	29793.025
1722.20246	29750.025
1725.44139	29646.725
1728.67818	29595.925
1731.91284	29513.725
1735.14537	29455.525
1738.37576	29327.125
1741.60403	29291.525
1744.83017	29175.325
1748.05418	29117.125
1751.27607	29091.425
1754.49584	29053.425
1757.71349	29052.125
1760.92903	28981.825
1764.14244	28977.225
1767.35375	28993.525
1770.56294	28955.225
1773.77002	28946.025
1776.97499	28924.625
1780.17785	28870.225
1783.37861	28834.825
1786.57727	28822.225
1789.77382	28742.725
1792.96828	28754.925
1796.16064	28715.225
1799.3509	28676.125
1802.53907	28648.625
1805.72514	28561.625
1808.90913	28476.325
1812.09102	28422.625
1815.27083	28374.225
1818.44856	28368.425
1821.6242	28310.825
1824.79776	28277.325
1827.96924	28276.325
1831.13864	28207.825
1834.30597	28211.925
1837.47122	28192.325
1840.6344	28121.625
1843.7955	28104.225
1846.95454	28085.525
1850.11151	28115.825
1853.26642	28067.525
1856.41926	28061.725
1859.57004	28056.125
1862.71876	28050.325
1865.86542	28035.925
1869.01003	27955.125
1872.15258	27901.125
1875.29308	27909.425
1878.43152	27889.925
1881.56792	27842.425
1884.70227	27787.125
1887.83457	27737.925
1890.96482	27739.425
1894.09304	27706.925
1897.21921	27655.425
1900.34335	27614.525
1903.46544	27586.325
1906.58551	27566.525
1909.70353	27507.125
1912.81953	27524.425
1915.93349	27455.425
1919.04543	27377.325
1922.15534	27294.925
1925.26322	27298.125
1928.36908	27293.525
1931.47292	27188.425
1934.57473	27123.625
1937.67453	27107.625
1940.77232	27012.125
1943.86808	26961.725
1946.96184	26967.325
1950.05358	26884.325
1953.14331	26779.125
1956.23103	26728.925
1959.31675	26587.525
1962.40046	26570.625
1965.48217	26472.725
1968.56188	26417.025
1971.63959	26349.725
1974.7153	26262.725
1977.78901	26166.025
1980.86073	26086.525
1983.93046	26029.425
1986.99819	25932.325
1990.06394	25858.425
1993.1277	25767.625
1996.18947	25713.425
1999.24925	25657.725
2002.30706	25576.325
2005.36288	25525.925
2008.41672	25457.125
2011.46859	25424.725
2014.51848	25299.025
2017.56639	25223.425
2020.61233	25095.325
2023.6563	25061.025
2026.6983	25006.925
2029.73833	24953.325
2032.7764	24825.625
2035.8125	24805.325
2038.84664	24729.925
2041.87881	24710.725
2044.90903	24648.325
2047.93729	24581.925
2050.96359	24576.825
2053.98794	24507.825
2057.01034	24545.125
2060.03078	24522.625
2063.04927	24504.925
2066.06582	24455.225
2069.08042	24414.025
2072.09307	24442.225
2075.10378	24397.225
2078.11255	24448.825
2081.11938	24384.525
2084.12426	24380.025
2087.12722	24360.525
2090.12824	24339.725
2093.12732	24348.925
2096.12447	24392.625
2099.11969	24343.725
2102.11299	24344.325
2105.10435	24332.925
2108.09379	24365.325
2111.08131	24384.925
2114.0669	24354.725
2117.05057	24407.125
2120.03233	24432.925
2123.01216	24408.225
2125.99008	24408.525
2128.96609	24406.525
2131.94018	24485.625
2134.91236	24536.325
2137.88263	24494.525
2140.851	24510.125
2143.81746	24519.425
2146.78201	24558.625
2149.74466	24570.325
2152.7054	24585.825
2155.66425	24565.525
2158.6212	24519.225
2161.57625	24514.525
2164.52941	24509.925
2167.48067	24454.725
2170.43004	24505.125
2173.37752	24432.825
2176.32311	24447.225
2179.26681	24435.125
2182.20863	24397.225
2185.14856	24433.825
2188.08661	24430.625
2191.02278	24476.225
2193.95707	24425.325
2196.88948	24397.525
2199.82001	24350.925
2202.74867	24352.025
2205.67545	24328.125
2208.60037	24276.225
2211.52341	24216.925
2214.44458	24166.325
2217.36388	24079.125
2220.28132	24092.025
2223.1969	23987.925
2226.11061	23933.525
2229.02246	23946.025
2231.93245	23895.025
2234.84058	23827.225
2237.74686	23786.825
2240.65128	23749.525
2243.55385	23738.025
2246.45456	23703.925
2249.35343	23692.825
2252.25044	23667.725
2255.14561	23577.425
2258.03893	23589.825
2260.93041	23526.925
2263.82004	23450.425
2266.70783	23399.825
2269.59378	23394.925
2272.4779	23328.125
2275.36017	23216.025
2278.24061	23204.425
2281.11922	23162.925
2283.996	23092.725
2286.87094	23018.825
2289.74405	22994.425
2292.61534	22960.225
2295.4848	22966.025
2298.35243	22945.625
2301.21824	22892.525
2304.08223	22892.325
2306.94439	22872.425
2309.80474	22821.625
2312.66327	22836.625
2315.51999	22757.025
2318.37489	22758.625
2321.22797	22725.425
2324.07925	22675.325
2326.92871	22616.825
2329.77637	22559.325
2332.62222	22506.725
2335.46626	22449.125
2338.3085	22418.925
2341.14893	22394.625
2343.98756	22381.125
2346.8244	22348.325
2349.65943	22345.425
2352.49267	22338.925
2355.32411	22254.225
2358.15376	22238.225
2360.98161	22229.025
2363.80768	22249.125
2366.63195	22201.625
2369.45444	22145.325
2372.27514	22143.925
2375.09405	22109.825
2377.91118	22066.425
2380.72652	22048.625
2383.54009	22003.025
2386.35187	21969.925
2389.16188	21939.725
2391.97011	21840.625
2394.77657	21787.625
2397.58125	21737.725
2400.38416	21753.525
2403.18529	21680.625
2405.98466	21655.025
2408.78226	21583.525
2411.57809	21579.825
2414.37216	21549.625
2417.16446	21514.425
2419.955	21527.125
2422.74378	21527.925
2425.5308	21495.125
2428.31606	21503.125
2431.09956	21453.725
2433.88131	21390.825
2436.6613	21351.425
2439.43954	21334.425
2442.21603	21335.625
2444.99077	21309.525
2447.76377	21298.625
2450.53501	21228.925
2453.30451	21218.225
2456.07226	21151.225
2458.83827	21134.525
2461.60254	21079.525
2464.36507	21080.125
2467.12586	21036.325
2469.88492	21008.525
2472.64224	20960.025
2475.39782	20981.825
2478.15167	20967.025
2480.90379	20950.225
2483.65417	20939.625
2486.40283	20922.825
2489.14976	20889.325
2491.89497	20839.925
2494.63845	20846.925
2497.3802	20832.425
2500.12024	20821.725
2502.85855	20715.825
2505.59514	20706.225
2508.33002	20682.125
2511.06318	20646.825
2513.79462	20596.625
2516.52435	20562.425
2519.25237	20547.925
2521.97867	20505.125
2524.70327	20503.825
2527.42616	20458.325
2530.14734	20422.825
2532.86681	20412.125
2535.58458	20364.525
2538.30065	20317.825
2541.01501	20324.225
2543.72768	20279.425
2546.43864	20234.525
2549.14791	20197.625
2551.85548	20161.425
2554.56136	20127.625
2557.26554	20056.925
2559.96803	20045.325
2562.66883	19953.025
2565.36794	19921.925
2568.06536	19921.525
2570.7611	19880.825
2573.45514	19838.625
2576.14751	19797.825
2578.83819	19758.025
2581.52719	19750.925
2584.21451	19700.925
2586.90015	19614.925
2589.58411	19559.025
2592.2664	19552.625
2594.94701	19522.325
2597.62594	19499.325
2600.30321	19466.525
2602.9788	19413.525
2605.65273	19381.625
2608.32498	19374.225
2610.99557	19328.725
2613.66449	19328.025
2616.33175	19262.625
2618.99734	19249.325
2621.66128	19193.325
2624.32355	19151.025
2626.98416	19098.025
2629.64311	19044.925
2632.30041	19033.025
2634.95605	19011.725
2637.61004	18935.925
2640.26238	18901.825
2642.91306	18931.425
2645.56209	18888.925
2648.20948	18855.925
2650.85521	18826.825
2653.4993	18802.725
2656.14175	18777.325
2658.78255	18810.325
2661.42171	18786.025
2664.05923	18791.925
2666.6951	18797.225
2669.32934	18802.125
2671.96194	18805.625
2674.59291	18762.225
2677.22224	18707.725
2679.84993	18760.325
2682.476	18708.125
2685.10043	18741.725
2687.72324	18703.825
2690.34441	18677.325
2692.96396	18669.525
2695.58188	18688.525
2698.19818	18689.525
2700.81285	18683.025
2703.4259	18648.425
2706.03733	18652.025
2708.64714	18613.425
2711.25533	18618.625
2713.86191	18588.425
2716.46687	18631.925
2719.07021	18608.025
2721.67194	18600.025
2724.27206	18584.025
2726.87057	18607.825
2729.46747	18613.525
2732.06276	18600.525
2734.65644	18585.125
2737.24852	18577.725
2739.83899	18536.025
2742.42786	18504.425
2745.01513	18441.825
2747.60079	18461.525
2750.18486	18374.425
2752.76733	18389.425
2755.3482	18345.825
2757.92747	18341.625
2760.50515	18286.825
2763.08123	18302.425
2765.65573	18232.625
2768.22863	18237.925
2770.79994	18162.625
2773.36967	18150.725
2775.9378	18112.825
2778.50435	18127.425
2781.06932	18092.425
2783.6327	17993.825
2786.1945	18017.625
2788.75471	17949.925
2791.31335	17839.525
2793.87041	17878.225
2796.42589	17834.525
2798.97979	17781.925
2801.53212	17735.625
2804.08288	17705.825
2806.63206	17662.325
2809.17967	17559.725
2811.72571	17494.825
2814.27018	17524.225
2816.81308	17447.925
2819.35442	17445.625
2821.89419	17364.925
2824.43239	17330.025
2826.96904	17303.425
2829.50412	17279.525
2832.03763	17202.125
2834.56959	17225.825
2837.1	17200.925
2839.62884	17180.225
2842.15613	17138.525
2844.68186	17143.725
2847.20604	17127.325
2849.72867	17104.925
2852.24974	17053.125
2854.76927	17035.925
2857.28724	16991.425
2859.80367	16995.225
2862.31855	16912.225
2864.83189	16923.225
2867.34368	16868.725
2869.85393	16891.425
2872.36264	16841.925
2874.8698	16818.225
2877.37543	16779.925
2879.87952	16772.425
2882.38207	16761.125
2884.88308	16751.925
2887.38256	16774.825
2889.88051	16738.925
2892.37692	16710.125
2894.8718	16722.225
2897.36515	16701.925
2899.85698	16715.825
2902.34727	16706.425
2904.83604	16712.225
2907.32328	16753.225
2909.809	16723.525
2912.29319	16718.125
2914.77587	16708.025
2917.25702	16692.925
2919.73665	16666.525
2922.21476	16670.225
2924.69136	16616.525
2927.16644	16634.425
2929.64	16615.325
2932.11205	16590.425
2934.58258	16545.025
2937.05161	16534.125
2939.51912	16522.025
2941.98513	16500.825
2944.44962	16490.525
2946.91261	16467.425
2949.37409	16477.625
2951.83407	16505.625
2954.29254	16492.025
2956.74951	16440.925
2959.20498	16451.525
2961.65895	16410.225
2964.11142	16450.025
2966.56239	16420.125
2969.01186	16462.825
2971.45984	16425.125
2973.90632	16410.325
2976.35131	16358.925
2978.7948	16348.525
2981.23681	16293.625
2983.67732	16297.525
2986.11635	16244.825
2988.55388	16211.925
2990.98993	16208.025
2993.4245	16142.625
2995.85758	16154.425
2998.28917	16096.725
3000.71928	16056.625
3003.14791	16007.125
3005.57506	15989.225
3008.00073	15905.525
3010.42493	15935.225
3012.84764	15899.225
3015.26888	15893.525
3017.68865	15839.325
3020.10694	15837.725
3022.52376	15808.425
3024.9391	15795.025
3027.35298	15771.825
3029.76539	15734.425
3032.17632	15686.425
3034.5858	15662.625
3036.9938	15676.325
3039.40034	15633.025
3041.80542	15637.225
3044.20903	15590.725
3046.61118	15591.725
3049.01187	15529.925
3051.4111	15521.925
3053.80888	15496.125
3056.20519	15447.825
3058.60005	15447.925
3060.99345	15413.025
3063.3854	15356.025
3065.7759	15322.325
3068.16494	15300.425
3070.55254	15254.925
3072.93868	15262.825
3075.32338	15205.525
3077.70662	15158.525
3080.08842	15126.925
3082.46878	15095.525
3084.84769	15071.125
3087.22515	15078.125
3089.60118	15106.525
3091.97576	15069.125
3094.3489	15095.725
3096.72061	15126.625
3099.09087	15087.225
3101.4597	15093.925
3103.82709	15102.825
3106.19305	15072.725
3108.55757	15063.525
3110.92066	15015.925
3113.28232	15008.625
3115.64255	14934.925
3118.00134	14916.725
3120.35871	14896.225
3122.71466	14840.625
3125.06917	14826.825
3127.42226	14775.125
3129.77393	14770.625
