Data from AgNPs_APTES_FTO_UA_100uM_CRN_0uM_R6G_10uM_Scan_RamanShift__38__16-27-02-971.txt Node

Date: Mon Jul 11 16:27:02 BST 2022
User: TCL
Spectrometer: QEP01345
Trigger mode: 4
Integration Time (sec): 7.000000E0
Scans to average: 10
Electric dark correction enabled: true
Nonlinearity correction enabled: false
Boxcar width: 0
XAxis mode: Raman Shifts
Number of Pixels in Spectrum: 1044
>>>>>Begin Spectral Data<<<<<
46.04893	-0.725
50.45542	0.675
54.85868	0.575
59.25871	-2.625
63.6555	37.975
68.04907	42.875
72.43941	44.175
76.82654	46.575
81.21044	48.875
85.59113	50.975
89.96862	54.775
94.34289	56.475
98.71396	58.675
103.08183	60.875
107.4465	62.575
111.80798	63.275
116.16626	64.675
120.52136	68.575
124.87327	70.675
129.222	76.775
133.56755	76.175
137.90993	84.775
142.24913	94.575
146.58517	101.275
150.91804	117.175
155.24774	142.275
159.57429	174.075
163.89768	227.075
168.21792	300.775
172.53501	403.875
176.84895	561.675
181.15975	779.775
185.46741	1095.075
189.77193	1508.075
194.07331	2021.475
198.37157	2599.375
202.6667	3206.875
206.9587	3829.575
211.24758	4445.375
215.53334	5131.775
219.81599	5912.775
224.09553	6822.875
228.37195	7813.475
232.64527	8839.375
236.91549	9798.975
241.18261	10612.875
245.44663	11189.175
249.70755	11579.175
253.96539	11871.375
258.22014	12101.575
262.4718	12247.875
266.72039	12324.575
270.96589	12259.275
275.20832	12009.775
279.44768	11632.275
283.68397	11288.175
287.91719	11176.575
292.14735	11395.075
296.37445	12037.475
300.59849	13076.375
304.81948	14229.775
309.03742	14979.175
313.25231	14905.275
317.46415	13725.475
321.67296	11997.975
325.87872	10726.675
330.08145	10180.975
334.28114	10230.975
338.47781	10567.175
342.67145	11077.375
346.86207	11979.675
351.04966	13300.675
355.23424	14682.675
359.4158	15613.875
363.59435	15995.075
367.76989	15999.775
371.94243	15804.475
376.11196	15646.975
380.27849	15389.475
384.44203	14964.375
388.60257	14501.275
392.76012	14217.575
396.91468	14298.575
401.06626	14744.975
405.21485	14858.575
409.36047	14040.075
413.50311	12616.275
417.64277	11375.775
421.77947	10641.075
425.9132	10247.675
430.04396	10155.575
434.17176	10244.675
438.2966	10522.275
442.41849	10972.775
446.53742	11428.975
450.6534	11790.875
454.76644	11876.575
458.87653	11763.175
462.98368	11547.275
467.08789	11182.775
471.18916	10762.275
475.2875	10334.975
479.38291	10032.975
483.4754	9885.775
487.56496	9849.775
491.6516	9874.875
495.73531	9912.875
499.81612	9936.275
503.89401	10146.675
507.96899	10457.775
512.04106	10934.275
516.11023	11521.875
520.1765	11909.475
524.23987	11928.675
528.30034	11609.775
532.35792	11232.875
536.41261	10751.275
540.46441	10201.175
544.51333	9875.775
548.55936	9847.475
552.60252	10079.375
556.64279	10383.775
560.6802	10557.575
564.71473	11028.175
568.7464	11930.575
572.7752	11974.675
576.80114	10881.775
580.82422	9921.575
584.84444	9623.775
588.86181	9654.275
592.87633	9867.475
596.888	10207.075
600.89682	11221.175
604.9028	14604.875
608.90594	22974.775
612.90624	31782.975
616.90371	27692.575
620.89834	16507.675
624.89015	12346.475
628.87913	12020.675
632.86528	12756.175
636.84862	13277.275
640.82913	12702.175
644.80683	11403.075
648.78172	10469.175
652.75379	10326.175
656.72306	10998.875
660.68952	11601.675
664.65319	10881.375
668.61405	9720.375
672.57211	9283.275
676.52738	9302.675
680.47986	9239.275
684.42955	9121.975
688.37646	9131.375
692.32058	9193.175
696.26192	9297.575
700.20048	9462.975
704.13626	9462.675
708.06928	9292.175
711.99952	9126.475
715.927	9150.475
719.85171	9351.575
723.77365	9548.275
727.69284	9556.175
731.60928	9457.875
735.52295	9306.175
739.43388	9236.175
743.34206	9235.475
747.24749	9220.275
751.15017	9272.075
755.05012	9582.075
758.94733	10753.275
762.8418	13429.675
766.73354	17524.675
770.62254	21285.675
774.50882	23284.675
778.39237	21910.075
782.27321	17397.475
786.15132	13096.975
790.02671	10804.475
793.89938	9873.375
797.76935	9565.975
801.6366	9542.775
805.50115	9753.175
809.36299	9979.475
813.22213	10007.675
817.07857	9865.675
820.93231	9643.675
824.78336	9429.775
828.63172	9318.375
832.47738	9168.075
836.32036	9022.875
840.16066	8865.975
843.99827	8739.475
847.8332	8694.675
851.66546	8692.875
855.49504	8715.575
859.32195	8706.775
863.1462	8670.775
866.96777	8681.975
870.78668	8825.075
874.60293	9102.075
878.41652	9439.175
882.22745	9790.475
886.03573	10020.275
889.84136	9967.775
893.64433	9736.775
897.44466	9458.175
901.24235	9207.475
905.0374	8887.475
908.8298	8619.275
912.61957	8417.075
916.40671	8353.275
920.19121	8381.875
923.97308	8496.375
927.75233	8790.075
931.52895	9116.575
935.30295	8917.075
939.07433	8405.675
942.84309	7990.275
946.60924	7771.475
950.37278	7682.175
954.13371	7649.075
957.89203	7648.675
961.64774	7615.775
965.40086	7585.075
969.15137	7519.875
972.89929	7494.375
976.64461	7487.275
980.38733	7477.075
984.12747	7503.775
987.86502	7565.775
991.59999	7662.975
995.33237	7820.275
999.06217	8072.075
1002.78939	8404.375
1006.51404	8795.175
1010.23611	9162.675
1013.95561	9390.475
1017.67255	9387.375
1021.38692	9230.875
1025.09872	8962.275
1028.80796	8710.575
1032.51465	8628.275
1036.21877	8617.975
1039.92035	8660.275
1043.61937	8657.975
1047.31584	8652.875
1051.00976	8579.075
1054.70114	8519.475
1058.38998	8494.575
1062.07627	8555.975
1065.76003	8641.475
1069.44126	8717.475
1073.11995	8873.875
1076.79611	9163.175
1080.46974	9624.075
1084.14085	10192.975
1087.80943	10668.675
1091.47549	10679.375
1095.13903	10149.775
1098.80005	9486.075
1102.45857	9099.375
1106.11456	9142.675
1109.76805	9502.775
1113.41903	10220.675
1117.06751	11274.675
1120.71348	12685.975
1124.35696	14296.375
1127.99793	15323.475
1131.63641	14895.175
1135.2724	13582.375
1138.90589	12478.375
1142.5369	11628.075
1146.16542	10871.275
1149.79145	10244.275
1153.415	9866.775
1157.03607	9763.975
1160.65467	9880.975
1164.27079	10386.575
1167.88443	11266.975
1171.49561	12792.075
1175.10432	15453.175
1178.71056	19070.575
1182.31434	21743.375
1185.91565	22154.075
1189.51451	20929.675
1193.11091	18900.075
1196.70485	17052.975
1200.29634	15907.275
1203.88538	14967.875
1207.47197	13561.675
1211.05612	12248.075
1214.63782	11304.275
1218.21708	10690.875
1221.79391	10328.475
1225.36829	10135.975
1228.94024	9995.975
1232.50976	9907.475
1236.07685	9947.675
1239.6415	10056.275
1243.20374	10195.175
1246.76355	10327.775
1250.32093	10489.975
1253.8759	10781.875
1257.42845	11260.875
1260.97859	11823.775
1264.52631	12460.175
1268.07163	13038.075
1271.61453	13448.275
1275.15503	13570.575
1278.69312	13472.275
1282.22882	13551.975
1285.76211	14129.075
1289.29301	14988.075
1292.82151	15794.375
1296.34761	16743.275
1299.87133	18397.075
1303.39266	21398.075
1306.9116	25730.275
1310.42815	29732.675
1313.94233	30381.375
1317.45412	27440.475
1320.96354	23375.375
1324.47058	19782.875
1327.97525	17218.975
1331.47754	15910.775
1334.97747	15690.375
1338.47502	16302.175
1341.97022	17732.475
1345.46305	20059.475
1348.95352	23180.675
1352.44163	27048.775
1355.92738	32403.175
1359.41078	39635.675
1362.89183	44088.475
1366.37053	39919.175
1369.84688	31207.875
1373.32088	24077.675
1376.79254	19618.875
1380.26186	17159.475
1383.72883	15650.475
1387.19347	14419.775
1390.65578	13232.175
1394.11575	12357.475
1397.57339	11876.275
1401.0287	11687.375
1404.48168	11577.075
1407.93234	11625.975
1411.38068	11763.175
1414.82669	11952.675
1418.27039	12016.475
1421.71177	11864.375
1425.15083	11628.075
1428.58758	11657.675
1432.02203	11949.375
1435.45416	12136.375
1438.88399	12187.275
1442.31151	12213.175
1445.73673	12379.075
1449.15965	12582.175
1452.58027	12557.275
1455.9986	12458.575
1459.41463	12442.475
1462.82837	12697.375
1466.23982	13099.375
1469.64898	13446.075
1473.05586	13580.775
1476.46045	13636.375
1479.86276	13893.675
1483.26279	14356.575
1486.66054	15082.975
1490.05602	16212.175
1493.44922	17980.775
1496.84016	20798.175
1500.22882	25318.775
1503.61521	31399.475
1506.99934	37594.675
1510.38121	41679.275
1513.76081	41188.075
1517.13816	35756.575
1520.51324	28440.375
1523.88607	22407.175
1527.25665	18748.075
1530.62498	16793.475
1533.99105	15728.075
1537.35488	15179.275
1540.71647	14987.975
1544.07581	15220.875
1547.4329	15497.175
1550.78776	15782.875
1554.14038	15882.375
1557.49077	15940.775
1560.83892	16301.975
1564.18484	17120.075
1567.52853	18228.175
1570.86999	19220.975
1574.20922	19756.675
1577.54624	19226.275
1580.88103	17296.175
1584.2136	15031.575
1587.54395	13714.475
1590.87208	13612.575
1594.19801	14567.575
1597.52172	15949.375
1600.84321	16554.975
1604.16251	15933.975
1607.47959	14833.975
1610.79447	13567.475
1614.10715	12329.975
1617.41763	11357.875
1620.7259	10785.675
1624.03199	10585.575
1627.33587	10627.375
1630.63757	11010.275
1633.93707	11779.875
1637.23439	13071.875
1640.52951	15231.875
1643.82246	18479.875
1647.11321	22410.975
1650.40179	24860.275
1653.68819	23618.475
1656.97241	19522.875
1660.25446	15378.475
1663.53433	12567.775
1666.81203	10934.375
1670.08756	9968.775
1673.36092	9345.975
1676.63211	8902.375
1679.90115	8585.075
1683.16801	8295.975
1686.43272	8119.675
1689.69527	7951.775
1692.95567	7799.575
1696.2139	7695.075
1699.46999	7621.775
1702.72392	7545.675
1705.97571	7483.375
1709.22535	7425.975
1712.47284	7407.375
1715.71819	7378.275
1718.96139	7316.775
1722.20246	7263.675
1725.44139	7140.575
1728.67818	7003.375
1731.91284	6895.575
1735.14537	6794.875
1738.37576	6729.575
1741.60403	6683.775
1744.83017	6637.575
1748.05418	6605.075
1751.27607	6559.875
1754.49584	6525.275
1757.71349	6517.775
1760.92903	6486.175
1764.14244	6456.375
1767.35375	6424.975
1770.56294	6360.775
1773.77002	6318.375
1776.97499	6279.775
1780.17785	6234.075
1783.37861	6212.375
1786.57727	6190.375
1789.77382	6158.975
1792.96828	6151.675
1796.16064	6163.075
1799.3509	6133.375
1802.53907	6120.375
1805.72514	6073.375
1808.90913	6041.775
1812.09102	5999.775
1815.27083	5973.975
1818.44856	5950.275
1821.6242	5957.475
1824.79776	5938.075
1827.96924	5904.675
1831.13864	5898.875
1834.30597	5857.975
1837.47122	5867.875
1840.6344	5825.075
1843.7955	5841.975
1846.95454	5824.575
1850.11151	5825.075
1853.26642	5808.075
1856.41926	5807.875
1859.57004	5791.175
1862.71876	5796.675
1865.86542	5800.775
1869.01003	5788.975
1872.15258	5803.575
1875.29308	5792.775
1878.43152	5792.075
1881.56792	5786.775
1884.70227	5782.175
1887.83457	5755.975
1890.96482	5758.675
1894.09304	5745.575
1897.21921	5740.175
1900.34335	5740.775
1903.46544	5729.575
1906.58551	5732.175
1909.70353	5716.975
1912.81953	5733.275
1915.93349	5716.475
1919.04543	5700.875
1922.15534	5685.775
1925.26322	5659.575
1928.36908	5644.675
1931.47292	5633.775
1934.57473	5596.375
1937.67453	5594.575
1940.77232	5549.275
1943.86808	5534.075
1946.96184	5527.175
1950.05358	5516.275
1953.14331	5490.075
1956.23103	5498.975
1959.31675	5465.575
1962.40046	5468.475
1965.48217	5455.275
1968.56188	5427.675
1971.63959	5445.275
1974.7153	5426.775
1977.78901	5405.075
1980.86073	5377.475
1983.93046	5369.475
1986.99819	5333.375
1990.06394	5298.375
1993.1277	5293.375
1996.18947	5240.675
1999.24925	5238.375
2002.30706	5219.475
2005.36288	5189.675
2008.41672	5178.875
2011.46859	5147.275
2014.51848	5134.575
2017.56639	5106.475
2020.61233	5103.175
2023.6563	5108.375
2026.6983	5082.475
2029.73833	5060.775
2032.7764	5042.175
2035.8125	5033.675
2038.84664	5028.375
2041.87881	5038.875
2044.90903	5022.775
2047.93729	4998.375
2050.96359	4999.775
2053.98794	4984.575
2057.01034	4988.575
2060.03078	4982.975
2063.04927	4961.275
2066.06582	4948.375
2069.08042	4960.975
2072.09307	4943.475
2075.10378	4953.175
2078.11255	4940.775
2081.11938	4941.075
2084.12426	4935.775
2087.12722	4935.275
2090.12824	4936.675
2093.12732	4946.675
2096.12447	4940.475
2099.11969	4924.375
2102.11299	4940.875
2105.10435	4938.875
2108.09379	4939.075
2111.08131	4928.275
2114.0669	4940.575
2117.05057	4943.475
2120.03233	4942.175
2123.01216	4959.275
2125.99008	4965.975
2128.96609	4972.275
2131.94018	4971.975
2134.91236	4975.975
2137.88263	4968.775
2140.851	4952.675
2143.81746	4952.075
2146.78201	4943.375
2149.74466	4925.275
2152.7054	4922.175
2155.66425	4897.275
2158.6212	4905.475
2161.57625	4890.175
2164.52941	4889.975
2167.48067	4873.375
2170.43004	4890.175
2173.37752	4886.375
2176.32311	4888.075
2179.26681	4881.275
2182.20863	4882.375
2185.14856	4869.275
2188.08661	4890.275
2191.02278	4875.275
2193.95707	4869.875
2196.88948	4857.575
2199.82001	4841.375
2202.74867	4835.175
2205.67545	4834.875
2208.60037	4817.175
2211.52341	4815.275
2214.44458	4817.275
2217.36388	4805.675
2220.28132	4792.075
2223.1969	4764.875
2226.11061	4782.575
2229.02246	4747.675
2231.93245	4735.875
2234.84058	4717.275
2237.74686	4730.875
2240.65128	4732.375
2243.55385	4708.575
2246.45456	4720.675
2249.35343	4719.275
2252.25044	4704.375
2255.14561	4728.375
2258.03893	4747.875
2260.93041	4733.875
2263.82004	4747.275
2266.70783	4757.375
2269.59378	4711.475
2272.4779	4713.275
2275.36017	4691.875
2278.24061	4685.275
2281.11922	4691.575
2283.996	4650.175
2286.87094	4633.575
2289.74405	4604.775
2292.61534	4604.075
2295.4848	4578.175
2298.35243	4566.275
2301.21824	4578.175
2304.08223	4567.675
2306.94439	4552.775
2309.80474	4565.675
2312.66327	4569.475
2315.51999	4543.875
2318.37489	4557.875
2321.22797	4556.275
2324.07925	4543.675
2326.92871	4522.575
2329.77637	4520.575
2332.62222	4530.975
2335.46626	4512.875
2338.3085	4514.075
2341.14893	4514.475
2343.98756	4529.575
2346.8244	4544.975
2349.65943	4552.175
2352.49267	4549.275
2355.32411	4558.475
2358.15376	4584.375
2360.98161	4611.475
2363.80768	4625.875
2366.63195	4630.375
2369.45444	4647.175
2372.27514	4658.975
2375.09405	4640.975
2377.91118	4624.575
2380.72652	4598.675
2383.54009	4568.775
2386.35187	4555.075
2389.16188	4524.175
2391.97011	4518.475
2394.77657	4473.575
2397.58125	4445.075
2400.38416	4429.675
2403.18529	4412.675
2405.98466	4405.975
2408.78226	4402.175
2411.57809	4374.675
2414.37216	4353.275
2417.16446	4363.775
2419.955	4347.975
2422.74378	4361.975
2425.5308	4342.775
2428.31606	4357.175
2431.09956	4368.675
2433.88131	4368.675
2436.6613	4349.675
2439.43954	4351.775
2442.21603	4372.275
2444.99077	4362.575
2447.76377	4381.475
2450.53501	4369.175
2453.30451	4381.175
2456.07226	4379.375
2458.83827	4363.075
2461.60254	4375.675
2464.36507	4365.375
2467.12586	4369.575
2469.88492	4377.675
2472.64224	4376.775
2475.39782	4380.275
2478.15167	4404.175
2480.90379	4413.975
2483.65417	4441.875
2486.40283	4454.475
2489.14976	4467.275
2491.89497	4484.075
2494.63845	4492.275
2497.3802	4480.375
2500.12024	4457.275
2502.85855	4450.075
2505.59514	4436.075
2508.33002	4385.675
2511.06318	4354.975
2513.79462	4315.575
2516.52435	4275.775
2519.25237	4261.275
2521.97867	4233.375
2524.70327	4233.475
2527.42616	4219.275
2530.14734	4212.175
2532.86681	4204.175
2535.58458	4219.075
2538.30065	4205.675
2541.01501	4210.275
2543.72768	4201.775
2546.43864	4219.475
2549.14791	4225.075
2551.85548	4227.675
2554.56136	4214.975
2557.26554	4208.575
2559.96803	4202.675
2562.66883	4191.275
2565.36794	4184.975
2568.06536	4192.075
2570.7611	4181.475
2573.45514	4174.175
2576.14751	4173.775
2578.83819	4144.475
2581.52719	4144.075
2584.21451	4114.975
2586.90015	4114.575
2589.58411	4087.975
2592.2664	4120.275
2594.94701	4094.775
2597.62594	4097.975
2600.30321	4099.075
2602.9788	4097.375
2605.65273	4078.775
2608.32498	4082.375
2610.99557	4082.875
2613.66449	4084.375
2616.33175	4091.575
2618.99734	4107.575
2621.66128	4088.075
2624.32355	4075.375
2626.98416	4057.475
2629.64311	4049.375
2632.30041	4055.975
2634.95605	4034.975
2637.61004	4026.175
2640.26238	4011.075
2642.91306	4009.675
2645.56209	4004.875
2648.20948	4005.175
2650.85521	4000.275
2653.4993	3994.675
2656.14175	3991.475
2658.78255	4017.375
2661.42171	4013.475
2664.05923	4026.175
2666.6951	4028.475
2669.32934	4053.275
2671.96194	4054.475
2674.59291	4054.575
2677.22224	4059.575
2679.84993	4068.075
2682.476	4045.575
2685.10043	4060.575
2687.72324	4070.075
2690.34441	4043.475
2692.96396	4056.275
2695.58188	4041.375
2698.19818	4070.075
2700.81285	4043.675
2703.4259	4055.675
2706.03733	4056.975
2708.64714	4063.475
2711.25533	4083.275
2713.86191	4078.075
2716.46687	4088.875
2719.07021	4089.675
2721.67194	4090.475
2724.27206	4087.375
2726.87057	4100.775
2729.46747	4081.475
2732.06276	4083.275
2734.65644	4087.975
2737.24852	4080.075
2739.83899	4038.975
2742.42786	4032.575
2745.01513	4037.775
2747.60079	4026.375
2750.18486	4021.275
2752.76733	4018.775
2755.3482	3995.075
2757.92747	4001.775
2760.50515	3986.275
2763.08123	3996.275
2765.65573	3983.675
2768.22863	3973.475
2770.79994	3958.075
2773.36967	3966.375
2775.9378	3975.175
2778.50435	3973.675
2781.06932	3969.275
2783.6327	3972.175
2786.1945	3974.075
2788.75471	3981.375
2791.31335	3971.975
2793.87041	3976.075
2796.42589	3960.975
2798.97979	3988.575
2801.53212	3966.775
2804.08288	3991.375
2806.63206	3988.075
2809.17967	3989.875
2811.72571	3976.875
2814.27018	3995.675
2816.81308	4000.675
2819.35442	3995.175
2821.89419	4025.475
2824.43239	4050.775
2826.96904	4043.375
2829.50412	4046.275
2832.03763	4054.475
2834.56959	4045.475
2837.1	4041.975
2839.62884	4064.075
2842.15613	4060.675
2844.68186	4094.575
2847.20604	4116.775
2849.72867	4143.075
2852.24974	4152.475
2854.76927	4148.775
2857.28724	4177.075
2859.80367	4167.075
2862.31855	4179.175
2864.83189	4175.875
2867.34368	4174.375
2869.85393	4190.875
2872.36264	4182.775
2874.8698	4176.075
2877.37543	4184.175
2879.87952	4182.175
2882.38207	4161.975
2884.88308	4179.775
2887.38256	4154.275
2889.88051	4140.275
2892.37692	4137.675
2894.8718	4146.075
2897.36515	4147.975
2899.85698	4162.075
2902.34727	4170.375
2904.83604	4172.875
2907.32328	4191.075
2909.809	4174.775
2912.29319	4173.375
2914.77587	4155.475
2917.25702	4159.475
2919.73665	4150.175
2922.21476	4143.375
2924.69136	4137.475
2927.16644	4138.275
2929.64	4108.075
2932.11205	4089.975
2934.58258	4076.575
2937.05161	4051.775
2939.51912	4054.675
2941.98513	4045.775
2944.44962	4019.075
2946.91261	4000.675
2949.37409	3987.675
2951.83407	3987.175
2954.29254	3969.775
2956.74951	3951.375
2959.20498	3954.575
2961.65895	3945.975
2964.11142	3941.575
2966.56239	3923.475
2969.01186	3932.775
2971.45984	3909.675
2973.90632	3906.975
2976.35131	3886.975
2978.7948	3896.375
2981.23681	3882.275
2983.67732	3868.775
2986.11635	3853.375
2988.55388	3853.875
2990.98993	3849.475
2993.4245	3856.975
2995.85758	3833.875
2998.28917	3836.475
3000.71928	3832.875
3003.14791	3814.875
3005.57506	3826.275
3008.00073	3800.075
3010.42493	3811.275
3012.84764	3790.275
3015.26888	3788.275
3017.68865	3789.475
3020.10694	3772.875
3022.52376	3765.175
3024.9391	3764.575
3027.35298	3775.075
3029.76539	3760.975
3032.17632	3741.375
3034.5858	3745.275
3036.9938	3740.575
3039.40034	3732.275
3041.80542	3736.275
3044.20903	3714.075
3046.61118	3717.475
3049.01187	3700.375
3051.4111	3706.575
3053.80888	3706.575
3056.20519	3697.175
3058.60005	3663.675
3060.99345	3671.875
3063.3854	3675.875
3065.7759	3659.975
3068.16494	3651.175
3070.55254	3622.475
3072.93868	3638.575
3075.32338	3633.775
3077.70662	3630.075
3080.08842	3612.675
3082.46878	3594.375
3084.84769	3587.675
3087.22515	3569.675
3089.60118	3580.175
3091.97576	3574.475
3094.3489	3584.375
3096.72061	3597.975
3099.09087	3593.975
3101.4597	3597.875
3103.82709	3601.375
3106.19305	3601.675
3108.55757	3591.975
3110.92066	3584.875
3113.28232	3605.575
3115.64255	3587.975
3118.00134	3592.075
3120.35871	3579.575
3122.71466	3580.975
3125.06917	3588.875
3127.42226	3578.775
3129.77393	3582.875
3132.12417	3575.175
3134.47299	3588.175
3136.82039	3586.675
3139.16636	3605.475
3141.51092	3611.775
3143.85406	3615.275
3146.19579	3622.575
3148.53609	3617.675
3150.87499	3621.275
3153.21246	3631.175
3155.54853	3650.975
3157.88318	3632.775
3160.21642	3645.775
3162.54826	3655.275
3164.87868	3664.975
3167.2077	3662.875
3169.5353	3664.875
3171.86151	3674.375
3174.18631	3670.275
3176.5097	3664.475
3178.83169	3666.475
3181.15228	3671.175
3183.47147	3668.675
3185.78926	3658.975
3188.10565	3661.675
3190.42065	3664.175
3192.73424	3697.375
3195.04645	3674.775
3197.35725	3700.475
3199.66667	3707.975
3201.97469	3710.575
3204.28132	3723.975
3206.58656	3719.775
