Data from AgNPs_APTES_FTO_UA_100uM_CRN_0uM_R6G_10uM_Scan_RamanShift__16__16-01-22-945.txt Node

Date: Mon Jul 11 16:01:22 BST 2022
User: TCL
Spectrometer: QEP01345
Trigger mode: 4
Integration Time (sec): 7.000000E0
Scans to average: 10
Electric dark correction enabled: true
Nonlinearity correction enabled: false
Boxcar width: 0
XAxis mode: Raman Shifts
Number of Pixels in Spectrum: 1044
>>>>>Begin Spectral Data<<<<<
46.04893	-0.075
50.45542	0.825
54.85868	-1.175
59.25871	-1.075
63.6555	38.425
68.04907	39.725
72.43941	45.625
76.82654	47.725
81.21044	50.725
85.59113	50.925
89.96862	54.525
94.34289	55.525
98.71396	61.025
103.08183	59.725
107.4465	60.325
111.80798	59.525
116.16626	62.725
120.52136	63.825
124.87327	69.625
129.222	70.325
133.56755	71.925
137.90993	81.525
142.24913	85.925
146.58517	94.125
150.91804	110.025
155.24774	133.325
159.57429	162.125
163.89768	207.025
168.21792	266.425
172.53501	367.225
176.84895	500.325
181.15975	699.925
185.46741	975.725
189.77193	1338.625
194.07331	1788.825
198.37157	2295.825
202.6667	2836.225
206.9587	3370.125
211.24758	3906.925
215.53334	4441.925
219.81599	5009.625
224.09553	5654.125
228.37195	6342.225
232.64527	7094.525
236.91549	7884.525
241.18261	8637.125
245.44663	9300.125
249.70755	9828.925
253.96539	10246.625
258.22014	10549.525
262.4718	10790.525
266.72039	10926.425
270.96589	10917.525
275.20832	10810.125
279.44768	10617.225
283.68397	10414.225
287.91719	10234.625
292.14735	10172.425
296.37445	10202.325
300.59849	10296.325
304.81948	10410.825
309.03742	10417.725
313.25231	10263.825
317.46415	10000.225
321.67296	9648.625
325.87872	9362.425
330.08145	9239.625
334.28114	9271.725
338.47781	9366.625
342.67145	9498.125
346.86207	9741.325
351.04966	10032.025
355.23424	10351.725
359.4158	10598.125
363.59435	10819.825
367.76989	10990.525
371.94243	11087.425
376.11196	11190.025
380.27849	11300.225
384.44203	11347.225
388.60257	11365.325
392.76012	11452.825
396.91468	11588.725
401.06626	11745.725
405.21485	11852.525
409.36047	11695.925
413.50311	11405.325
417.64277	11164.025
421.77947	10977.225
425.9132	10879.925
430.04396	10898.025
434.17176	10954.825
438.2966	11065.825
442.41849	11223.525
446.53742	11485.625
450.6534	11718.425
454.76644	11908.625
458.87653	11976.925
462.98368	12003.025
467.08789	11909.125
471.18916	11788.225
475.2875	11648.425
479.38291	11592.425
483.4754	11502.225
487.56496	11474.725
491.6516	11458.425
495.73531	11475.925
499.81612	11498.225
503.89401	11544.225
507.96899	11586.925
512.04106	11632.625
516.11023	11723.225
520.1765	11757.225
524.23987	11763.925
528.30034	11707.625
532.35792	11719.225
536.41261	11659.925
540.46441	11534.225
544.51333	11453.525
548.55936	11417.625
552.60252	11501.925
556.64279	11580.425
560.6802	11635.025
564.71473	11687.925
568.7464	11775.625
572.7752	11848.725
576.80114	11750.425
580.82422	11714.625
584.84444	11772.025
588.86181	11862.725
592.87633	11942.325
596.888	12087.125
600.89682	12353.025
604.9028	13328.425
608.90594	15554.625
612.90624	17672.625
616.90371	16288.925
620.89834	13230.525
624.89015	12117.625
628.87913	12132.325
632.86528	12449.425
636.84862	12716.025
640.82913	12593.425
644.80683	12189.025
648.78172	11824.125
652.75379	11743.525
656.72306	11939.225
660.68952	12152.925
664.65319	12108.325
668.61405	12023.325
672.57211	12301.625
676.52738	12662.525
680.47986	13154.925
684.42955	13685.725
688.37646	14080.025
692.32058	13996.225
696.26192	13561.325
700.20048	13149.825
704.13626	12923.925
708.06928	12679.425
711.99952	12386.425
715.927	12084.525
719.85171	11820.025
723.77365	11698.325
727.69284	11617.725
731.60928	11631.925
735.52295	11621.025
739.43388	11551.625
743.34206	11517.925
747.24749	11450.225
751.15017	11369.225
755.05012	11412.025
758.94733	11663.325
762.8418	12422.325
766.73354	13698.325
770.62254	15086.225
774.50882	15797.025
778.39237	15256.725
782.27321	13865.425
786.15132	12623.725
790.02671	11888.425
793.89938	11513.225
797.76935	11357.625
801.6366	11306.025
805.50115	11257.125
809.36299	11239.525
813.22213	11179.225
817.07857	11103.025
820.93231	11001.925
824.78336	10939.825
828.63172	10907.725
832.47738	10908.725
836.32036	10858.225
840.16066	10878.225
843.99827	10888.825
847.8332	10900.225
851.66546	10934.225
855.49504	10962.225
859.32195	10987.025
863.1462	11007.725
866.96777	10984.125
870.78668	11013.025
874.60293	11041.525
878.41652	11076.925
882.22745	11125.225
886.03573	11165.925
889.84136	11152.025
893.64433	11075.425
897.44466	10940.225
901.24235	10801.325
905.0374	10668.525
908.8298	10574.725
912.61957	10499.125
916.40671	10533.725
920.19121	10605.025
923.97308	10695.825
927.75233	10765.925
931.52895	10802.725
935.30295	10750.125
939.07433	10622.325
942.84309	10583.725
946.60924	10564.525
950.37278	10605.625
954.13371	10590.825
957.89203	10543.225
961.64774	10498.825
965.40086	10413.425
969.15137	10332.225
972.89929	10245.125
976.64461	10198.025
980.38733	10180.925
984.12747	10189.625
987.86502	10223.025
991.59999	10297.425
995.33237	10390.325
999.06217	10607.825
1002.78939	10825.325
1006.51404	11021.825
1010.23611	11253.625
1013.95561	11380.125
1017.67255	11484.525
1021.38692	11434.725
1025.09872	11279.925
1028.80796	11149.225
1032.51465	11185.425
1036.21877	11230.325
1039.92035	11244.425
1043.61937	11222.825
1047.31584	11108.225
1051.00976	11048.625
1054.70114	11020.925
1058.38998	11017.225
1062.07627	11070.925
1065.76003	11145.025
1069.44126	11224.825
1073.11995	11336.925
1076.79611	11449.525
1080.46974	11530.525
1084.14085	11599.525
1087.80943	11680.025
1091.47549	11758.325
1095.13903	11690.125
1098.80005	11536.225
1102.45857	11404.825
1106.11456	11359.425
1109.76805	11384.025
1113.41903	11563.425
1117.06751	11783.925
1120.71348	12110.125
1124.35696	12493.225
1127.99793	12932.825
1131.63641	13181.425
1135.2724	13094.825
1138.90589	12855.525
1142.5369	12583.425
1146.16542	12257.025
1149.79145	11960.425
1153.415	11805.525
1157.03607	11757.825
1160.65467	11907.125
1164.27079	12255.625
1167.88443	12750.125
1171.49561	13417.825
1175.10432	14402.525
1178.71056	15666.725
1182.31434	16828.225
1185.91565	17350.325
1189.51451	17380.825
1193.11091	16893.125
1196.70485	16174.625
1200.29634	15493.425
1203.88538	14882.525
1207.47197	14230.525
1211.05612	13586.025
1214.63782	13140.525
1218.21708	12857.725
1221.79391	12761.225
1225.36829	12738.825
1228.94024	12659.825
1232.50976	12573.925
1236.07685	12506.125
1239.6415	12501.325
1243.20374	12541.025
1246.76355	12659.025
1250.32093	12814.725
1253.8759	13023.825
1257.42845	13324.425
1260.97859	13668.725
1264.52631	13995.925
1268.07163	14324.725
1271.61453	14664.825
1275.15503	14989.925
1278.69312	15242.525
1282.22882	15454.125
1285.76211	15741.625
1289.29301	16134.925
1292.82151	16662.925
1296.34761	17293.225
1299.87133	18096.625
1303.39266	19118.025
1306.9116	20407.725
1310.42815	21621.825
1313.94233	22173.225
1317.45412	21812.425
1320.96354	20949.725
1324.47058	20089.125
1327.97525	19268.225
1331.47754	18728.425
1334.97747	18523.025
1338.47502	18618.825
1341.97022	18964.025
1345.46305	19480.725
1348.95352	20267.725
1352.44163	21358.825
1355.92738	22743.425
1359.41078	24514.625
1362.89183	25780.325
1366.37053	24913.125
1369.84688	22064.725
1373.32088	19328.025
1376.79254	17670.125
1380.26186	16787.925
1383.72883	16385.525
1387.19347	16071.825
1390.65578	15718.725
1394.11575	15447.025
1397.57339	15268.725
1401.0287	15254.625
1404.48168	15162.525
1407.93234	15134.125
1411.38068	15055.625
1414.82669	14865.425
1418.27039	14656.525
1421.71177	14370.825
1425.15083	14153.225
1428.58758	14004.025
1432.02203	14042.925
1435.45416	14226.525
1438.88399	14498.425
1442.31151	14781.225
1445.73673	15059.925
1449.15965	15411.025
1452.58027	15771.325
1455.9986	16092.925
1459.41463	16459.225
1462.82837	16862.625
1466.23982	17201.425
1469.64898	17441.825
1473.05586	17536.625
1476.46045	17411.925
1479.86276	17208.025
1483.26279	17028.825
1486.66054	16877.125
1490.05602	16870.625
1493.44922	17034.625
1496.84016	17461.225
1500.22882	18281.125
1503.61521	19563.525
1506.99934	20977.325
1510.38121	21984.125
1513.76081	22091.625
1517.13816	21006.225
1520.51324	19333.325
1523.88607	17823.525
1527.25665	16825.125
1530.62498	16265.225
1533.99105	15967.525
1537.35488	15733.325
1540.71647	15572.025
1544.07581	15449.825
1547.4329	15405.225
1550.78776	15393.625
1554.14038	15398.425
1557.49077	15513.925
1560.83892	15670.825
1564.18484	15909.225
1567.52853	16109.225
1570.86999	16328.725
1574.20922	16472.425
1577.54624	16426.525
1580.88103	16023.925
1584.2136	15457.725
1587.54395	15223.925
1590.87208	15338.825
1594.19801	15861.725
1597.52172	16593.325
1600.84321	16938.125
1604.16251	16556.325
1607.47959	15876.325
1610.79447	15106.025
1614.10715	14300.425
1617.41763	13587.625
1620.7259	13085.925
1624.03199	12801.525
1627.33587	12749.125
1630.63757	12903.025
1633.93707	13324.525
1637.23439	14029.625
1640.52951	15114.425
1643.82246	16392.225
1647.11321	17718.125
1650.40179	18347.825
1653.68819	17787.225
1656.97241	16125.625
1660.25446	14457.325
1663.53433	13245.325
1666.81203	12489.525
1670.08756	12011.625
1673.36092	11697.125
1676.63211	11463.825
1679.90115	11296.625
1683.16801	11116.825
1686.43272	11006.025
1689.69527	10857.625
1692.95567	10747.525
1696.2139	10664.325
1699.46999	10541.225
1702.72392	10427.925
1705.97571	10305.525
1709.22535	10196.625
1712.47284	10110.525
1715.71819	10024.925
1718.96139	9911.825
1722.20246	9808.125
1725.44139	9732.225
1728.67818	9615.825
1731.91284	9539.325
1735.14537	9411.225
1738.37576	9354.125
1741.60403	9294.325
1744.83017	9207.525
1748.05418	9201.525
1751.27607	9155.325
1754.49584	9141.125
1757.71349	9144.525
1760.92903	9158.625
1764.14244	9142.825
1767.35375	9130.625
1770.56294	9065.025
1773.77002	9024.125
1776.97499	9001.225
1780.17785	8955.825
1783.37861	8945.225
1786.57727	8900.925
1789.77382	8857.425
1792.96828	8829.625
1796.16064	8802.825
1799.3509	8809.325
1802.53907	8788.625
1805.72514	8740.925
1808.90913	8729.925
1812.09102	8706.425
1815.27083	8670.425
1818.44856	8680.625
1821.6242	8675.225
1824.79776	8640.425
1827.96924	8634.725
1831.13864	8637.225
1834.30597	8630.525
1837.47122	8623.325
1840.6344	8587.825
1843.7955	8573.525
1846.95454	8568.825
1850.11151	8610.925
1853.26642	8566.925
1856.41926	8564.525
1859.57004	8554.425
1862.71876	8558.625
1865.86542	8552.525
1869.01003	8581.925
1872.15258	8555.525
1875.29308	8551.825
1878.43152	8553.225
1881.56792	8526.025
1884.70227	8547.725
1887.83457	8524.825
1890.96482	8503.425
1894.09304	8494.825
1897.21921	8488.825
1900.34335	8473.825
1903.46544	8488.325
1906.58551	8483.925
1909.70353	8485.325
1912.81953	8466.525
1915.93349	8465.025
1919.04543	8441.425
1922.15534	8437.025
1925.26322	8403.925
1928.36908	8401.025
1931.47292	8384.425
1934.57473	8384.225
1937.67453	8380.325
1940.77232	8340.225
1943.86808	8319.725
1946.96184	8310.525
1950.05358	8272.225
1953.14331	8273.325
1956.23103	8251.325
1959.31675	8221.025
1962.40046	8221.725
1965.48217	8191.725
1968.56188	8176.225
1971.63959	8150.225
1974.7153	8154.425
1977.78901	8141.025
1980.86073	8105.625
1983.93046	8074.825
1986.99819	8064.725
1990.06394	8031.625
1993.1277	8018.325
1996.18947	7995.325
1999.24925	7986.625
2002.30706	7969.625
2005.36288	7935.225
2008.41672	7924.825
2011.46859	7894.625
2014.51848	7874.025
2017.56639	7877.125
2020.61233	7872.925
2023.6563	7852.325
2026.6983	7838.225
2029.73833	7801.025
2032.7764	7813.525
2035.8125	7770.725
2038.84664	7786.525
2041.87881	7773.525
2044.90903	7772.225
2047.93729	7772.825
2050.96359	7759.625
2053.98794	7761.225
2057.01034	7748.325
2060.03078	7746.125
2063.04927	7758.025
2066.06582	7751.225
2069.08042	7776.525
2072.09307	7784.025
2075.10378	7767.425
2078.11255	7765.325
2081.11938	7800.625
2084.12426	7794.425
2087.12722	7805.825
2090.12824	7782.725
2093.12732	7805.425
2096.12447	7825.425
2099.11969	7837.825
2102.11299	7838.725
2105.10435	7853.025
2108.09379	7870.325
2111.08131	7866.725
2114.0669	7849.025
2117.05057	7868.225
2120.03233	7842.325
2123.01216	7878.825
2125.99008	7881.625
2128.96609	7884.125
2131.94018	7901.725
2134.91236	7898.625
2137.88263	7850.625
2140.851	7851.625
2143.81746	7887.925
2146.78201	7865.625
2149.74466	7874.125
2152.7054	7865.325
2155.66425	7854.725
2158.6212	7859.525
2161.57625	7851.325
2164.52941	7847.725
2167.48067	7847.425
2170.43004	7876.325
2173.37752	7873.825
2176.32311	7848.825
2179.26681	7870.125
2182.20863	7889.025
2185.14856	7880.225
2188.08661	7868.825
2191.02278	7862.025
2193.95707	7868.725
2196.88948	7867.925
2199.82001	7869.625
2202.74867	7858.325
2205.67545	7862.325
2208.60037	7870.825
2211.52341	7872.025
2214.44458	7827.625
2217.36388	7842.025
2220.28132	7833.225
2223.1969	7814.225
2226.11061	7827.625
2229.02246	7800.325
2231.93245	7794.525
2234.84058	7780.525
2237.74686	7784.525
2240.65128	7743.025
2243.55385	7743.625
2246.45456	7769.025
2249.35343	7727.825
2252.25044	7749.525
2255.14561	7749.025
2258.03893	7712.925
2260.93041	7731.425
2263.82004	7724.925
2266.70783	7729.625
2269.59378	7692.825
2272.4779	7664.925
2275.36017	7626.925
2278.24061	7643.825
2281.11922	7638.725
2283.996	7624.725
2286.87094	7607.025
2289.74405	7600.825
2292.61534	7575.125
2295.4848	7580.125
2298.35243	7572.425
2301.21824	7589.725
2304.08223	7608.325
2306.94439	7594.425
2309.80474	7604.225
2312.66327	7593.925
2315.51999	7596.025
2318.37489	7616.525
2321.22797	7581.625
2324.07925	7586.925
2326.92871	7592.725
2329.77637	7593.625
2332.62222	7568.325
2335.46626	7579.425
2338.3085	7570.225
2341.14893	7571.025
2343.98756	7584.125
2346.8244	7582.125
2349.65943	7585.025
2352.49267	7595.025
2355.32411	7608.425
2358.15376	7593.625
2360.98161	7599.325
2363.80768	7604.325
2366.63195	7601.025
2369.45444	7610.325
2372.27514	7595.925
2375.09405	7576.225
2377.91118	7564.725
2380.72652	7553.725
2383.54009	7529.125
2386.35187	7560.625
2389.16188	7544.425
2391.97011	7505.625
2394.77657	7501.125
2397.58125	7487.825
2400.38416	7484.725
2403.18529	7471.725
2405.98466	7454.325
2408.78226	7439.825
2411.57809	7434.725
2414.37216	7436.125
2417.16446	7437.525
2419.955	7436.825
2422.74378	7429.225
2425.5308	7423.625
2428.31606	7435.825
2431.09956	7430.125
2433.88131	7433.025
2436.6613	7428.625
2439.43954	7432.925
2442.21603	7406.925
2444.99077	7423.425
2447.76377	7442.225
2450.53501	7418.325
2453.30451	7430.225
2456.07226	7437.325
2458.83827	7420.025
2461.60254	7392.725
2464.36507	7403.325
2467.12586	7417.725
2469.88492	7423.525
2472.64224	7431.125
2475.39782	7428.125
2478.15167	7436.925
2480.90379	7432.125
2483.65417	7468.125
2486.40283	7448.825
2489.14976	7460.125
2491.89497	7457.225
2494.63845	7464.725
2497.3802	7439.025
2500.12024	7461.525
2502.85855	7469.425
2505.59514	7454.125
2508.33002	7458.525
2511.06318	7440.925
2513.79462	7434.025
2516.52435	7419.025
2519.25237	7424.425
2521.97867	7388.025
2524.70327	7389.825
2527.42616	7391.425
2530.14734	7377.925
2532.86681	7376.625
2535.58458	7409.925
2538.30065	7389.125
2541.01501	7392.225
2543.72768	7394.625
2546.43864	7386.525
2549.14791	7378.725
2551.85548	7368.825
2554.56136	7354.225
2557.26554	7381.125
2559.96803	7366.725
2562.66883	7346.925
2565.36794	7341.525
2568.06536	7340.125
2570.7611	7326.725
2573.45514	7334.625
2576.14751	7335.125
2578.83819	7320.325
2581.52719	7301.725
2584.21451	7303.325
2586.90015	7314.625
2589.58411	7275.625
2592.2664	7305.725
2594.94701	7284.425
2597.62594	7296.325
2600.30321	7290.225
2602.9788	7262.925
2605.65273	7273.325
2608.32498	7277.325
2610.99557	7265.425
2613.66449	7263.325
2616.33175	7262.025
2618.99734	7270.225
2621.66128	7246.325
2624.32355	7248.525
2626.98416	7269.325
2629.64311	7259.225
2632.30041	7239.125
2634.95605	7255.425
2637.61004	7240.025
2640.26238	7243.125
2642.91306	7237.525
2645.56209	7232.725
2648.20948	7224.225
2650.85521	7223.525
2653.4993	7228.325
2656.14175	7226.525
2658.78255	7244.025
2661.42171	7248.625
2664.05923	7263.425
2666.6951	7248.325
2669.32934	7275.025
2671.96194	7287.625
2674.59291	7281.625
2677.22224	7286.825
2679.84993	7295.025
2682.476	7270.325
2685.10043	7281.625
2687.72324	7248.225
2690.34441	7265.525
2692.96396	7276.925
2695.58188	7297.625
2698.19818	7290.625
2700.81285	7311.625
2703.4259	7286.325
2706.03733	7300.525
2708.64714	7309.625
2711.25533	7320.125
2713.86191	7328.725
2716.46687	7350.125
2719.07021	7349.825
2721.67194	7347.125
2724.27206	7352.925
2726.87057	7365.725
2729.46747	7357.725
2732.06276	7369.025
2734.65644	7384.625
2737.24852	7382.725
2739.83899	7345.625
2742.42786	7338.425
2745.01513	7340.125
2747.60079	7353.025
2750.18486	7346.425
2752.76733	7336.125
2755.3482	7328.125
2757.92747	7314.025
2760.50515	7352.625
2763.08123	7352.425
2765.65573	7324.525
2768.22863	7311.925
2770.79994	7303.425
2773.36967	7326.725
2775.9378	7317.825
2778.50435	7289.525
2781.06932	7306.025
2783.6327	7294.725
2786.1945	7291.725
2788.75471	7275.825
2791.31335	7266.325
2793.87041	7280.825
2796.42589	7232.925
2798.97979	7247.525
2801.53212	7252.425
2804.08288	7240.525
2806.63206	7212.325
2809.17967	7225.225
2811.72571	7174.725
2814.27018	7175.525
2816.81308	7157.025
2819.35442	7171.125
2821.89419	7143.525
2824.43239	7159.125
2826.96904	7163.525
2829.50412	7155.725
2832.03763	7159.425
2834.56959	7154.825
2837.1	7135.825
2839.62884	7122.825
2842.15613	7135.025
2844.68186	7135.025
2847.20604	7139.625
2849.72867	7150.825
2852.24974	7154.325
2854.76927	7128.525
2857.28724	7142.325
2859.80367	7140.025
2862.31855	7133.525
2864.83189	7124.925
2867.34368	7134.525
2869.85393	7140.425
2872.36264	7127.725
2874.8698	7148.925
2877.37543	7143.625
2879.87952	7146.225
2882.38207	7158.025
2884.88308	7126.625
2887.38256	7141.025
2889.88051	7154.725
2892.37692	7166.825
2894.8718	7161.025
2897.36515	7178.525
2899.85698	7172.125
2902.34727	7211.825
2904.83604	7219.725
2907.32328	7232.725
2909.809	7252.725
2912.29319	7224.225
2914.77587	7252.825
2917.25702	7254.125
2919.73665	7261.125
2922.21476	7250.225
2924.69136	7248.425
2927.16644	7264.725
2929.64	7247.725
2932.11205	7239.425
2934.58258	7227.525
2937.05161	7237.925
2939.51912	7246.525
2941.98513	7224.925
2944.44962	7216.225
2946.91261	7193.125
2949.37409	7198.225
2951.83407	7210.425
2954.29254	7172.825
2956.74951	7201.425
2959.20498	7197.225
2961.65895	7200.325
2964.11142	7177.525
2966.56239	7185.325
2969.01186	7185.725
2971.45984	7176.925
2973.90632	7143.525
2976.35131	7126.525
2978.7948	7154.125
2981.23681	7111.925
2983.67732	7106.125
2986.11635	7098.325
2988.55388	7086.825
2990.98993	7092.525
2993.4245	7077.525
2995.85758	7072.625
2998.28917	7040.825
3000.71928	7058.725
3003.14791	7021.725
3005.57506	7024.025
3008.00073	6993.725
3010.42493	7000.925
3012.84764	6989.125
3015.26888	6986.525
3017.68865	6958.325
3020.10694	6974.425
3022.52376	6952.025
3024.9391	6931.425
3027.35298	6961.325
3029.76539	6952.925
3032.17632	6941.625
3034.5858	6939.625
3036.9938	6940.725
3039.40034	6911.325
3041.80542	6924.725
3044.20903	6911.125
3046.61118	6923.625
3049.01187	6923.325
3051.4111	6900.725
3053.80888	6897.125
3056.20519	6902.925
3058.60005	6878.425
3060.99345	6867.325
3063.3854	6871.125
3065.7759	6835.225
3068.16494	6832.125
3070.55254	6815.225
3072.93868	6808.225
3075.32338	6807.525
3077.70662	6787.525
3080.08842	6775.125
3082.46878	6770.225
3084.84769	6754.925
3087.22515	6762.725
3089.60118	6749.025
3091.97576	6761.525
3094.3489	6769.025
3096.72061	6775.725
3099.09087	6791.125
3101.4597	6809.125
3103.82709	6777.925
3106.19305	6797.725
3108.55757	6795.925
3110.92066	6798.125
3113.28232	6794.725
3115.64255	6773.625
3118.00134	6749.725
3120.35871	6758.425
3122.71466	6742.925
3125.06917	6751.225
3127.42226	6734.125
3129.77393	6721.025
3132.12417	6740.525
3134.47299	6727.225
3136.82039	6718.625
3139.16636	6727.025
3141.51092	6746.925
3143.85406	6743.925
3146.19579	6759.425
3148.53609	6736.925
3150.87499	6763.625
3153.21246	6780.625
3155.54853	6780.025
3157.88318	6781.025
3160.21642	6797.725
3162.54826	6806.925
3164.87868	6797.425
3167.2077	6822.525
3169.5353	6826.625
3171.86151	6827.025
3174.18631	6813.725
3176.5097	6814.425
3178.83169	6810.625
3181.15228	6832.625
3183.47147	6808.425
3185.78926	6807.025
3188.10565	6795.625
3190.42065	6807.225
3192.73424	6806.625
