Data from AgNPs_APTES_FTO_UA_100uM_CRN_0uM_R6G_10uM_Scan_RamanShift__64__16-57-23-001.txt Node

Date: Mon Jul 11 16:57:23 BST 2022
User: TCL
Spectrometer: QEP01345
Trigger mode: 4
Integration Time (sec): 7.000000E0
Scans to average: 10
Electric dark correction enabled: true
Nonlinearity correction enabled: false
Boxcar width: 0
XAxis mode: Raman Shifts
Number of Pixels in Spectrum: 1044
>>>>>Begin Spectral Data<<<<<
46.04893	-0.675
50.45542	-0.275
54.85868	-0.375
59.25871	-1.475
63.6555	45.225
68.04907	51.625
72.43941	52.925
76.82654	55.225
81.21044	56.425
85.59113	63.325
89.96862	62.025
94.34289	65.125
98.71396	67.625
103.08183	65.925
107.4465	66.625
111.80798	71.225
116.16626	71.125
120.52136	75.025
124.87327	75.825
129.222	82.825
133.56755	81.125
137.90993	94.425
142.24913	97.625
146.58517	108.725
150.91804	121.625
155.24774	145.525
159.57429	177.825
163.89768	223.725
168.21792	292.225
172.53501	392.925
176.84895	545.525
181.15975	771.825
185.46741	1083.925
189.77193	1498.525
194.07331	2006.325
198.37157	2577.325
202.6667	3194.425
206.9587	3783.825
211.24758	4376.125
215.53334	4948.425
219.81599	5558.925
224.09553	6221.825
228.37195	6937.825
232.64527	7740.725
236.91549	8615.925
241.18261	9498.125
245.44663	10452.825
249.70755	11311.625
253.96539	12067.025
258.22014	12720.325
262.4718	13158.025
266.72039	13480.125
270.96589	13582.725
275.20832	13550.725
279.44768	13454.725
283.68397	13249.225
287.91719	13052.325
292.14735	12864.325
296.37445	12696.925
300.59849	12593.725
304.81948	12489.325
309.03742	12432.725
313.25231	12393.525
317.46415	12372.725
321.67296	12389.125
325.87872	12424.125
330.08145	12510.025
334.28114	12600.425
338.47781	12736.825
342.67145	12884.525
346.86207	13084.825
351.04966	13259.025
355.23424	13463.325
359.4158	13634.525
363.59435	13824.325
367.76989	14046.525
371.94243	14191.225
376.11196	14347.425
380.27849	14483.125
384.44203	14615.225
388.60257	14759.325
392.76012	14922.225
396.91468	15107.125
401.06626	15212.425
405.21485	15328.825
409.36047	15396.925
413.50311	15437.925
417.64277	15502.125
421.77947	15552.725
425.9132	15619.725
430.04396	15734.225
434.17176	15851.225
438.2966	15991.225
442.41849	16147.225
446.53742	16319.025
450.6534	16468.625
454.76644	16628.025
458.87653	16766.325
462.98368	16894.825
467.08789	16905.025
471.18916	16965.525
475.2875	16965.225
479.38291	16953.625
483.4754	16978.725
487.56496	16998.425
491.6516	17064.725
495.73531	17081.525
499.81612	17122.825
503.89401	17185.625
507.96899	17279.825
512.04106	17334.725
516.11023	17387.325
520.1765	17416.125
524.23987	17479.825
528.30034	17549.325
532.35792	17588.225
536.41261	17618.025
540.46441	17624.325
544.51333	17679.725
548.55936	17743.425
552.60252	17814.625
556.64279	17922.725
560.6802	18088.725
564.71473	18160.125
568.7464	18144.025
572.7752	18137.825
576.80114	18152.825
580.82422	18198.825
584.84444	18266.625
588.86181	18369.425
592.87633	18459.925
596.888	18531.525
600.89682	18671.925
604.9028	18995.325
608.90594	19525.225
612.90624	19934.925
616.90371	19608.625
620.89834	19018.525
624.89015	18832.625
628.87913	18914.525
632.86528	19048.725
636.84862	19118.525
640.82913	19097.525
644.80683	19074.725
648.78172	19071.725
652.75379	19120.225
656.72306	19229.025
660.68952	19366.525
664.65319	19393.925
668.61405	19450.125
672.57211	19568.525
676.52738	19633.025
680.47986	19647.525
684.42955	19717.225
688.37646	19803.725
692.32058	19957.625
696.26192	20060.225
700.20048	20141.325
704.13626	20217.925
708.06928	20171.425
711.99952	20163.425
715.927	20143.625
719.85171	20159.525
723.77365	20157.125
727.69284	20115.125
731.60928	20070.525
735.52295	20094.225
739.43388	20130.725
743.34206	20156.925
747.24749	20232.625
751.15017	20254.325
755.05012	20322.525
758.94733	20413.125
762.8418	20548.425
766.73354	20815.825
770.62254	21090.125
774.50882	21298.825
778.39237	21319.225
782.27321	21156.725
786.15132	20992.725
790.02671	20831.925
793.89938	20734.425
797.76935	20693.925
801.6366	20684.125
805.50115	20636.225
809.36299	20661.925
813.22213	20657.325
817.07857	20727.525
820.93231	20752.025
824.78336	20791.525
828.63172	20800.025
832.47738	20838.625
836.32036	20872.225
840.16066	20881.125
843.99827	20903.725
847.8332	20985.925
851.66546	21039.925
855.49504	21058.825
859.32195	21067.125
863.1462	21164.725
866.96777	21208.025
870.78668	21191.925
874.60293	21290.025
878.41652	21326.125
882.22745	21391.625
886.03573	21407.625
889.84136	21442.525
893.64433	21453.125
897.44466	21468.025
901.24235	21472.325
905.0374	21541.425
908.8298	21526.125
912.61957	21530.025
916.40671	21558.725
920.19121	21571.525
923.97308	21547.025
927.75233	21542.025
931.52895	21541.325
935.30295	21517.825
939.07433	21478.725
942.84309	21450.425
946.60924	21417.825
950.37278	21412.025
954.13371	21406.825
957.89203	21399.625
961.64774	21425.625
965.40086	21390.125
969.15137	21373.925
972.89929	21348.425
976.64461	21394.925
980.38733	21364.325
984.12747	21426.525
987.86502	21449.025
991.59999	21491.325
995.33237	21548.725
999.06217	21622.525
1002.78939	21703.425
1006.51404	21812.725
1010.23611	21901.925
1013.95561	22019.425
1017.67255	22057.025
1021.38692	22061.425
1025.09872	22002.125
1028.80796	21955.625
1032.51465	21914.625
1036.21877	21874.625
1039.92035	21946.025
1043.61937	21970.025
1047.31584	22001.325
1051.00976	22033.025
1054.70114	22106.325
1058.38998	22103.125
1062.07627	22132.325
1065.76003	22229.325
1069.44126	22291.725
1073.11995	22436.025
1076.79611	22578.225
1080.46974	22711.425
1084.14085	22655.225
1087.80943	22618.325
1091.47549	22656.125
1095.13903	22688.325
1098.80005	22778.525
1102.45857	22759.825
1106.11456	22763.225
1109.76805	22648.125
1113.41903	22583.025
1117.06751	22493.025
1120.71348	22529.625
1124.35696	22492.025
1127.99793	22482.425
1131.63641	22528.125
1135.2724	22533.325
1138.90589	22499.625
1142.5369	22475.725
1146.16542	22490.625
1149.79145	22428.525
1153.415	22331.025
1157.03607	22225.225
1160.65467	22236.225
1164.27079	22268.025
1167.88443	22376.525
1171.49561	22547.925
1175.10432	22766.525
1178.71056	22988.625
1182.31434	23277.025
1185.91565	23486.225
1189.51451	23649.525
1193.11091	23776.325
1196.70485	23820.825
1200.29634	23780.125
1203.88538	23644.125
1207.47197	23548.125
1211.05612	23426.925
1214.63782	23282.525
1218.21708	23159.125
1221.79391	23008.225
1225.36829	22932.025
1228.94024	22871.525
1232.50976	22869.525
1236.07685	22842.425
1239.6415	22861.225
1243.20374	22894.025
1246.76355	22976.525
1250.32093	23058.725
1253.8759	23161.125
1257.42845	23322.025
1260.97859	23500.825
1264.52631	23591.625
1268.07163	23636.625
1271.61453	23653.025
1275.15503	23688.825
1278.69312	23693.025
1282.22882	23661.325
1285.76211	23638.825
1289.29301	23634.825
1292.82151	23690.825
1296.34761	23759.625
1299.87133	23877.225
1303.39266	24040.725
1306.9116	24256.225
1310.42815	24512.325
1313.94233	24678.525
1317.45412	24760.125
1320.96354	24752.425
1324.47058	24628.425
1327.97525	24404.625
1331.47754	24216.625
1334.97747	24140.425
1338.47502	24243.525
1341.97022	24548.825
1345.46305	24913.425
1348.95352	25261.325
1352.44163	25417.025
1355.92738	25376.025
1359.41078	25336.925
1362.89183	25162.225
1366.37053	24770.125
1369.84688	24293.125
1373.32088	23798.425
1376.79254	23450.725
1380.26186	23161.625
1383.72883	22996.425
1387.19347	22845.925
1390.65578	22680.125
1394.11575	22534.125
1397.57339	22359.825
1401.0287	22284.925
1404.48168	22219.025
1407.93234	22209.225
1411.38068	22243.325
1414.82669	22246.025
1418.27039	22147.125
1421.71177	22103.825
1425.15083	22031.825
1428.58758	22010.925
1432.02203	21959.925
1435.45416	21939.325
1438.88399	21887.025
1442.31151	21908.125
1445.73673	21899.125
1449.15965	21912.825
1452.58027	21913.025
1455.9986	21899.525
1459.41463	21940.225
1462.82837	22022.325
1466.23982	22202.525
1469.64898	22320.125
1473.05586	22415.025
1476.46045	22445.525
1479.86276	22477.225
1483.26279	22558.825
1486.66054	22565.125
1490.05602	22592.625
1493.44922	22726.525
1496.84016	22918.125
1500.22882	23147.725
1503.61521	23411.225
1506.99934	23652.325
1510.38121	23685.525
1513.76081	23550.025
1517.13816	23398.225
1520.51324	23190.525
1523.88607	23030.325
1527.25665	22949.725
1530.62498	22914.725
1533.99105	22873.725
1537.35488	22895.925
1540.71647	22955.125
1544.07581	22959.025
1547.4329	22975.525
1550.78776	22887.625
1554.14038	22836.325
1557.49077	22840.625
1560.83892	22796.625
1564.18484	22882.325
1567.52853	22869.925
1570.86999	22937.125
1574.20922	22954.525
1577.54624	22949.825
1580.88103	22868.225
1584.2136	22768.625
1587.54395	22725.225
1590.87208	22755.225
1594.19801	22884.025
1597.52172	23140.825
1600.84321	23216.925
1604.16251	23275.125
1607.47959	23208.725
1610.79447	22948.525
1614.10715	22587.125
1617.41763	22244.025
1620.7259	22026.425
1624.03199	21870.425
1627.33587	21778.125
1630.63757	21758.225
1633.93707	21784.325
1637.23439	21900.625
1640.52951	22207.225
1643.82246	22498.125
1647.11321	22736.225
1650.40179	22743.325
1653.68819	22509.825
1656.97241	22107.725
1660.25446	21741.125
1663.53433	21401.825
1666.81203	21257.825
1670.08756	21110.525
1673.36092	20968.925
1676.63211	20927.025
1679.90115	20847.925
1683.16801	20780.825
1686.43272	20782.525
1689.69527	20708.825
1692.95567	20673.825
1696.2139	20690.225
1699.46999	20645.925
1702.72392	20687.125
1705.97571	20665.825
1709.22535	20686.725
1712.47284	20670.025
1715.71819	20674.225
1718.96139	20660.025
1722.20246	20613.825
1725.44139	20564.825
1728.67818	20532.425
1731.91284	20477.025
1735.14537	20396.725
1738.37576	20344.825
1741.60403	20289.025
1744.83017	20255.225
1748.05418	20207.125
1751.27607	20160.925
1754.49584	20143.425
1757.71349	20153.625
1760.92903	20130.925
1764.14244	20113.225
1767.35375	20139.725
1770.56294	20088.325
1773.77002	20093.625
1776.97499	20089.025
1780.17785	20042.925
1783.37861	20033.425
1786.57727	19994.425
1789.77382	19949.125
1792.96828	20005.325
1796.16064	19940.425
1799.3509	19913.925
1802.53907	19901.325
1805.72514	19822.325
1808.90913	19789.125
1812.09102	19770.125
1815.27083	19697.325
1818.44856	19689.625
1821.6242	19657.125
1824.79776	19662.325
1827.96924	19641.225
1831.13864	19627.925
1834.30597	19578.225
1837.47122	19580.325
1840.6344	19575.925
1843.7955	19508.425
1846.95454	19513.925
1850.11151	19575.925
1853.26642	19520.825
1856.41926	19516.125
1859.57004	19518.625
1862.71876	19501.225
1865.86542	19494.825
1869.01003	19462.225
1872.15258	19454.625
1875.29308	19430.425
1878.43152	19381.225
1881.56792	19379.425
1884.70227	19345.225
1887.83457	19324.725
1890.96482	19267.625
1894.09304	19242.925
1897.21921	19230.825
1900.34335	19203.325
1903.46544	19171.425
1906.58551	19180.925
1909.70353	19178.025
1912.81953	19096.925
1915.93349	19071.725
1919.04543	19047.125
1922.15534	19019.125
1925.26322	18969.425
1928.36908	18965.425
1931.47292	18905.725
1934.57473	18886.425
1937.67453	18837.325
1940.77232	18751.725
1943.86808	18735.125
1946.96184	18699.825
1950.05358	18674.925
1953.14331	18613.925
1956.23103	18569.925
1959.31675	18481.225
1962.40046	18424.225
1965.48217	18400.625
1968.56188	18336.625
1971.63959	18298.425
1974.7153	18255.425
1977.78901	18237.125
1980.86073	18152.625
1983.93046	18100.425
1986.99819	18031.425
1990.06394	18001.025
1993.1277	17940.425
1996.18947	17867.325
1999.24925	17848.125
2002.30706	17742.525
2005.36288	17740.925
2008.41672	17697.425
2011.46859	17647.325
2014.51848	17595.625
2017.56639	17544.125
2020.61233	17450.225
2023.6563	17438.525
2026.6983	17382.125
2029.73833	17357.125
2032.7764	17305.425
2035.8125	17259.925
2038.84664	17199.125
2041.87881	17200.725
2044.90903	17132.825
2047.93729	17079.125
2050.96359	17090.525
2053.98794	17052.225
2057.01034	17049.125
2060.03078	17040.725
2063.04927	17015.025
2066.06582	17021.225
2069.08042	16989.225
2072.09307	17003.225
2075.10378	16960.825
2078.11255	16962.725
2081.11938	16973.725
2084.12426	16931.725
2087.12722	16944.125
2090.12824	16923.125
2093.12732	16903.525
2096.12447	16937.325
2099.11969	16911.825
2102.11299	16904.925
2105.10435	16935.525
2108.09379	16934.525
2111.08131	16938.725
2114.0669	16961.925
2117.05057	16981.125
2120.03233	16962.225
2123.01216	16948.925
2125.99008	16964.525
2128.96609	16975.425
2131.94018	17025.025
2134.91236	17031.725
2137.88263	16997.425
2140.851	17033.225
2143.81746	17066.525
2146.78201	17079.425
2149.74466	17050.125
2152.7054	17045.525
2155.66425	17023.725
2158.6212	17033.725
2161.57625	17057.225
2164.52941	17011.325
2167.48067	17017.325
2170.43004	17002.225
2173.37752	16993.025
2176.32311	16978.525
2179.26681	16970.325
2182.20863	16973.625
2185.14856	16989.025
2188.08661	16990.025
2191.02278	16988.825
2193.95707	16967.625
2196.88948	16940.825
2199.82001	16931.525
2202.74867	16885.325
2205.67545	16906.925
2208.60037	16891.025
2211.52341	16843.825
2214.44458	16789.525
2217.36388	16737.525
2220.28132	16700.825
2223.1969	16670.825
2226.11061	16633.725
2229.02246	16604.825
2231.93245	16573.225
2234.84058	16559.225
2237.74686	16521.025
2240.65128	16513.725
2243.55385	16483.725
2246.45456	16496.225
2249.35343	16458.425
2252.25044	16448.425
2255.14561	16394.325
2258.03893	16373.925
2260.93041	16345.825
2263.82004	16296.425
2266.70783	16280.625
2269.59378	16231.225
2272.4779	16187.725
2275.36017	16116.725
2278.24061	16128.425
2281.11922	16057.025
2283.996	16063.525
2286.87094	16018.125
2289.74405	15970.425
2292.61534	15930.225
2295.4848	15906.125
2298.35243	15945.925
2301.21824	15880.725
2304.08223	15933.225
2306.94439	15888.125
2309.80474	15852.225
2312.66327	15849.925
2315.51999	15820.725
2318.37489	15784.325
2321.22797	15758.725
2324.07925	15725.725
2326.92871	15711.225
2329.77637	15664.725
2332.62222	15628.625
2335.46626	15610.525
2338.3085	15559.625
2341.14893	15537.325
2343.98756	15543.925
2346.8244	15529.425
2349.65943	15513.025
2352.49267	15482.125
2355.32411	15469.125
2358.15376	15427.825
2360.98161	15423.425
2363.80768	15456.025
2366.63195	15432.725
2369.45444	15400.225
2372.27514	15363.725
2375.09405	15324.525
2377.91118	15315.525
2380.72652	15293.925
2383.54009	15253.525
2386.35187	15273.525
2389.16188	15209.425
2391.97011	15189.325
2394.77657	15123.025
2397.58125	15117.325
2400.38416	15098.825
2403.18529	15048.425
2405.98466	15041.025
2408.78226	15004.825
2411.57809	14986.725
2414.37216	14957.525
2417.16446	14952.325
2419.955	14951.125
2422.74378	14946.525
2425.5308	14931.125
2428.31606	14920.825
2431.09956	14880.125
2433.88131	14862.325
2436.6613	14831.625
2439.43954	14841.925
2442.21603	14818.225
2444.99077	14789.725
2447.76377	14769.925
2450.53501	14747.225
2453.30451	14730.025
2456.07226	14677.125
2458.83827	14629.625
2461.60254	14627.125
2464.36507	14585.625
2467.12586	14609.925
2469.88492	14562.525
2472.64224	14550.525
2475.39782	14554.225
2478.15167	14548.225
2480.90379	14550.925
2483.65417	14529.025
2486.40283	14508.025
2489.14976	14478.725
2491.89497	14461.025
2494.63845	14459.025
2497.3802	14423.125
2500.12024	14402.625
2502.85855	14364.025
2505.59514	14367.325
2508.33002	14343.025
2511.06318	14315.925
2513.79462	14313.225
2516.52435	14278.525
2519.25237	14266.625
2521.97867	14220.525
2524.70327	14186.225
2527.42616	14206.425
2530.14734	14187.025
2532.86681	14142.125
2535.58458	14153.225
2538.30065	14093.425
2541.01501	14102.425
2543.72768	14068.425
2546.43864	14033.925
2549.14791	14030.125
2551.85548	14000.525
2554.56136	13931.625
2557.26554	13924.425
2559.96803	13871.925
2562.66883	13856.725
2565.36794	13834.825
2568.06536	13813.425
2570.7611	13769.125
2573.45514	13760.025
2576.14751	13730.325
2578.83819	13701.725
2581.52719	13699.425
2584.21451	13654.025
2586.90015	13635.125
2589.58411	13604.525
2592.2664	13558.525
2594.94701	13538.025
2597.62594	13517.025
2600.30321	13509.825
2602.9788	13491.225
2605.65273	13433.025
2608.32498	13430.225
2610.99557	13406.625
2613.66449	13409.225
2616.33175	13370.825
2618.99734	13333.525
2621.66128	13291.825
2624.32355	13253.825
2626.98416	13258.925
2629.64311	13198.925
2632.30041	13204.525
2634.95605	13182.425
2637.61004	13129.925
2640.26238	13133.925
2642.91306	13086.625
2645.56209	13083.025
2648.20948	13075.025
2650.85521	13044.625
2653.4993	13040.725
2656.14175	13016.425
2658.78255	13026.225
2661.42171	13012.225
2664.05923	13048.625
2666.6951	12996.425
2669.32934	13034.125
2671.96194	13023.125
2674.59291	13007.525
2677.22224	13009.725
2679.84993	13004.025
2682.476	12980.325
2685.10043	12961.125
2687.72324	12948.025
2690.34441	12953.925
2692.96396	12945.225
2695.58188	12922.725
2698.19818	12915.625
2700.81285	12934.625
2703.4259	12930.525
2706.03733	12909.025
2708.64714	12902.825
2711.25533	12891.425
2713.86191	12875.425
2716.46687	12905.425
2719.07021	12886.125
2721.67194	12884.025
2724.27206	12887.125
2726.87057	12877.125
2729.46747	12872.225
2732.06276	12886.125
2734.65644	12867.925
2737.24852	12876.425
2739.83899	12848.725
2742.42786	12827.425
2745.01513	12792.625
2747.60079	12780.625
2750.18486	12777.625
2752.76733	12721.825
2755.3482	12711.825
2757.92747	12706.425
2760.50515	12679.425
2763.08123	12669.525
2765.65573	12650.025
2768.22863	12617.825
2770.79994	12576.425
2773.36967	12555.825
2775.9378	12549.425
2778.50435	12556.225
2781.06932	12515.025
2783.6327	12497.425
2786.1945	12461.625
2788.75471	12418.625
2791.31335	12394.125
2793.87041	12410.125
2796.42589	12355.225
2798.97979	12338.425
2801.53212	12269.125
2804.08288	12275.025
2806.63206	12205.925
2809.17967	12187.525
2811.72571	12135.225
2814.27018	12142.425
2816.81308	12096.525
2819.35442	12057.725
2821.89419	12038.125
2824.43239	12014.625
2826.96904	11963.025
2829.50412	11969.125
2832.03763	11939.125
2834.56959	11931.125
2837.1	11901.425
2839.62884	11901.125
2842.15613	11911.425
2844.68186	11880.625
2847.20604	11859.225
2849.72867	11840.925
2852.24974	11839.025
2854.76927	11801.225
2857.28724	11751.925
2859.80367	11771.725
2862.31855	11746.225
2864.83189	11705.425
2867.34368	11684.425
2869.85393	11683.125
2872.36264	11674.125
2874.8698	11641.125
2877.37543	11609.425
2879.87952	11626.025
2882.38207	11610.925
2884.88308	11593.225
2887.38256	11620.825
2889.88051	11567.025
2892.37692	11550.225
2894.8718	11559.025
2897.36515	11579.525
2899.85698	11591.125
2902.34727	11577.325
2904.83604	11585.925
2907.32328	11594.825
2909.809	11587.925
2912.29319	11551.125
2914.77587	11552.925
2917.25702	11545.225
2919.73665	11518.925
2922.21476	11527.625
2924.69136	11521.725
2927.16644	11499.125
2929.64	11501.125
2932.11205	11497.325
2934.58258	11437.225
2937.05161	11450.625
2939.51912	11452.225
2941.98513	11416.925
2944.44962	11425.525
2946.91261	11392.925
2949.37409	11415.325
2951.83407	11395.125
2954.29254	11420.325
2956.74951	11384.725
2959.20498	11404.525
2961.65895	11379.825
2964.11142	11402.825
2966.56239	11378.925
2969.01186	11408.625
2971.45984	11381.325
2973.90632	11351.825
2976.35131	11352.725
2978.7948	11319.625
2981.23681	11284.925
2983.67732	11288.125
2986.11635	11258.925
2988.55388	11231.825
2990.98993	11228.925
2993.4245	11213.625
2995.85758	11180.625
2998.28917	11163.425
3000.71928	11122.125
3003.14791	11086.025
3005.57506	11100.025
3008.00073	11015.825
3010.42493	11035.725
3012.84764	11045.225
3015.26888	11005.125
3017.68865	11009.325
3020.10694	10965.625
3022.52376	10959.925
3024.9391	10947.425
3027.35298	10930.425
3029.76539	10920.725
3032.17632	10892.025
3034.5858	10855.325
3036.9938	10862.625
3039.40034	10853.725
3041.80542	10860.825
3044.20903	10802.325
3046.61118	10794.325
3049.01187	10783.525
3051.4111	10774.025
3053.80888	10753.525
3056.20519	10727.825
3058.60005	10714.625
3060.99345	10717.725
3063.3854	10683.725
3065.7759	10639.825
3068.16494	10634.125
3070.55254	10590.125
3072.93868	10589.425
3075.32338	10557.225
3077.70662	10529.725
3080.08842	10485.225
3082.46878	10482.325
3084.84769	10481.625
3087.22515	10466.825
3089.60118	10487.225
3091.97576	10492.325
3094.3489	10460.525
3096.72061	10483.025
3099.09087	10490.825
3101.4597	10493.125
3103.82709	10484.425
3106.19305	10465.025
3108.55757	10486.325
3110.92066	10443.725
3113.28232	10449.925
3115.64255	10402.725
3118.00134	10368.025
3120.35871	10362.125
3122.71466	10334.725
3125.06917	10327.125
3127.42226	10303.725
3129.77393	10316.425
