Data from AgNPs_APTES_FTO_UA_100uM_CRN_0uM_R6G_10uM_Scan_RamanShift__63__16-56-12-999.txt Node

Date: Mon Jul 11 16:56:12 BST 2022
User: TCL
Spectrometer: QEP01345
Trigger mode: 4
Integration Time (sec): 7.000000E0
Scans to average: 10
Electric dark correction enabled: true
Nonlinearity correction enabled: false
Boxcar width: 0
XAxis mode: Raman Shifts
Number of Pixels in Spectrum: 1044
>>>>>Begin Spectral Data<<<<<
46.04893	-0.5625
50.45542	0.8375
54.85868	-0.2625
59.25871	-2.3625
63.6555	46.2375
68.04907	46.9375
72.43941	53.6375
76.82654	53.4375
81.21044	58.3375
85.59113	57.9375
89.96862	60.5375
94.34289	62.8375
98.71396	63.9375
103.08183	66.0375
107.4465	67.3375
111.80798	67.9375
116.16626	69.9375
120.52136	72.9375
124.87327	76.4375
129.222	75.7375
133.56755	80.7375
137.90993	90.9375
142.24913	97.8375
146.58517	103.7375
150.91804	115.5375
155.24774	139.4375
159.57429	173.0375
163.89768	216.1375
168.21792	278.2375
172.53501	376.5375
176.84895	529.0375
181.15975	744.6375
185.46741	1050.0375
189.77193	1435.1375
194.07331	1936.4375
198.37157	2492.4375
202.6667	3079.7375
206.9587	3659.2375
211.24758	4222.3375
215.53334	4774.6375
219.81599	5353.1375
224.09553	5998.0375
228.37195	6682.4375
232.64527	7464.8375
236.91549	8297.9375
241.18261	9178.9375
245.44663	10067.4375
249.70755	10888.3375
253.96539	11640.4375
258.22014	12246.7375
262.4718	12717.7375
266.72039	12978.4375
270.96589	13092.6375
275.20832	13104.8375
279.44768	12952.1375
283.68397	12769.1375
287.91719	12576.5375
292.14735	12428.4375
296.37445	12239.7375
300.59849	12116.2375
304.81948	12049.7375
309.03742	11997.1375
313.25231	11934.4375
317.46415	11927.6375
321.67296	11949.2375
325.87872	11959.4375
330.08145	12031.7375
334.28114	12185.7375
338.47781	12315.9375
342.67145	12445.2375
346.86207	12599.6375
351.04966	12787.6375
355.23424	12962.4375
359.4158	13152.5375
363.59435	13347.0375
367.76989	13503.4375
371.94243	13662.8375
376.11196	13812.8375
380.27849	13938.6375
384.44203	14096.2375
388.60257	14255.1375
392.76012	14397.4375
396.91468	14534.2375
401.06626	14674.9375
405.21485	14783.6375
409.36047	14876.9375
413.50311	14932.9375
417.64277	14942.7375
421.77947	15001.0375
425.9132	15058.2375
430.04396	15165.8375
434.17176	15295.1375
438.2966	15432.4375
442.41849	15566.6375
446.53742	15731.8375
450.6534	15894.6375
454.76644	16062.8375
458.87653	16154.0375
462.98368	16280.0375
467.08789	16354.0375
471.18916	16376.7375
475.2875	16347.9375
479.38291	16357.1375
483.4754	16398.1375
487.56496	16422.3375
491.6516	16432.4375
495.73531	16504.8375
499.81612	16511.0375
503.89401	16613.9375
507.96899	16685.2375
512.04106	16732.2375
516.11023	16795.3375
520.1765	16800.6375
524.23987	16874.5375
528.30034	16945.2375
532.35792	16978.3375
536.41261	17046.6375
540.46441	17047.6375
544.51333	17072.2375
548.55936	17124.1375
552.60252	17233.6375
556.64279	17301.3375
560.6802	17458.6375
564.71473	17542.5375
568.7464	17509.4375
572.7752	17516.5375
576.80114	17522.3375
580.82422	17570.1375
584.84444	17649.1375
588.86181	17739.8375
592.87633	17831.4375
596.888	17909.7375
600.89682	18016.7375
604.9028	18312.5375
608.90594	18814.0375
612.90624	19201.4375
616.90371	18914.4375
620.89834	18372.4375
624.89015	18184.0375
628.87913	18222.4375
632.86528	18327.3375
636.84862	18452.8375
640.82913	18447.4375
644.80683	18405.0375
648.78172	18383.4375
652.75379	18458.5375
656.72306	18560.7375
660.68952	18680.9375
664.65319	18741.2375
668.61405	18832.1375
672.57211	18871.4375
676.52738	18947.5375
680.47986	18998.6375
684.42955	19080.2375
688.37646	19176.1375
692.32058	19281.4375
696.26192	19356.3375
700.20048	19468.5375
704.13626	19497.8375
708.06928	19501.0375
711.99952	19458.6375
715.927	19451.3375
719.85171	19496.4375
723.77365	19464.5375
727.69284	19430.7375
731.60928	19424.6375
735.52295	19378.3375
739.43388	19489.3375
743.34206	19509.4375
747.24749	19515.5375
751.15017	19614.8375
755.05012	19629.3375
758.94733	19693.7375
762.8418	19851.4375
766.73354	20126.1375
770.62254	20355.6375
774.50882	20534.0375
778.39237	20569.1375
782.27321	20434.8375
786.15132	20269.6375
790.02671	20125.3375
793.89938	20038.4375
797.76935	19931.9375
801.6366	19959.1375
805.50115	19987.1375
809.36299	20018.5375
813.22213	19980.9375
817.07857	20029.1375
820.93231	20032.9375
824.78336	20055.1375
828.63172	20092.6375
832.47738	20137.7375
836.32036	20191.4375
840.16066	20236.8375
843.99827	20235.7375
847.8332	20257.9375
851.66546	20306.4375
855.49504	20352.1375
859.32195	20371.0375
863.1462	20406.7375
866.96777	20463.7375
870.78668	20512.4375
874.60293	20585.4375
878.41652	20615.4375
882.22745	20644.0375
886.03573	20680.9375
889.84136	20736.5375
893.64433	20742.7375
897.44466	20744.5375
901.24235	20757.3375
905.0374	20774.6375
908.8298	20792.1375
912.61957	20830.9375
916.40671	20844.4375
920.19121	20818.4375
923.97308	20828.6375
927.75233	20791.6375
931.52895	20815.5375
935.30295	20836.9375
939.07433	20771.1375
942.84309	20734.4375
946.60924	20736.1375
950.37278	20683.4375
954.13371	20673.8375
957.89203	20691.9375
961.64774	20706.4375
965.40086	20674.1375
969.15137	20689.9375
972.89929	20677.6375
976.64461	20655.4375
980.38733	20681.0375
984.12747	20694.9375
987.86502	20724.9375
991.59999	20779.9375
995.33237	20832.4375
999.06217	20871.4375
1002.78939	20980.4375
1006.51404	21099.2375
1010.23611	21188.8375
1013.95561	21230.9375
1017.67255	21274.7375
1021.38692	21314.0375
1025.09872	21259.0375
1028.80796	21188.6375
1032.51465	21147.1375
1036.21877	21171.6375
1039.92035	21190.7375
1043.61937	21193.1375
1047.31584	21256.8375
1051.00976	21284.5375
1054.70114	21299.3375
1058.38998	21362.1375
1062.07627	21368.9375
1065.76003	21472.2375
1069.44126	21526.9375
1073.11995	21669.5375
1076.79611	21848.8375
1080.46974	21923.3375
1084.14085	21864.8375
1087.80943	21823.1375
1091.47549	21806.7375
1095.13903	21893.2375
1098.80005	21933.1375
1102.45857	21956.5375
1106.11456	21951.4375
1109.76805	21847.8375
1113.41903	21799.6375
1117.06751	21733.9375
1120.71348	21741.1375
1124.35696	21711.4375
1127.99793	21729.9375
1131.63641	21762.9375
1135.2724	21766.2375
1138.90589	21751.3375
1142.5369	21725.0375
1146.16542	21735.2375
1149.79145	21662.7375
1153.415	21566.8375
1157.03607	21504.9375
1160.65467	21463.4375
1164.27079	21555.2375
1167.88443	21600.5375
1171.49561	21775.5375
1175.10432	21916.5375
1178.71056	22198.9375
1182.31434	22463.0375
1185.91565	22622.8375
1189.51451	22822.4375
1193.11091	22927.2375
1196.70485	22975.2375
1200.29634	22922.8375
1203.88538	22834.9375
1207.47197	22719.1375
1211.05612	22575.0375
1214.63782	22502.2375
1218.21708	22355.9375
1221.79391	22209.5375
1225.36829	22138.1375
1228.94024	22107.4375
1232.50976	22100.2375
1236.07685	22067.7375
1239.6415	22059.7375
1243.20374	22111.8375
1246.76355	22224.0375
1250.32093	22269.3375
1253.8759	22400.6375
1257.42845	22503.0375
1260.97859	22669.4375
1264.52631	22742.7375
1268.07163	22842.6375
1271.61453	22862.6375
1275.15503	22867.8375
1278.69312	22891.1375
1282.22882	22865.1375
1285.76211	22830.1375
1289.29301	22795.9375
1292.82151	22856.0375
1296.34761	22920.3375
1299.87133	23087.0375
1303.39266	23169.0375
1306.9116	23406.3375
1310.42815	23659.9375
1313.94233	23787.0375
1317.45412	23857.5375
1320.96354	23860.0375
1324.47058	23732.9375
1327.97525	23532.9375
1331.47754	23381.8375
1334.97747	23270.1375
1338.47502	23369.7375
1341.97022	23659.9375
1345.46305	24002.9375
1348.95352	24357.5375
1352.44163	24425.8375
1355.92738	24451.8375
1359.41078	24384.1375
1362.89183	24203.7375
1366.37053	23860.8375
1369.84688	23386.6375
1373.32088	22958.5375
1376.79254	22616.2375
1380.26186	22365.2375
1383.72883	22178.5375
1387.19347	22062.0375
1390.65578	21880.2375
1394.11575	21745.7375
1397.57339	21618.0375
1401.0287	21543.5375
1404.48168	21485.3375
1407.93234	21488.6375
1411.38068	21504.3375
1414.82669	21463.2375
1418.27039	21373.8375
1421.71177	21351.6375
1425.15083	21277.5375
1428.58758	21261.7375
1432.02203	21245.2375
1435.45416	21161.2375
1438.88399	21152.9375
1442.31151	21130.8375
1445.73673	21154.4375
1449.15965	21191.8375
1452.58027	21170.0375
1455.9986	21193.1375
1459.41463	21204.6375
1462.82837	21267.7375
1466.23982	21386.2375
1469.64898	21575.6375
1473.05586	21645.8375
1476.46045	21701.2375
1479.86276	21734.2375
1483.26279	21739.8375
1486.66054	21743.9375
1490.05602	21800.5375
1493.44922	21921.4375
1496.84016	22106.7375
1500.22882	22325.5375
1503.61521	22590.5375
1506.99934	22766.2375
1510.38121	22785.6375
1513.76081	22704.2375
1517.13816	22508.4375
1520.51324	22357.7375
1523.88607	22230.3375
1527.25665	22151.5375
1530.62498	22087.7375
1533.99105	22097.2375
1537.35488	22101.9375
1540.71647	22142.3375
1544.07581	22201.3375
1547.4329	22149.7375
1550.78776	22146.7375
1554.14038	22087.6375
1557.49077	22060.3375
1560.83892	22050.9375
1564.18484	22109.1375
1567.52853	22088.8375
1570.86999	22136.2375
1574.20922	22199.5375
1577.54624	22173.1375
1580.88103	22119.7375
1584.2136	21985.3375
1587.54395	21957.0375
1590.87208	21999.4375
1594.19801	22115.5375
1597.52172	22279.1375
1600.84321	22430.2375
1604.16251	22498.5375
1607.47959	22401.7375
1610.79447	22151.8375
1614.10715	21824.5375
1617.41763	21508.8375
1620.7259	21317.2375
1624.03199	21170.9375
1627.33587	21077.8375
1630.63757	21058.7375
1633.93707	21079.2375
1637.23439	21221.7375
1640.52951	21453.9375
1643.82246	21750.4375
1647.11321	21956.3375
1650.40179	21980.6375
1653.68819	21739.8375
1656.97241	21352.8375
1660.25446	20976.1375
1663.53433	20723.6375
1666.81203	20549.6375
1670.08756	20412.8375
1673.36092	20327.6375
1676.63211	20239.5375
1679.90115	20141.3375
1683.16801	20127.8375
1686.43272	20077.1375
1689.69527	20045.9375
1692.95567	20003.2375
1696.2139	20046.1375
1699.46999	20020.5375
1702.72392	20024.3375
1705.97571	20006.1375
1709.22535	19991.6375
1712.47284	20019.7375
1715.71819	19980.3375
1718.96139	19993.1375
1722.20246	19931.0375
1725.44139	19900.5375
1728.67818	19855.1375
1731.91284	19816.6375
1735.14537	19766.9375
1738.37576	19736.0375
1741.60403	19656.1375
1744.83017	19600.9375
1748.05418	19580.1375
1751.27607	19530.1375
1754.49584	19511.1375
1757.71349	19499.6375
1760.92903	19486.3375
1764.14244	19474.8375
1767.35375	19491.4375
1770.56294	19439.7375
1773.77002	19415.0375
1776.97499	19447.7375
1780.17785	19390.2375
1783.37861	19380.6375
1786.57727	19367.5375
1789.77382	19344.5375
1792.96828	19311.5375
1796.16064	19294.8375
1799.3509	19300.9375
1802.53907	19241.0375
1805.72514	19174.4375
1808.90913	19151.6375
1812.09102	19114.6375
1815.27083	19072.3375
1818.44856	19063.1375
1821.6242	19053.1375
1824.79776	19031.2375
1827.96924	19003.1375
1831.13864	18973.3375
1834.30597	18971.2375
1837.47122	18942.7375
1840.6344	18920.1375
1843.7955	18918.7375
1846.95454	18909.1375
1850.11151	18920.7375
1853.26642	18917.4375
1856.41926	18851.7375
1859.57004	18898.2375
1862.71876	18867.5375
1865.86542	18869.2375
1869.01003	18846.0375
1872.15258	18800.1375
1875.29308	18778.2375
1878.43152	18768.4375
1881.56792	18730.9375
1884.70227	18724.7375
1887.83457	18675.7375
1890.96482	18654.4375
1894.09304	18642.9375
1897.21921	18588.6375
1900.34335	18612.5375
1903.46544	18592.5375
1906.58551	18581.3375
1909.70353	18510.7375
1912.81953	18476.4375
1915.93349	18482.8375
1919.04543	18417.4375
1922.15534	18396.2375
1925.26322	18380.0375
1928.36908	18356.6375
1931.47292	18302.1375
1934.57473	18276.1375
1937.67453	18212.5375
1940.77232	18204.7375
1943.86808	18171.3375
1946.96184	18125.1375
1950.05358	18067.9375
1953.14331	18008.0375
1956.23103	17947.3375
1959.31675	17918.0375
1962.40046	17854.3375
1965.48217	17778.4375
1968.56188	17770.0375
1971.63959	17710.4375
1974.7153	17678.4375
1977.78901	17629.1375
1980.86073	17532.5375
1983.93046	17504.8375
1986.99819	17444.8375
1990.06394	17412.1375
1993.1277	17411.4375
1996.18947	17333.2375
1999.24925	17302.0375
2002.30706	17224.1375
2005.36288	17180.1375
2008.41672	17152.5375
2011.46859	17089.3375
2014.51848	17019.9375
2017.56639	16971.7375
2020.61233	16888.4375
2023.6563	16858.4375
2026.6983	16801.6375
2029.73833	16766.0375
2032.7764	16721.1375
2035.8125	16690.4375
2038.84664	16661.9375
2041.87881	16604.3375
2044.90903	16596.4375
2047.93729	16547.4375
2050.96359	16538.6375
2053.98794	16489.8375
2057.01034	16480.7375
2060.03078	16506.0375
2063.04927	16478.1375
2066.06582	16474.8375
2069.08042	16455.1375
2072.09307	16456.3375
2075.10378	16453.3375
2078.11255	16434.1375
2081.11938	16425.4375
2084.12426	16423.4375
2087.12722	16399.8375
2090.12824	16398.8375
2093.12732	16418.8375
2096.12447	16405.4375
2099.11969	16380.5375
2102.11299	16382.7375
2105.10435	16401.3375
2108.09379	16397.6375
2111.08131	16397.8375
2114.0669	16403.1375
2117.05057	16455.9375
2120.03233	16433.0375
2123.01216	16424.9375
2125.99008	16422.3375
2128.96609	16460.3375
2131.94018	16470.6375
2134.91236	16490.0375
2137.88263	16490.7375
2140.851	16476.5375
2143.81746	16531.1375
2146.78201	16501.0375
2149.74466	16532.1375
2152.7054	16531.5375
2155.66425	16523.2375
2158.6212	16502.6375
2161.57625	16511.4375
2164.52941	16489.6375
2167.48067	16461.4375
2170.43004	16476.5375
2173.37752	16416.7375
2176.32311	16432.3375
2179.26681	16450.1375
2182.20863	16410.8375
2185.14856	16469.0375
2188.08661	16485.9375
2191.02278	16435.4375
2193.95707	16427.2375
2196.88948	16413.4375
2199.82001	16386.4375
2202.74867	16343.2375
2205.67545	16389.1375
2208.60037	16331.8375
2211.52341	16320.0375
2214.44458	16294.9375
2217.36388	16215.0375
2220.28132	16200.4375
2223.1969	16130.7375
2226.11061	16127.8375
2229.02246	16104.1375
2231.93245	16069.4375
2234.84058	16026.8375
2237.74686	16021.0375
2240.65128	15981.8375
2243.55385	15974.7375
2246.45456	15952.7375
2249.35343	15940.6375
2252.25044	15871.3375
2255.14561	15886.2375
2258.03893	15847.3375
2260.93041	15798.4375
2263.82004	15804.8375
2266.70783	15749.7375
2269.59378	15715.7375
2272.4779	15701.5375
2275.36017	15643.4375
2278.24061	15613.8375
2281.11922	15570.0375
2283.996	15543.8375
2286.87094	15478.7375
2289.74405	15444.3375
2292.61534	15454.9375
2295.4848	15438.9375
2298.35243	15412.4375
2301.21824	15417.7375
2304.08223	15407.5375
2306.94439	15392.1375
2309.80474	15380.0375
2312.66327	15351.4375
2315.51999	15326.3375
2318.37489	15317.1375
2321.22797	15318.8375
2324.07925	15231.0375
2326.92871	15197.2375
2329.77637	15174.9375
2332.62222	15146.2375
2335.46626	15130.2375
2338.3085	15066.4375
2341.14893	15074.9375
2343.98756	15050.0375
2346.8244	15035.6375
2349.65943	15025.2375
2352.49267	15001.8375
2355.32411	14995.3375
2358.15376	14967.6375
2360.98161	14938.3375
2363.80768	14943.4375
2366.63195	14924.8375
2369.45444	14909.1375
2372.27514	14875.3375
2375.09405	14891.8375
2377.91118	14840.7375
2380.72652	14810.1375
2383.54009	14794.7375
2386.35187	14762.1375
2389.16188	14754.2375
2391.97011	14690.5375
2394.77657	14696.1375
2397.58125	14641.3375
2400.38416	14610.2375
2403.18529	14594.8375
2405.98466	14559.3375
2408.78226	14518.4375
2411.57809	14480.5375
2414.37216	14475.0375
2417.16446	14471.7375
2419.955	14470.4375
2422.74378	14472.3375
2425.5308	14442.1375
2428.31606	14424.2375
2431.09956	14440.7375
2433.88131	14380.1375
2436.6613	14386.4375
2439.43954	14373.4375
2442.21603	14322.7375
2444.99077	14332.1375
2447.76377	14315.2375
2450.53501	14281.3375
2453.30451	14261.4375
2456.07226	14243.4375
2458.83827	14195.7375
2461.60254	14181.9375
2464.36507	14174.6375
2467.12586	14130.9375
2469.88492	14126.7375
2472.64224	14126.2375
2475.39782	14099.9375
2478.15167	14120.0375
2480.90379	14081.5375
2483.65417	14100.4375
2486.40283	14063.9375
2489.14976	14048.2375
2491.89497	14024.4375
2494.63845	14005.2375
2497.3802	13993.4375
2500.12024	13959.9375
2502.85855	13946.4375
2505.59514	13925.0375
2508.33002	13922.4375
2511.06318	13877.6375
2513.79462	13852.7375
2516.52435	13842.6375
2519.25237	13803.3375
2521.97867	13786.3375
2524.70327	13758.7375
2527.42616	13756.4375
2530.14734	13754.7375
2532.86681	13718.2375
2535.58458	13718.7375
2538.30065	13687.1375
2541.01501	13647.7375
2543.72768	13624.4375
2546.43864	13603.6375
2549.14791	13584.8375
2551.85548	13563.4375
2554.56136	13536.8375
2557.26554	13493.1375
2559.96803	13454.8375
2562.66883	13414.4375
2565.36794	13395.9375
2568.06536	13394.5375
2570.7611	13372.7375
2573.45514	13322.0375
2576.14751	13321.1375
2578.83819	13310.9375
2581.52719	13246.6375
2584.21451	13233.8375
2586.90015	13193.4375
2589.58411	13154.5375
2592.2664	13135.6375
2594.94701	13108.1375
2597.62594	13113.6375
2600.30321	13097.5375
2602.9788	13066.0375
2605.65273	13065.0375
2608.32498	13037.0375
2610.99557	12993.8375
2613.66449	12965.3375
2616.33175	12932.0375
2618.99734	12917.2375
2621.66128	12861.5375
2624.32355	12869.4375
2626.98416	12835.0375
2629.64311	12822.5375
2632.30041	12818.3375
2634.95605	12766.2375
2637.61004	12745.6375
2640.26238	12714.1375
2642.91306	12725.4375
2645.56209	12663.2375
2648.20948	12687.5375
2650.85521	12658.5375
2653.4993	12619.9375
2656.14175	12625.1375
2658.78255	12654.1375
2661.42171	12620.4375
2664.05923	12642.2375
2666.6951	12595.8375
2669.32934	12629.7375
2671.96194	12630.5375
2674.59291	12601.0375
2677.22224	12581.0375
2679.84993	12618.6375
2682.476	12588.4375
2685.10043	12557.7375
2687.72324	12547.0375
2690.34441	12531.7375
2692.96396	12528.5375
2695.58188	12534.7375
2698.19818	12550.8375
2700.81285	12538.1375
2703.4259	12506.0375
2706.03733	12510.0375
2708.64714	12490.4375
2711.25533	12509.1375
2713.86191	12491.1375
2716.46687	12513.4375
2719.07021	12502.3375
2721.67194	12504.9375
2724.27206	12492.2375
2726.87057	12488.7375
2729.46747	12491.1375
2732.06276	12484.7375
2734.65644	12494.1375
2737.24852	12498.1375
2739.83899	12456.9375
2742.42786	12468.5375
2745.01513	12394.8375
2747.60079	12390.5375
2750.18486	12351.8375
2752.76733	12348.3375
2755.3482	12307.3375
2757.92747	12302.0375
2760.50515	12298.8375
2763.08123	12280.1375
2765.65573	12233.1375
2768.22863	12242.7375
2770.79994	12187.2375
2773.36967	12200.6375
2775.9378	12148.8375
2778.50435	12151.0375
2781.06932	12143.9375
2783.6327	12106.3375
2786.1945	12074.8375
2788.75471	12048.5375
2791.31335	12012.2375
2793.87041	12009.0375
2796.42589	11950.2375
2798.97979	11986.1375
2801.53212	11888.4375
2804.08288	11906.5375
2806.63206	11844.3375
2809.17967	11805.9375
2811.72571	11793.4375
2814.27018	11755.3375
2816.81308	11725.9375
2819.35442	11692.9375
2821.89419	11667.8375
2824.43239	11633.6375
2826.96904	11623.5375
2829.50412	11599.7375
2832.03763	11572.6375
2834.56959	11579.2375
2837.1	11554.8375
2839.62884	11528.1375
2842.15613	11504.3375
2844.68186	11505.2375
2847.20604	11507.7375
2849.72867	11461.2375
2852.24974	11487.0375
2854.76927	11418.6375
2857.28724	11400.4375
2859.80367	11417.8375
2862.31855	11360.3375
2864.83189	11370.4375
2867.34368	11322.0375
2869.85393	11325.6375
2872.36264	11305.3375
2874.8698	11286.2375
2877.37543	11266.7375
2879.87952	11263.3375
2882.38207	11239.3375
2884.88308	11236.9375
2887.38256	11258.1375
2889.88051	11226.0375
2892.37692	11214.3375
2894.8718	11208.0375
2897.36515	11230.1375
2899.85698	11217.7375
2902.34727	11232.1375
2904.83604	11243.8375
2907.32328	11245.3375
2909.809	11226.2375
2912.29319	11239.9375
2914.77587	11228.6375
2917.25702	11189.7375
2919.73665	11154.6375
2922.21476	11191.6375
2924.69136	11151.1375
2927.16644	11164.0375
2929.64	11152.0375
2932.11205	11146.7375
2934.58258	11096.0375
2937.05161	11101.8375
2939.51912	11067.7375
2941.98513	11079.7375
2944.44962	11085.4375
2946.91261	11058.9375
2949.37409	11053.1375
2951.83407	11093.1375
2954.29254	11064.0375
2956.74951	11042.4375
2959.20498	11049.3375
2961.65895	11032.6375
2964.11142	11051.7375
2966.56239	11046.9375
2969.01186	11053.8375
2971.45984	11040.0375
2973.90632	11019.2375
2976.35131	11000.6375
2978.7948	10964.3375
2981.23681	10963.3375
2983.67732	10949.8375
2986.11635	10930.4375
2988.55388	10893.5375
2990.98993	10876.9375
2993.4245	10859.4375
2995.85758	10862.2375
2998.28917	10814.1375
3000.71928	10794.2375
3003.14791	10747.8375
3005.57506	10736.0375
3008.00073	10704.7375
3010.42493	10710.9375
3012.84764	10693.0375
3015.26888	10693.1375
3017.68865	10635.5375
3020.10694	10646.3375
3022.52376	10632.1375
3024.9391	10620.5375
3027.35298	10597.3375
