Data from AgNPs_FTO_APTES_UA_20uM_CRN_1uM_R6G_10uM_NaF_0.1M_Addition_RamanShift__19__12-24-12-040.txt Node

Date: Thu Feb 17 12:24:12 GMT 2022
User: TCL
Spectrometer: QEP01345
Trigger mode: 4
Integration Time (sec): 7.000000E0
Scans to average: 10
Electric dark correction enabled: true
Nonlinearity correction enabled: false
Boxcar width: 0
XAxis mode: Raman Shifts
Number of Pixels in Spectrum: 1044
>>>>>Begin Spectral Data<<<<<
46.04893	-0.125
50.45542	-1.125
54.85868	-3.025
59.25871	-2.125
63.6555	118.075
68.04907	114.875
72.43941	117.175
76.82654	125.775
81.21044	127.675
85.59113	133.875
89.96862	132.975
94.34289	135.075
98.71396	142.475
103.08183	147.675
107.4465	151.275
111.80798	156.275
116.16626	163.275
120.52136	166.075
124.87327	175.875
129.222	186.175
133.56755	203.475
137.90993	220.075
142.24913	241.875
146.58517	274.275
150.91804	327.875
155.24774	385.075
159.57429	488.875
163.89768	634.375
168.21792	849.275
172.53501	1170.175
176.84895	1650.375
181.15975	2306.275
185.46741	3273.475
189.77193	4507.875
194.07331	6048.675
198.37157	7788.875
202.6667	9611.475
206.9587	11474.875
211.24758	13266.275
215.53334	15075.975
219.81599	16976.975
224.09553	19130.775
228.37195	21470.275
232.64527	24114.675
236.91549	26790.375
241.18261	29578.075
245.44663	32132.475
249.70755	34438.475
253.96539	36450.675
258.22014	38221.675
262.4718	39603.775
266.72039	40646.375
270.96589	41201.275
275.20832	41310.775
279.44768	41011.675
283.68397	40682.275
287.91719	40357.475
292.14735	40141.275
296.37445	40098.775
300.59849	40177.975
304.81948	40364.275
309.03742	40314.475
313.25231	40083.675
317.46415	39471.175
321.67296	38611.675
325.87872	37973.375
330.08145	37633.275
334.28114	37667.075
338.47781	37967.975
342.67145	38500.275
346.86207	39114.975
351.04966	39873.475
355.23424	40640.575
359.4158	41327.675
363.59435	41882.575
367.76989	42267.275
371.94243	42580.875
376.11196	42826.675
380.27849	43065.975
384.44203	43322.575
388.60257	43535.575
392.76012	43879.975
396.91468	44469.375
401.06626	44972.875
405.21485	45451.975
409.36047	45364.275
413.50311	44860.675
417.64277	44524.975
421.77947	44518.675
425.9132	44747.375
430.04396	45050.775
434.17176	45318.875
438.2966	45784.275
442.41849	46615.775
446.53742	47835.075
450.6534	49336.675
454.76644	50418.675
458.87653	50782.775
462.98368	50421.775
467.08789	49710.275
471.18916	48877.775
475.2875	48193.975
479.38291	47799.075
483.4754	47479.475
487.56496	47022.575
491.6516	46428.075
495.73531	45910.475
499.81612	45652.775
503.89401	45885.875
507.96899	46115.375
512.04106	46019.575
516.11023	45763.775
520.1765	45435.675
524.23987	45182.475
528.30034	44982.275
532.35792	44619.575
536.41261	44208.675
540.46441	43778.975
544.51333	43774.775
548.55936	44147.375
552.60252	45058.875
556.64279	46136.975
560.6802	46949.475
564.71473	47420.475
568.7464	48210.575
572.7752	49375.575
576.80114	50417.275
580.82422	51265.475
584.84444	52161.675
588.86181	53250.775
592.87633	54316.375
596.888	54295.675
600.89682	53296.675
604.9028	54007.075
608.90594	57759.775
612.90624	61503.475
616.90371	58081.175
620.89834	49980.575
624.89015	46487.775
628.87913	46012.075
632.86528	46055.975
636.84862	45835.775
640.82913	45159.575
644.80683	44283.175
648.78172	43537.775
652.75379	43497.375
656.72306	44043.975
660.68952	44749.075
664.65319	44660.175
668.61405	44003.375
672.57211	43804.775
676.52738	43905.775
680.47986	43887.075
684.42955	43682.975
688.37646	43631.575
692.32058	43877.275
696.26192	44418.275
700.20048	45023.675
704.13626	45272.975
708.06928	45232.175
711.99952	44908.675
715.927	44842.475
719.85171	45062.375
723.77365	44995.575
727.69284	44620.075
731.60928	44168.775
735.52295	43997.075
739.43388	44054.475
743.34206	44283.975
747.24749	44510.875
751.15017	44875.175
755.05012	45488.775
758.94733	46642.175
762.8418	48635.375
766.73354	51826.375
770.62254	54694.975
774.50882	55166.675
778.39237	52889.975
782.27321	49585.675
786.15132	46918.875
790.02671	45284.675
793.89938	44460.275
797.76935	44185.875
801.6366	44084.775
805.50115	44024.975
809.36299	43908.875
813.22213	43578.875
817.07857	43409.075
820.93231	43299.575
824.78336	43139.575
828.63172	43045.575
832.47738	43018.875
836.32036	43120.975
840.16066	43273.375
843.99827	43329.575
847.8332	43374.675
851.66546	43229.775
855.49504	43198.875
859.32195	43269.675
863.1462	43182.975
866.96777	43136.775
870.78668	43040.175
874.60293	43094.375
878.41652	43124.175
882.22745	43233.975
886.03573	43364.375
889.84136	43348.475
893.64433	43170.275
897.44466	42992.575
901.24235	42828.875
905.0374	42671.075
908.8298	42626.475
912.61957	42647.875
916.40671	42975.775
920.19121	43525.275
923.97308	44027.075
927.75233	44057.375
931.52895	43792.775
935.30295	43309.575
939.07433	42720.575
942.84309	42262.775
946.60924	42128.075
950.37278	42111.175
954.13371	42132.075
957.89203	41939.875
961.64774	41867.575
965.40086	41770.975
969.15137	41677.075
972.89929	41515.375
976.64461	41418.475
980.38733	41432.575
984.12747	41619.075
987.86502	41984.375
991.59999	42562.975
995.33237	43315.375
999.06217	44486.675
1002.78939	45730.475
1006.51404	46755.875
1010.23611	47392.475
1013.95561	47788.575
1017.67255	47733.675
1021.38692	47181.275
1025.09872	46602.075
1028.80796	46462.375
1032.51465	47157.575
1036.21877	47897.575
1039.92035	47956.975
1043.61937	47583.775
1047.31584	46747.475
1051.00976	45895.875
1054.70114	45534.475
1058.38998	45560.075
1062.07627	45756.975
1065.76003	46074.975
1069.44126	46485.975
1073.11995	47045.075
1076.79611	47648.675
1080.46974	48076.675
1084.14085	48529.575
1087.80943	49106.775
1091.47549	49454.775
1095.13903	49361.275
1098.80005	48748.475
1102.45857	47968.475
1106.11456	47392.775
1109.76805	47199.475
1113.41903	47445.175
1117.06751	47754.375
1120.71348	48164.275
1124.35696	48495.275
1127.99793	48892.375
1131.63641	48998.375
1135.2724	48775.975
1138.90589	48499.775
1142.5369	48412.575
1146.16542	48467.275
1149.79145	48709.075
1153.415	49115.175
1157.03607	49773.975
1160.65467	50935.975
1164.27079	52805.975
1167.88443	55365.575
1171.49561	58471.375
1175.10432	62481.875
1178.71056	67432.875
1182.31434	72075.475
1185.91565	74187.675
1189.51451	73707.475
1193.11091	71518.575
1196.70485	68638.875
1200.29634	66058.675
1203.88538	64220.175
1207.47197	62955.275
1211.05612	61946.075
1214.63782	60921.075
1218.21708	60169.775
1221.79391	59934.975
1225.36829	59643.775
1228.94024	58900.775
1232.50976	57611.975
1236.07685	56396.175
1239.6415	55748.675
1243.20374	55648.675
1246.76355	55944.475
1250.32093	56762.375
1253.8759	57911.575
1257.42845	59389.975
1260.97859	60973.975
1264.52631	62491.175
1268.07163	64197.075
1271.61453	66059.075
1275.15503	67878.375
1278.69312	69650.475
1282.22882	71235.375
1285.76211	72859.575
1289.29301	74712.175
1292.82151	77155.775
1296.34761	80450.275
1299.87133	84665.775
1303.39266	89655.775
1306.9116	95111.375
1310.42815	100349.975
1313.94233	103804.975
1317.45412	104327.975
1320.96354	102768.075
1324.47058	100721.375
1327.97525	98812.475
1331.47754	97275.275
1334.97747	96441.775
1338.47502	96076.575
1341.97022	95599.175
1345.46305	94431.575
1348.95352	92946.375
1352.44163	91751.475
1355.92738	92781.475
1359.41078	96003.575
1362.89183	98873.775
1366.37053	97009.075
1369.84688	89763.075
1373.32088	80997.275
1376.79254	75049.275
1380.26186	72693.575
1383.72883	72378.175
1387.19347	72554.475
1390.65578	72030.575
1394.11575	72140.675
1397.57339	73150.075
1401.0287	74770.875
1404.48168	76380.975
1407.93234	77102.275
1411.38068	76302.275
1414.82669	74376.875
1418.27039	71695.675
1421.71177	68756.175
1425.15083	66334.775
1428.58758	65114.775
1432.02203	65529.275
1435.45416	67002.875
1438.88399	68874.675
1442.31151	70543.875
1445.73673	71663.375
1449.15965	72413.175
1452.58027	72814.475
1455.9986	72817.275
1459.41463	73293.975
1462.82837	74403.775
1466.23982	75853.075
1469.64898	77193.075
1473.05586	77917.475
1476.46045	77959.375
1479.86276	77256.975
1483.26279	76241.575
1486.66054	75424.775
1490.05602	75365.975
1493.44922	75356.275
1496.84016	75534.975
1500.22882	76244.975
1503.61521	77804.775
1506.99934	79864.875
1510.38121	81519.175
1513.76081	81774.675
1517.13816	79790.575
1520.51324	76898.675
1523.88607	74662.475
1527.25665	73690.475
1530.62498	73660.175
1533.99105	73845.075
1537.35488	73794.075
1540.71647	73227.475
1544.07581	72232.175
1547.4329	70986.475
1550.78776	69597.775
1554.14038	68468.875
1557.49077	67777.375
1560.83892	67260.275
1564.18484	67060.675
1567.52853	67102.275
1570.86999	67375.375
1574.20922	68136.575
1577.54624	68797.675
1580.88103	68759.575
1584.2136	69228.875
1587.54395	71100.975
1590.87208	74890.875
1594.19801	80209.375
1597.52172	85589.475
1600.84321	87557.575
1604.16251	84305.975
1607.47959	78114.175
1610.79447	71377.975
1614.10715	65265.375
1617.41763	60282.875
1620.7259	56857.975
1624.03199	55109.475
1627.33587	54997.775
1630.63757	56506.175
1633.93707	59904.375
1637.23439	65644.475
1640.52951	73648.675
1643.82246	82677.775
1647.11321	89020.075
1650.40179	89050.975
1653.68819	82276.275
1656.97241	71716.375
1660.25446	61791.875
1663.53433	54651.075
1666.81203	50165.975
1670.08756	47321.575
1673.36092	45545.675
1676.63211	44352.775
1679.90115	43482.775
1683.16801	42788.675
1686.43272	42317.975
1689.69527	41989.275
1692.95567	41705.975
1696.2139	41496.275
1699.46999	41473.275
1702.72392	41357.875
1705.97571	41215.675
1709.22535	41076.975
1712.47284	41053.175
1715.71819	41026.375
1718.96139	41009.775
1722.20246	40828.475
1725.44139	40656.675
1728.67818	40496.675
1731.91284	40272.775
1735.14537	40026.475
1738.37576	39815.475
1741.60403	39750.875
1744.83017	39570.575
1748.05418	39436.275
1751.27607	39360.275
1754.49584	39345.475
1757.71349	39321.575
1760.92903	39334.675
1764.14244	39268.075
1767.35375	39237.775
1770.56294	39223.575
1773.77002	39178.175
1776.97499	39176.875
1780.17785	39088.875
1783.37861	39005.675
1786.57727	38902.475
1789.77382	38828.475
1792.96828	38764.875
1796.16064	38756.275
1799.3509	38742.475
1802.53907	38651.775
1805.72514	38551.475
1808.90913	38493.575
1812.09102	38437.475
1815.27083	38330.475
1818.44856	38261.275
1821.6242	38245.775
1824.79776	38197.175
1827.96924	38164.775
1831.13864	38157.175
1834.30597	38139.275
1837.47122	38106.275
1840.6344	38035.475
1843.7955	38089.775
1846.95454	38103.975
1850.11151	38080.875
1853.26642	38103.075
1856.41926	38046.575
1859.57004	38069.675
1862.71876	38029.375
1865.86542	37993.975
1869.01003	37886.775
1872.15258	37968.575
1875.29308	37917.175
1878.43152	37850.975
1881.56792	37874.775
1884.70227	37903.975
1887.83457	37926.575
1890.96482	37897.575
1894.09304	37815.475
1897.21921	37754.275
1900.34335	37702.775
1903.46544	37654.375
1906.58551	37682.075
1909.70353	37636.975
1912.81953	37595.875
1915.93349	37572.975
1919.04543	37456.475
1922.15534	37399.375
1925.26322	37349.875
1928.36908	37277.675
1931.47292	37189.575
1934.57473	37063.375
1937.67453	36990.875
1940.77232	36920.275
1943.86808	36771.075
1946.96184	36692.775
1950.05358	36554.575
1953.14331	36465.775
1956.23103	36359.975
1959.31675	36247.275
1962.40046	36141.675
1965.48217	36010.175
1968.56188	35925.775
1971.63959	35823.875
1974.7153	35831.075
1977.78901	35655.775
1980.86073	35563.075
1983.93046	35490.875
1986.99819	35356.675
1990.06394	35291.275
1993.1277	35298.175
1996.18947	35137.175
1999.24925	35057.875
2002.30706	34953.775
2005.36288	34783.275
2008.41672	34737.575
2011.46859	34618.475
2014.51848	34549.375
2017.56639	34487.475
2020.61233	34355.875
2023.6563	34337.075
2026.6983	34197.575
2029.73833	34166.175
2032.7764	34112.175
2035.8125	34078.775
2038.84664	33985.675
2041.87881	34013.675
2044.90903	33906.175
2047.93729	33873.875
2050.96359	33828.275
2053.98794	33799.875
2057.01034	33838.475
2060.03078	33790.275
2063.04927	33768.875
2066.06582	33741.275
2069.08042	33742.675
2072.09307	33690.675
2075.10378	33582.075
2078.11255	33580.475
2081.11938	33619.075
2084.12426	33553.175
2087.12722	33558.775
2090.12824	33570.475
2093.12732	33557.875
2096.12447	33557.275
2099.11969	33527.575
2102.11299	33554.975
2105.10435	33573.675
2108.09379	33554.575
2111.08131	33648.275
2114.0669	33546.575
2117.05057	33557.575
2120.03233	33602.675
2123.01216	33607.775
2125.99008	33673.175
2128.96609	33696.775
2131.94018	33781.475
2134.91236	33813.775
2137.88263	33894.275
2140.851	33881.875
2143.81746	33873.775
2146.78201	33842.275
2149.74466	33911.575
2152.7054	33907.675
2155.66425	33936.175
2158.6212	33911.775
2161.57625	33931.875
2164.52941	33952.175
2167.48067	33860.775
2170.43004	33872.575
2173.37752	33855.575
2176.32311	33909.375
2179.26681	33918.775
2182.20863	33919.075
2185.14856	33926.775
2188.08661	33951.275
2191.02278	33937.575
2193.95707	33876.775
2196.88948	33866.775
2199.82001	33861.075
2202.74867	33824.775
2205.67545	33828.675
2208.60037	33817.375
2211.52341	33765.175
2214.44458	33770.875
2217.36388	33709.475
2220.28132	33713.275
2223.1969	33654.775
2226.11061	33528.875
2229.02246	33435.775
2231.93245	33383.375
2234.84058	33347.075
2237.74686	33370.675
2240.65128	33302.075
2243.55385	33215.275
2246.45456	33194.175
2249.35343	33129.475
2252.25044	33087.775
2255.14561	33017.275
2258.03893	33008.375
2260.93041	32973.775
2263.82004	32854.775
2266.70783	32801.475
2269.59378	32704.975
2272.4779	32648.675
2275.36017	32592.475
2278.24061	32553.875
2281.11922	32467.575
2283.996	32424.675
2286.87094	32438.375
2289.74405	32402.275
2292.61534	32404.575
2295.4848	32397.175
2298.35243	32366.975
2301.21824	32405.675
2304.08223	32405.475
2306.94439	32332.675
2309.80474	32331.875
2312.66327	32397.175
2315.51999	32351.175
2318.37489	32359.975
2321.22797	32350.275
2324.07925	32333.075
2326.92871	32272.775
2329.77637	32188.575
2332.62222	32183.575
2335.46626	32221.175
2338.3085	32181.375
2341.14893	32175.075
2343.98756	32176.375
2346.8244	32214.875
2349.65943	32225.875
2352.49267	32191.475
2355.32411	32219.975
2358.15376	32137.475
2360.98161	32164.775
2363.80768	32160.875
2366.63195	32081.275
2369.45444	32023.975
2372.27514	32007.475
2375.09405	31972.275
2377.91118	31877.975
2380.72652	31868.875
2383.54009	31724.275
2386.35187	31717.675
2389.16188	31583.475
2391.97011	31494.175
2394.77657	31511.475
2397.58125	31486.775
2400.38416	31410.975
2403.18529	31399.475
2405.98466	31345.675
2408.78226	31306.175
2411.57809	31249.175
2414.37216	31190.275
2417.16446	31192.575
2419.955	31172.775
2422.74378	31165.775
2425.5308	31102.875
2428.31606	31119.175
2431.09956	31141.575
2433.88131	31108.975
2436.6613	31136.175
2439.43954	31095.075
2442.21603	31067.775
2444.99077	31059.275
2447.76377	31072.275
2450.53501	31046.375
2453.30451	31002.075
2456.07226	30981.375
2458.83827	30968.675
2461.60254	30952.175
2464.36507	30975.075
2467.12586	30968.675
2469.88492	30977.575
2472.64224	30978.875
2475.39782	31029.475
2478.15167	31045.375
2480.90379	31027.675
2483.65417	31061.575
2486.40283	31083.775
2489.14976	31096.975
2491.89497	31064.875
2494.63845	31109.775
2497.3802	31092.575
2500.12024	31066.675
2502.85855	31085.275
2505.59514	31068.675
2508.33002	30980.475
2511.06318	30988.375
2513.79462	30965.575
2516.52435	30970.675
2519.25237	30951.975
2521.97867	30932.875
2524.70327	30882.075
2527.42616	30890.775
2530.14734	30831.875
2532.86681	30833.375
2535.58458	30864.875
2538.30065	30831.875
2541.01501	30838.075
2543.72768	30835.475
2546.43864	30818.675
2549.14791	30790.175
2551.85548	30719.375
2554.56136	30680.675
2557.26554	30591.075
2559.96803	30596.975
2562.66883	30562.975
2565.36794	30549.075
2568.06536	30543.475
2570.7611	30479.075
2573.45514	30450.575
2576.14751	30406.475
2578.83819	30415.575
2581.52719	30443.275
2584.21451	30455.075
2586.90015	30356.675
2589.58411	30344.375
2592.2664	30383.575
2594.94701	30338.375
2597.62594	30327.575
2600.30321	30380.275
2602.9788	30391.575
2605.65273	30340.975
2608.32498	30378.775
2610.99557	30346.875
2613.66449	30394.875
2616.33175	30380.875
2618.99734	30287.975
2621.66128	30271.275
2624.32355	30290.675
2626.98416	30264.475
2629.64311	30282.375
2632.30041	30261.175
2634.95605	30255.175
2637.61004	30211.475
2640.26238	30191.975
2642.91306	30221.075
2645.56209	30135.875
2648.20948	30165.975
2650.85521	30138.875
2653.4993	30145.575
2656.14175	30213.275
2658.78255	30214.675
2661.42171	30231.275
2664.05923	30271.575
2666.6951	30261.475
2669.32934	30264.475
2671.96194	30268.075
2674.59291	30322.075
2677.22224	30338.675
2679.84993	30259.975
2682.476	30237.675
2685.10043	30205.775
2687.72324	30153.475
2690.34441	30161.175
2692.96396	30137.275
2695.58188	30151.975
2698.19818	30152.175
2700.81285	30122.675
2703.4259	30093.075
2706.03733	30206.675
2708.64714	30102.375
2711.25533	30140.175
2713.86191	30211.275
2716.46687	30270.575
2719.07021	30238.075
2721.67194	30282.575
2724.27206	30263.375
2726.87057	30271.775
2729.46747	30309.475
2732.06276	30309.975
2734.65644	30289.975
2737.24852	30322.375
2739.83899	30279.275
2742.42786	30297.375
2745.01513	30267.875
2747.60079	30283.975
2750.18486	30262.975
2752.76733	30268.375
2755.3482	30216.975
2757.92747	30214.375
2760.50515	30172.675
2763.08123	30145.575
2765.65573	30137.975
2768.22863	30174.975
2770.79994	30077.475
2773.36967	30136.975
2775.9378	30158.575
2778.50435	30182.175
2781.06932	30180.375
2783.6327	30137.275
2786.1945	30138.975
2788.75471	30098.475
2791.31335	30049.775
2793.87041	29964.375
2796.42589	29929.175
2798.97979	29860.775
2801.53212	29792.375
2804.08288	29775.475
2806.63206	29698.075
2809.17967	29701.075
2811.72571	29589.575
2814.27018	29498.975
2816.81308	29441.975
2819.35442	29394.775
2821.89419	29400.175
2824.43239	29336.675
2826.96904	29345.275
2829.50412	29320.075
2832.03763	29255.875
2834.56959	29277.375
2837.1	29200.175
2839.62884	29181.575
2842.15613	29099.975
2844.68186	29157.875
2847.20604	29105.375
2849.72867	29115.475
2852.24974	29035.175
2854.76927	29065.975
2857.28724	29031.075
2859.80367	29003.575
2862.31855	28973.175
2864.83189	28958.275
2867.34368	28928.575
2869.85393	28897.075
2872.36264	28870.575
2874.8698	28830.075
2877.37543	28780.675
2879.87952	28787.575
2882.38207	28859.775
2884.88308	28823.975
2887.38256	28819.075
2889.88051	28828.975
2892.37692	28882.575
2894.8718	28880.475
2897.36515	28938.275
2899.85698	28919.875
2902.34727	28989.475
2904.83604	28981.775
2907.32328	29027.875
2909.809	29011.875
2912.29319	29077.775
2914.77587	29065.875
2917.25702	29066.375
2919.73665	29015.975
2922.21476	29051.175
2924.69136	28981.975
2927.16644	29005.075
2929.64	28962.375
2932.11205	28883.475
2934.58258	28778.575
2937.05161	28895.475
2939.51912	28843.475
2941.98513	28792.375
2944.44962	28745.375
2946.91261	28701.675
2949.37409	28721.675
2951.83407	28672.875
2954.29254	28697.775
2956.74951	28707.275
2959.20498	28730.175
2961.65895	28669.875
2964.11142	28641.975
2966.56239	28682.975
2969.01186	28611.675
2971.45984	28500.575
2973.90632	28465.575
2976.35131	28438.175
2978.7948	28374.175
2981.23681	28332.075
2983.67732	28297.075
2986.11635	28235.575
2988.55388	28142.775
2990.98993	28139.075
2993.4245	28053.475
2995.85758	27970.875
2998.28917	27860.175
3000.71928	27830.975
3003.14791	27773.275
3005.57506	27753.175
3008.00073	27656.875
3010.42493	27680.175
3012.84764	27609.975
3015.26888	27617.275
3017.68865	27493.075
3020.10694	27476.075
3022.52376	27428.175
3024.9391	27415.275
3027.35298	27324.275
3029.76539	27343.375
3032.17632	27344.475
3034.5858	27303.775
3036.9938	27276.775
3039.40034	27238.575
3041.80542	27243.375
3044.20903	27216.875
3046.61118	27171.675
3049.01187	27114.775
3051.4111	27083.375
3053.80888	26986.375
3056.20519	26990.675
3058.60005	26878.875
3060.99345	26823.875
3063.3854	26782.875
3065.7759	26708.175
3068.16494	26631.775
3070.55254	26568.475
3072.93868	26494.075
3075.32338	26389.575
3077.70662	26357.075
3080.08842	26258.975
3082.46878	26192.375
3084.84769	26165.475
3087.22515	26136.975
3089.60118	26168.175
3091.97576	26120.675
3094.3489	26093.275
3096.72061	26117.575
3099.09087	26129.575
3101.4597	26093.675
3103.82709	26099.075
3106.19305	26062.375
3108.55757	26038.575
3110.92066	25983.375
3113.28232	25952.375
3115.64255	25871.675
3118.00134	25818.875
3120.35871	25686.575
3122.71466	25622.275
3125.06917	25597.475
