Data from AgNPs_FTO_APTES_UA_20uM_CRN_2uM_R6G_10uM_NaF_0.1M_Addition_RamanShift__32__13-17-52-110.txt Node

Date: Thu Feb 17 13:17:52 GMT 2022
User: TCL
Spectrometer: QEP01345
Trigger mode: 4
Integration Time (sec): 7.000000E0
Scans to average: 10
Electric dark correction enabled: true
Nonlinearity correction enabled: false
Boxcar width: 0
XAxis mode: Raman Shifts
Number of Pixels in Spectrum: 1044
>>>>>Begin Spectral Data<<<<<
46.04893	0.2875
50.45542	-0.8125
54.85868	-2.3125
59.25871	-0.7125
63.6555	69.8875
68.04907	67.8875
72.43941	74.0875
76.82654	76.8875
81.21044	82.3875
85.59113	84.4875
89.96862	89.7875
94.34289	90.3875
98.71396	92.6875
103.08183	96.3875
107.4465	97.5875
111.80798	97.6875
116.16626	98.7875
120.52136	105.8875
124.87327	108.0875
129.222	113.8875
133.56755	120.9875
137.90993	131.5875
142.24913	142.5875
146.58517	161.1875
150.91804	188.5875
155.24774	226.3875
159.57429	283.9875
163.89768	363.8875
168.21792	479.9875
172.53501	658.9875
176.84895	923.8875
181.15975	1285.6875
185.46741	1803.1875
189.77193	2481.8875
194.07331	3339.2875
198.37157	4294.7875
202.6667	5316.3875
206.9587	6346.7875
211.24758	7384.8875
215.53334	8413.9875
219.81599	9609.2875
224.09553	10992.8875
228.37195	12518.6875
232.64527	14193.1875
236.91549	15895.5875
241.18261	17458.8875
245.44663	18817.8875
249.70755	19907.9875
253.96539	20765.0875
258.22014	21550.2875
262.4718	22198.6875
266.72039	22775.2875
270.96589	23115.6875
275.20832	23160.9875
279.44768	22980.4875
283.68397	22733.3875
287.91719	22530.2875
292.14735	22589.7875
296.37445	22981.4875
300.59849	23793.1875
304.81948	24765.8875
309.03742	25377.0875
313.25231	25261.3875
317.46415	24108.1875
321.67296	22302.5875
325.87872	20827.6875
330.08145	20110.8875
334.28114	20052.1875
338.47781	20416.4875
342.67145	20967.4875
346.86207	21846.9875
351.04966	23111.0875
355.23424	24483.7875
359.4158	25616.9875
363.59435	26202.8875
367.76989	26442.3875
371.94243	26485.2875
376.11196	26437.6875
380.27849	26366.5875
384.44203	26161.8875
388.60257	25828.3875
392.76012	25695.5875
396.91468	25899.8875
401.06626	26473.2875
405.21485	27004.5875
409.36047	26585.5875
413.50311	25278.4875
417.64277	24065.4875
421.77947	23394.5875
425.9132	23137.9875
430.04396	23142.0875
434.17176	23335.5875
438.2966	23652.2875
442.41849	24198.7875
446.53742	24904.6875
450.6534	25675.9875
454.76644	26211.1875
458.87653	26365.6875
462.98368	26143.3875
467.08789	25657.3875
471.18916	25053.3875
475.2875	24378.9875
479.38291	23850.2875
483.4754	23367.6875
487.56496	23026.9875
491.6516	22726.6875
495.73531	22591.6875
499.81612	22650.9875
503.89401	22924.9875
507.96899	23274.4875
512.04106	23549.4875
516.11023	23931.1875
520.1765	24169.8875
524.23987	24118.8875
528.30034	23634.9875
532.35792	23249.3875
536.41261	22732.3875
540.46441	22264.8875
544.51333	22058.6875
548.55936	22204.2875
552.60252	22801.1875
556.64279	23516.0875
560.6802	23841.8875
564.71473	24148.4875
568.7464	25159.1875
572.7752	25894.5875
576.80114	25434.6875
580.82422	24732.1875
584.84444	24414.9875
588.86181	24334.4875
592.87633	24416.2875
596.888	24628.7875
600.89682	25336.4875
604.9028	28245.4875
608.90594	36066.6875
612.90624	46405.3875
616.90371	44357.1875
620.89834	31082.0875
624.89015	24860.7875
628.87913	23690.9875
632.86528	23853.7875
636.84862	24158.0875
640.82913	23810.7875
644.80683	22724.8875
648.78172	21925.6875
652.75379	22008.5875
656.72306	22976.1875
660.68952	24206.8875
664.65319	23997.2875
668.61405	22803.6875
672.57211	22213.0875
676.52738	22149.4875
680.47986	22153.9875
684.42955	22008.1875
688.37646	21971.3875
692.32058	22047.2875
696.26192	22282.9875
700.20048	22612.4875
704.13626	22927.7875
708.06928	22949.5875
711.99952	22746.8875
715.927	22672.2875
719.85171	22755.8875
723.77365	22739.0875
727.69284	22521.4875
731.60928	22298.4875
735.52295	22301.9875
739.43388	22396.3875
743.34206	22609.6875
747.24749	22852.7875
751.15017	23062.4875
755.05012	23630.6875
758.94733	24825.8875
762.8418	27473.9875
766.73354	32016.4875
770.62254	36765.6875
774.50882	39072.5875
778.39237	37082.4875
782.27321	31954.3875
786.15132	27268.5875
790.02671	24637.0875
793.89938	23480.0875
797.76935	22934.3875
801.6366	22718.8875
805.50115	22576.9875
809.36299	22477.9875
813.22213	22375.3875
817.07857	22366.0875
820.93231	22394.1875
824.78336	22499.1875
828.63172	22663.9875
832.47738	22694.6875
836.32036	22660.4875
840.16066	22597.0875
843.99827	22495.1875
847.8332	22473.0875
851.66546	22405.4875
855.49504	22365.7875
859.32195	22365.1875
863.1462	22247.5875
866.96777	22222.1875
870.78668	22182.7875
874.60293	22267.0875
878.41652	22346.1875
882.22745	22504.1875
886.03573	22634.6875
889.84136	22570.6875
893.64433	22432.4875
897.44466	22385.4875
901.24235	22376.0875
905.0374	22382.1875
908.8298	22346.6875
912.61957	22368.6875
916.40671	22512.4875
920.19121	22806.4875
923.97308	23039.2875
927.75233	23193.0875
931.52895	23313.8875
935.30295	23018.3875
939.07433	22478.1875
942.84309	21955.4875
946.60924	21721.7875
950.37278	21543.1875
954.13371	21452.1875
957.89203	21379.2875
961.64774	21283.9875
965.40086	21223.9875
969.15137	21179.1875
972.89929	21128.4875
976.64461	21090.0875
980.38733	21101.3875
984.12747	21153.2875
987.86502	21291.6875
991.59999	21502.6875
995.33237	21888.2875
999.06217	22522.5875
1002.78939	23271.8875
1006.51404	23902.4875
1010.23611	24508.1875
1013.95561	24864.3875
1017.67255	24827.7875
1021.38692	24471.6875
1025.09872	24125.4875
1028.80796	24111.9875
1032.51465	24571.4875
1036.21877	25042.4875
1039.92035	25254.1875
1043.61937	25063.7875
1047.31584	24696.8875
1051.00976	24289.5875
1054.70114	24016.3875
1058.38998	23984.0875
1062.07627	24066.6875
1065.76003	24207.8875
1069.44126	24388.3875
1073.11995	24646.3875
1076.79611	24879.1875
1080.46974	25250.1875
1084.14085	25824.4875
1087.80943	26506.2875
1091.47549	26773.8875
1095.13903	26364.8875
1098.80005	25526.0875
1102.45857	24860.1875
1106.11456	24516.1875
1109.76805	24683.3875
1113.41903	25174.4875
1117.06751	25991.0875
1120.71348	26944.5875
1124.35696	27906.4875
1127.99793	28671.0875
1131.63641	28509.3875
1135.2724	27373.5875
1138.90589	26268.5875
1142.5369	25579.1875
1146.16542	25184.5875
1149.79145	24964.2875
1153.415	25045.0875
1157.03607	25327.8875
1160.65467	25827.8875
1164.27079	26737.7875
1167.88443	28152.0875
1171.49561	30324.7875
1175.10432	34023.1875
1178.71056	38831.8875
1182.31434	42707.5875
1185.91565	43761.2875
1189.51451	42539.6875
1193.11091	39771.1875
1196.70485	36608.6875
1200.29634	34329.4875
1203.88538	32732.7875
1207.47197	31015.6875
1211.05612	29522.3875
1214.63782	28725.1875
1218.21708	28527.8875
1221.79391	28610.0875
1225.36829	28716.2875
1228.94024	28543.7875
1232.50976	28420.4875
1236.07685	28361.3875
1239.6415	28487.5875
1243.20374	28703.2875
1246.76355	28988.3875
1250.32093	29497.6875
1253.8759	30231.4875
1257.42845	31251.5875
1260.97859	32168.2875
1264.52631	32953.6875
1268.07163	33776.0875
1271.61453	34603.6875
1275.15503	35391.8875
1278.69312	35822.4875
1282.22882	36196.7875
1285.76211	36912.7875
1289.29301	37963.1875
1292.82151	39167.1875
1296.34761	40593.9875
1299.87133	42664.7875
1303.39266	46071.3875
1306.9116	51083.4875
1310.42815	56500.8875
1313.94233	59413.6875
1317.45412	58152.1875
1320.96354	54678.9875
1324.47058	50773.7875
1327.97525	47440.0875
1331.47754	45381.1875
1334.97747	44892.4875
1338.47502	45604.7875
1341.97022	46965.5875
1345.46305	48455.6875
1348.95352	50211.9875
1352.44163	52746.6875
1355.92738	56968.6875
1359.41078	64293.1875
1362.89183	71390.9875
1366.37053	69442.4875
1369.84688	59347.7875
1373.32088	49207.7875
1376.79254	42764.4875
1380.26186	39503.4875
1383.72883	37879.7875
1387.19347	36877.4875
1390.65578	35895.6875
1394.11575	35203.1875
1397.57339	34965.5875
1401.0287	35259.1875
1404.48168	35972.0875
1407.93234	36900.8875
1411.38068	37714.7875
1414.82669	37925.1875
1418.27039	37228.6875
1421.71177	36044.9875
1425.15083	34863.5875
1428.58758	34241.3875
1432.02203	34263.4875
1435.45416	34551.8875
1438.88399	34704.3875
1442.31151	34860.2875
1445.73673	35205.9875
1449.15965	35550.3875
1452.58027	35515.1875
1455.9986	35229.2875
1459.41463	35095.0875
1462.82837	35409.2875
1466.23982	36069.6875
1469.64898	36940.4875
1473.05586	37573.2875
1476.46045	38043.0875
1479.86276	38838.9875
1483.26279	39759.6875
1486.66054	40835.3875
1490.05602	42283.3875
1493.44922	44116.8875
1496.84016	46581.6875
1500.22882	50326.3875
1503.61521	55543.7875
1506.99934	61605.4875
1510.38121	66698.2875
1513.76081	68354.9875
1517.13816	64446.1875
1520.51324	57250.3875
1523.88607	50381.9875
1527.25665	45739.7875
1530.62498	43041.5875
1533.99105	41430.7875
1537.35488	40391.4875
1540.71647	39771.7875
1544.07581	39353.6875
1547.4329	39061.6875
1550.78776	38705.5875
1554.14038	38540.4875
1557.49077	38662.7875
1560.83892	39184.4875
1564.18484	40031.9875
1567.52853	40861.6875
1570.86999	41462.3875
1574.20922	41932.0875
1577.54624	41513.9875
1580.88103	39770.0875
1584.2136	37669.7875
1587.54395	36930.8875
1590.87208	38002.8875
1594.19801	40733.8875
1597.52172	44061.3875
1600.84321	45463.0875
1604.16251	43882.0875
1607.47959	40798.3875
1610.79447	37374.5875
1614.10715	34195.0875
1617.41763	31773.2875
1620.7259	30309.5875
1624.03199	29663.7875
1627.33587	29720.3875
1630.63757	30457.3875
1633.93707	32018.9875
1637.23439	34283.2875
1640.52951	37477.9875
1643.82246	41684.7875
1647.11321	46370.9875
1650.40179	49530.4875
1653.68819	48099.1875
1656.97241	41999.1875
1660.25446	35317.5875
1663.53433	30554.2875
1666.81203	27707.0875
1670.08756	26040.5875
1673.36092	25026.0875
1676.63211	24341.6875
1679.90115	23903.9875
1683.16801	23554.9875
1686.43272	23334.7875
1689.69527	23163.1875
1692.95567	23054.3875
1696.2139	23005.4875
1699.46999	23006.0875
1702.72392	22916.8875
1705.97571	22923.6875
1709.22535	22843.5875
1712.47284	22863.4875
1715.71819	22925.5875
1718.96139	22887.9875
1722.20246	22833.8875
1725.44139	22745.7875
1728.67818	22598.8875
1731.91284	22453.4875
1735.14537	22319.4875
1738.37576	22177.1875
1741.60403	22143.7875
1744.83017	22029.7875
1748.05418	21991.1875
1751.27607	21959.2875
1754.49584	21939.8875
1757.71349	21969.9875
1760.92903	21939.5875
1764.14244	21913.7875
1767.35375	21907.5875
1770.56294	21852.3875
1773.77002	21800.6875
1776.97499	21810.6875
1780.17785	21754.0875
1783.37861	21730.1875
1786.57727	21644.6875
1789.77382	21640.1875
1792.96828	21634.0875
1796.16064	21648.1875
1799.3509	21614.1875
1802.53907	21607.2875
1805.72514	21547.4875
1808.90913	21473.7875
1812.09102	21450.6875
1815.27083	21414.9875
1818.44856	21365.4875
1821.6242	21349.5875
1824.79776	21291.1875
1827.96924	21301.0875
1831.13864	21301.8875
1834.30597	21274.0875
1837.47122	21257.6875
1840.6344	21250.5875
1843.7955	21246.5875
1846.95454	21235.7875
1850.11151	21241.4875
1853.26642	21266.8875
1856.41926	21244.8875
1859.57004	21255.2875
1862.71876	21225.4875
1865.86542	21232.4875
1869.01003	21241.8875
1872.15258	21257.1875
1875.29308	21239.2875
1878.43152	21261.5875
1881.56792	21270.2875
1884.70227	21302.2875
1887.83457	21337.4875
1890.96482	21266.7875
1894.09304	21313.7875
1897.21921	21258.2875
1900.34335	21272.3875
1903.46544	21262.1875
1906.58551	21282.4875
1909.70353	21311.9875
1912.81953	21310.0875
1915.93349	21303.2875
1919.04543	21272.7875
1922.15534	21231.1875
1925.26322	21247.0875
1928.36908	21201.9875
1931.47292	21141.1875
1934.57473	21062.4875
1937.67453	21028.4875
1940.77232	20981.6875
1943.86808	20883.8875
1946.96184	20815.1875
1950.05358	20731.3875
1953.14331	20666.4875
1956.23103	20572.2875
1959.31675	20528.6875
1962.40046	20452.7875
1965.48217	20383.7875
1968.56188	20360.3875
1971.63959	20319.1875
1974.7153	20305.6875
1977.78901	20200.4875
1980.86073	20143.0875
1983.93046	20084.7875
1986.99819	20005.3875
1990.06394	19989.1875
1993.1277	19902.8875
1996.18947	19834.2875
1999.24925	19816.2875
2002.30706	19761.5875
2005.36288	19670.8875
2008.41672	19650.0875
2011.46859	19574.9875
2014.51848	19532.3875
2017.56639	19443.8875
2020.61233	19431.0875
2023.6563	19378.9875
2026.6983	19308.0875
2029.73833	19283.2875
2032.7764	19265.4875
2035.8125	19250.1875
2038.84664	19183.5875
2041.87881	19133.9875
2044.90903	19111.6875
2047.93729	19082.1875
2050.96359	19088.8875
2053.98794	19025.5875
2057.01034	19032.2875
2060.03078	19028.7875
2063.04927	19062.0875
2066.06582	19019.0875
2069.08042	18997.4875
2072.09307	18973.2875
2075.10378	18957.3875
2078.11255	18936.1875
2081.11938	18912.5875
2084.12426	18922.8875
2087.12722	18863.6875
2090.12824	18858.1875
2093.12732	18910.8875
2096.12447	18861.5875
2099.11969	18851.4875
2102.11299	18863.4875
2105.10435	18903.1875
2108.09379	18899.1875
2111.08131	18872.1875
2114.0669	18903.1875
2117.05057	18904.6875
2120.03233	18905.2875
2123.01216	18956.3875
2125.99008	18991.0875
2128.96609	19010.2875
2131.94018	18984.1875
2134.91236	19016.5875
2137.88263	19065.0875
2140.851	19043.2875
2143.81746	19031.9875
2146.78201	19013.9875
2149.74466	19020.2875
2152.7054	19042.5875
2155.66425	19057.1875
2158.6212	19025.4875
2161.57625	19007.1875
2164.52941	19000.3875
2167.48067	18973.0875
2170.43004	18966.8875
2173.37752	18993.8875
2176.32311	19035.9875
2179.26681	18995.0875
2182.20863	19023.1875
2185.14856	19058.3875
2188.08661	19017.6875
2191.02278	19026.9875
2193.95707	19029.0875
2196.88948	18990.1875
2199.82001	19003.5875
2202.74867	18953.7875
2205.67545	18979.2875
2208.60037	18935.8875
2211.52341	18921.9875
2214.44458	18895.9875
2217.36388	18889.1875
2220.28132	18852.6875
2223.1969	18816.1875
2226.11061	18782.9875
2229.02246	18716.7875
2231.93245	18710.6875
2234.84058	18660.4875
2237.74686	18657.2875
2240.65128	18613.1875
2243.55385	18611.5875
2246.45456	18613.6875
2249.35343	18540.4875
2252.25044	18540.0875
2255.14561	18511.8875
2258.03893	18560.8875
2260.93041	18525.1875
2263.82004	18505.8875
2266.70783	18455.7875
2269.59378	18383.0875
2272.4779	18346.6875
2275.36017	18306.1875
2278.24061	18321.4875
2281.11922	18262.0875
2283.996	18220.3875
2286.87094	18196.4875
2289.74405	18139.2875
2292.61534	18137.3875
2295.4848	18142.4875
2298.35243	18136.2875
2301.21824	18115.6875
2304.08223	18105.7875
2306.94439	18132.6875
2309.80474	18127.6875
2312.66327	18147.8875
2315.51999	18121.1875
2318.37489	18090.3875
2321.22797	18075.4875
2324.07925	18082.8875
2326.92871	18051.0875
2329.77637	17999.8875
2332.62222	17997.4875
2335.46626	18021.8875
2338.3085	18022.5875
2341.14893	18012.7875
2343.98756	18058.8875
2346.8244	18039.2875
2349.65943	18074.2875
2352.49267	18142.4875
2355.32411	18126.5875
2358.15376	18123.0875
2360.98161	18133.8875
2363.80768	18102.3875
2366.63195	18103.8875
2369.45444	18101.7875
2372.27514	18043.2875
2375.09405	18034.2875
2377.91118	17966.0875
2380.72652	17886.8875
2383.54009	17861.8875
2386.35187	17752.8875
2389.16188	17699.7875
2391.97011	17670.7875
2394.77657	17641.4875
2397.58125	17621.8875
2400.38416	17551.0875
2403.18529	17525.9875
2405.98466	17494.7875
2408.78226	17454.6875
2411.57809	17437.1875
2414.37216	17409.1875
2417.16446	17387.3875
2419.955	17371.5875
2422.74378	17373.3875
2425.5308	17365.7875
2428.31606	17362.7875
2431.09956	17347.1875
2433.88131	17344.6875
2436.6613	17343.2875
2439.43954	17332.1875
2442.21603	17338.1875
2444.99077	17308.1875
2447.76377	17342.3875
2450.53501	17286.0875
2453.30451	17321.4875
2456.07226	17269.3875
2458.83827	17286.6875
2461.60254	17241.2875
2464.36507	17268.9875
2467.12586	17251.3875
2469.88492	17290.2875
2472.64224	17253.6875
2475.39782	17273.0875
2478.15167	17301.0875
2480.90379	17340.2875
2483.65417	17366.0875
2486.40283	17364.0875
2489.14976	17404.5875
2491.89497	17425.8875
2494.63845	17422.9875
2497.3802	17412.0875
2500.12024	17425.6875
2502.85855	17413.6875
2505.59514	17340.8875
2508.33002	17312.5875
2511.06318	17231.3875
2513.79462	17211.9875
2516.52435	17210.1875
2519.25237	17142.4875
2521.97867	17124.2875
2524.70327	17095.1875
2527.42616	17032.9875
2530.14734	17026.6875
2532.86681	17018.9875
2535.58458	17038.9875
2538.30065	17048.9875
2541.01501	17011.0875
2543.72768	17028.3875
2546.43864	17036.2875
2549.14791	16969.8875
2551.85548	16968.8875
2554.56136	16955.5875
2557.26554	16929.5875
2559.96803	16908.2875
2562.66883	16861.2875
2565.36794	16872.2875
2568.06536	16834.1875
2570.7611	16799.7875
2573.45514	16799.6875
2576.14751	16775.5875
2578.83819	16727.5875
2581.52719	16765.4875
2584.21451	16746.1875
2586.90015	16742.0875
2589.58411	16679.5875
2592.2664	16695.6875
2594.94701	16689.4875
2597.62594	16674.8875
2600.30321	16677.2875
2602.9788	16681.2875
2605.65273	16701.0875
2608.32498	16661.3875
2610.99557	16690.7875
2613.66449	16694.7875
2616.33175	16689.4875
2618.99734	16659.1875
2621.66128	16635.0875
2624.32355	16651.9875
2626.98416	16651.2875
2629.64311	16631.0875
2632.30041	16599.0875
2634.95605	16590.8875
2637.61004	16552.3875
2640.26238	16538.6875
2642.91306	16551.0875
2645.56209	16469.0875
2648.20948	16452.2875
2650.85521	16455.8875
2653.4993	16458.5875
2656.14175	16462.8875
2658.78255	16483.2875
2661.42171	16518.7875
2664.05923	16498.5875
2666.6951	16523.6875
2669.32934	16565.4875
2671.96194	16575.3875
2674.59291	16610.9875
2677.22224	16625.6875
2679.84993	16663.6875
2682.476	16625.3875
2685.10043	16597.5875
2687.72324	16615.5875
2690.34441	16586.0875
2692.96396	16577.3875
2695.58188	16625.3875
2698.19818	16548.9875
2700.81285	16550.5875
2703.4259	16566.6875
2706.03733	16580.4875
2708.64714	16552.9875
2711.25533	16558.4875
2713.86191	16545.7875
2716.46687	16587.8875
2719.07021	16582.3875
2721.67194	16583.7875
2724.27206	16543.6875
2726.87057	16596.0875
2729.46747	16568.1875
2732.06276	16588.2875
2734.65644	16566.5875
2737.24852	16598.7875
2739.83899	16535.0875
2742.42786	16565.3875
2745.01513	16545.1875
2747.60079	16556.8875
2750.18486	16521.9875
2752.76733	16530.4875
2755.3482	16501.3875
2757.92747	16516.4875
2760.50515	16450.5875
2763.08123	16417.1875
2765.65573	16450.6875
2768.22863	16442.6875
2770.79994	16399.5875
2773.36967	16410.5875
2775.9378	16408.1875
2778.50435	16433.9875
2781.06932	16386.0875
2783.6327	16374.4875
2786.1945	16392.5875
2788.75471	16380.7875
2791.31335	16348.0875
2793.87041	16337.3875
2796.42589	16277.2875
2798.97979	16265.3875
2801.53212	16245.8875
2804.08288	16221.3875
2806.63206	16209.2875
2809.17967	16208.7875
2811.72571	16158.8875
2814.27018	16127.9875
2816.81308	16113.4875
2819.35442	16113.6875
2821.89419	16123.1875
2824.43239	16120.5875
2826.96904	16106.3875
2829.50412	16168.3875
2832.03763	16141.9875
2834.56959	16147.6875
2837.1	16085.3875
2839.62884	16109.1875
2842.15613	16084.2875
2844.68186	16083.7875
2847.20604	16067.5875
2849.72867	16088.6875
2852.24974	16062.7875
2854.76927	16036.4875
2857.28724	16061.9875
2859.80367	16008.5875
2862.31855	16011.9875
2864.83189	15992.8875
2867.34368	15970.7875
2869.85393	15985.1875
2872.36264	15994.4875
2874.8698	15958.5875
2877.37543	15904.0875
2879.87952	15918.6875
2882.38207	15929.9875
2884.88308	15934.1875
2887.38256	15936.4875
2889.88051	15903.1875
2892.37692	15901.6875
2894.8718	15894.0875
2897.36515	15931.2875
2899.85698	15910.3875
2902.34727	15915.1875
2904.83604	15939.9875
2907.32328	15944.7875
2909.809	15953.6875
2912.29319	15975.6875
2914.77587	15922.6875
2917.25702	15951.5875
2919.73665	15914.8875
2922.21476	15931.3875
2924.69136	15892.2875
2927.16644	15902.8875
2929.64	15859.3875
2932.11205	15821.6875
2934.58258	15807.2875
2937.05161	15809.5875
2939.51912	15799.5875
2941.98513	15779.3875
2944.44962	15732.5875
2946.91261	15675.4875
2949.37409	15705.3875
2951.83407	15678.5875
2954.29254	15664.3875
2956.74951	15675.0875
2959.20498	15630.3875
2961.65895	15621.7875
2964.11142	15622.0875
2966.56239	15590.6875
2969.01186	15550.1875
2971.45984	15495.4875
2973.90632	15501.3875
2976.35131	15462.9875
2978.7948	15453.7875
2981.23681	15389.5875
2983.67732	15395.8875
2986.11635	15358.3875
2988.55388	15306.8875
2990.98993	15282.4875
2993.4245	15247.2875
2995.85758	15209.9875
2998.28917	15152.7875
3000.71928	15137.9875
3003.14791	15106.4875
3005.57506	15115.4875
3008.00073	15061.9875
3010.42493	15039.5875
3012.84764	14993.0875
3015.26888	15015.4875
3017.68865	14954.7875
3020.10694	14932.6875
3022.52376	14875.1875
3024.9391	14874.4875
