Data from AgNPs_FTO_APTES_UA_20uM_CRN_5uM_R6G_10uM_NaF_0.1M_Addition_RamanShift__18__13-52-52-156.txt Node

Date: Thu Feb 17 13:52:52 GMT 2022
User: TCL
Spectrometer: QEP01345
Trigger mode: 4
Integration Time (sec): 7.000000E0
Scans to average: 10
Electric dark correction enabled: true
Nonlinearity correction enabled: false
Boxcar width: 0
XAxis mode: Raman Shifts
Number of Pixels in Spectrum: 1044
>>>>>Begin Spectral Data<<<<<
46.04893	0.6
50.45542	-1.6
54.85868	-2.9
59.25871	-0.8
63.6555	121.9
68.04907	128
72.43941	128.8
76.82654	129.5
81.21044	135.4
85.59113	142.8
89.96862	142.7
94.34289	149.8
98.71396	152.4
103.08183	160.5
107.4465	160.6
111.80798	166.1
116.16626	173.6
120.52136	180.9
124.87327	191.6
129.222	204.1
133.56755	216.5
137.90993	232.6
142.24913	260.2
146.58517	297.6
150.91804	348.8
155.24774	424.5
159.57429	529.2
163.89768	688.9
168.21792	928.8
172.53501	1284.9
176.84895	1789.4
181.15975	2540.7
185.46741	3574.2
189.77193	4955
194.07331	6664.2
198.37157	8616.2
202.6667	10611.1
206.9587	12676
211.24758	14676.9
215.53334	16660.5
219.81599	18733.9
224.09553	21035.9
228.37195	23602.9
232.64527	26410.1
236.91549	29385.6
241.18261	32464.6
245.44663	35346.9
249.70755	37982
253.96539	40295.1
258.22014	42324
262.4718	43980.4
266.72039	45125.3
270.96589	45849
275.20832	45976.2
279.44768	45766.6
283.68397	45444.6
287.91719	45059.5
292.14735	44835.9
296.37445	44755.7
300.59849	44764.8
304.81948	44861.6
309.03742	44731.5
313.25231	44369.4
317.46415	43712.8
321.67296	42923
325.87872	42313.6
330.08145	42001.9
334.28114	42074.2
338.47781	42369.3
342.67145	42875.7
346.86207	43538.9
351.04966	44252.9
355.23424	45001.8
359.4158	45673
363.59435	46249.9
367.76989	46604.5
371.94243	46909.8
376.11196	47213.7
380.27849	47547.1
384.44203	47831.7
388.60257	48174.4
392.76012	48561.3
396.91468	49029
401.06626	49637.5
405.21485	50040.3
409.36047	50045.8
413.50311	49587.6
417.64277	49155.3
421.77947	49110.8
425.9132	49287
430.04396	49566.9
434.17176	49961.6
438.2966	50439
442.41849	51236.7
446.53742	52483.8
450.6534	53779.5
454.76644	54793.9
458.87653	55266
462.98368	55099.2
467.08789	54535.8
471.18916	53932
475.2875	53410.6
479.38291	53144.1
483.4754	52935.3
487.56496	52438.1
491.6516	51782.5
495.73531	51206.3
499.81612	50872.9
503.89401	51040.3
507.96899	51173
512.04106	51104
516.11023	50878.2
520.1765	50646.8
524.23987	50418.3
528.30034	50160.7
532.35792	49948.3
536.41261	49482.6
540.46441	49239.2
544.51333	49290
548.55936	49758.3
552.60252	50585.4
556.64279	51641.6
560.6802	52371.3
564.71473	52797.1
568.7464	53432.6
572.7752	54438.4
576.80114	55243.6
580.82422	56016.6
584.84444	56736.2
588.86181	57595.4
592.87633	58445.4
596.888	58530.5
600.89682	57997.6
604.9028	58936.8
608.90594	62356.7
612.90624	65594.4
616.90371	62181.6
620.89834	54882.1
624.89015	51785.2
628.87913	51451.9
632.86528	51558.3
636.84862	51402.5
640.82913	50856.6
644.80683	49891.2
648.78172	49237.6
652.75379	49148.7
656.72306	49632.5
660.68952	50319
664.65319	50160.4
668.61405	49568.7
672.57211	49427.2
676.52738	49617.3
680.47986	49588.9
684.42955	49369.3
688.37646	49312
692.32058	49619.4
696.26192	50019.6
700.20048	50571.3
704.13626	50908.9
708.06928	50803.6
711.99952	50556.4
715.927	50508.1
719.85171	50587.7
723.77365	50583
727.69284	50203.2
731.60928	49832.6
735.52295	49731.6
739.43388	49777.3
743.34206	49982.8
747.24749	50155.1
751.15017	50504.3
755.05012	51069.4
758.94733	52086
762.8418	53957.6
766.73354	57005.4
770.62254	59719.7
774.50882	60112.4
778.39237	58000.6
782.27321	54796
786.15132	52211.9
790.02671	50721.2
793.89938	49975.4
797.76935	49658.6
801.6366	49577.9
805.50115	49446.5
809.36299	49294
813.22213	49104.2
817.07857	48992.8
820.93231	48945.6
824.78336	48815.9
828.63172	48731
832.47738	48674.9
836.32036	48719.7
840.16066	48847.4
843.99827	48998.1
847.8332	48924.4
851.66546	48883.7
855.49504	48770
859.32195	48855.6
863.1462	48769.7
866.96777	48826.3
870.78668	48700.4
874.60293	48761.5
878.41652	48785.2
882.22745	48888.1
886.03573	48919.3
889.84136	48848.5
893.64433	48754
897.44466	48574
901.24235	48393.1
905.0374	48334.6
908.8298	48272.7
912.61957	48293.2
916.40671	48611.3
920.19121	49100.2
923.97308	49485.3
927.75233	49476.1
931.52895	49194.6
935.30295	48695.6
939.07433	48129.9
942.84309	47694.3
946.60924	47538.8
950.37278	47528.5
954.13371	47541.6
957.89203	47497.5
961.64774	47405.4
965.40086	47282.3
969.15137	47193.5
972.89929	47050.6
976.64461	46931.2
980.38733	46926.4
984.12747	47100.7
987.86502	47403.6
991.59999	47927.5
995.33237	48512.6
999.06217	49479.6
1002.78939	50520.6
1006.51404	51440.3
1010.23611	51896.7
1013.95561	52295.6
1017.67255	52379.9
1021.38692	52012.4
1025.09872	51469.2
1028.80796	51405
1032.51465	51926.4
1036.21877	52518.4
1039.92035	52512.5
1043.61937	52169
1047.31584	51544.3
1051.00976	50869.1
1054.70114	50671.8
1058.38998	50721.5
1062.07627	51013.3
1065.76003	51337.3
1069.44126	51793.2
1073.11995	52270.2
1076.79611	52757.8
1080.46974	53130.6
1084.14085	53567.6
1087.80943	54010.9
1091.47549	54301.2
1095.13903	54253.4
1098.80005	53741.7
1102.45857	53091
1106.11456	52535.6
1109.76805	52388.3
1113.41903	52600.8
1117.06751	52825.7
1120.71348	53260.4
1124.35696	53562
1127.99793	53831.2
1131.63641	53915.1
1135.2724	53782.7
1138.90589	53487.4
1142.5369	53447.5
1146.16542	53503
1149.79145	53806.4
1153.415	54187
1157.03607	54852.3
1160.65467	55924.3
1164.27079	57671
1167.88443	59968.9
1171.49561	62876.2
1175.10432	66517.1
1178.71056	70900.5
1182.31434	75099
1185.91565	77184.3
1189.51451	76863.2
1193.11091	75014.3
1196.70485	72527.2
1200.29634	70172.2
1203.88538	68349.1
1207.47197	67150.4
1211.05612	66023.6
1214.63782	65028.4
1218.21708	64307.3
1221.79391	63825.2
1225.36829	63565.2
1228.94024	62943.1
1232.50976	61783.5
1236.07685	60755.9
1239.6415	60241.1
1243.20374	60268.5
1246.76355	60591.2
1250.32093	61346.5
1253.8759	62296.5
1257.42845	63595.7
1260.97859	64899.5
1264.52631	66271.3
1268.07163	67758.9
1271.61453	69222.7
1275.15503	70813.9
1278.69312	72433.5
1282.22882	73963.6
1285.76211	75524
1289.29301	77286.8
1292.82151	79674.2
1296.34761	82727.2
1299.87133	86544.2
1303.39266	90894.8
1306.9116	95494
1310.42815	99947.8
1313.94233	102909.3
1317.45412	103475.1
1320.96354	102443
1324.47058	100998.8
1327.97525	99492.9
1331.47754	98232.9
1334.97747	97537.9
1338.47502	97322.4
1341.97022	97102
1345.46305	96450.1
1348.95352	95214.1
1352.44163	94110.7
1355.92738	94425.5
1359.41078	96636.7
1362.89183	98754.2
1366.37053	96979.4
1369.84688	90576.2
1373.32088	82903.5
1376.79254	77692.4
1380.26186	75584
1383.72883	75448.6
1387.19347	75632.6
1390.65578	75348.6
1394.11575	75290.2
1397.57339	76010.5
1401.0287	77316.4
1404.48168	78442.5
1407.93234	78732.8
1411.38068	77950.6
1414.82669	76017.7
1418.27039	73468.3
1421.71177	70780.5
1425.15083	68575.9
1428.58758	67459.5
1432.02203	67620.4
1435.45416	68829.9
1438.88399	70596.4
1442.31151	72073.8
1445.73673	73149.9
1449.15965	74002.4
1452.58027	74548.1
1455.9986	74766.6
1459.41463	75263.8
1462.82837	76261.5
1466.23982	77383.7
1469.64898	78593.5
1473.05586	79327.4
1476.46045	79338.8
1479.86276	78727.5
1483.26279	77754.9
1486.66054	77013.8
1490.05602	76929.2
1493.44922	76979.5
1496.84016	77234.2
1500.22882	78009.3
1503.61521	79619.4
1506.99934	81778.2
1510.38121	83545.2
1513.76081	83635.5
1517.13816	81936.5
1520.51324	79561.7
1523.88607	77592.6
1527.25665	76834.4
1530.62498	76785.5
1533.99105	77059.8
1537.35488	76925.8
1540.71647	76251
1544.07581	75140.6
1547.4329	73902.4
1550.78776	72603.4
1554.14038	71699.8
1557.49077	71041.8
1560.83892	70662.6
1564.18484	70500.3
1567.52853	70609.2
1570.86999	70896
1574.20922	71574.6
1577.54624	72227.2
1580.88103	72100
1584.2136	72473.3
1587.54395	74113.7
1590.87208	77288.5
1594.19801	81526.8
1597.52172	85923.2
1600.84321	87449.6
1604.16251	84585.8
1607.47959	79459.7
1610.79447	73807.7
1614.10715	68578
1617.41763	64111.6
1620.7259	60983.8
1624.03199	59264.3
1627.33587	58968.9
1630.63757	60225.6
1633.93707	63231.2
1637.23439	68242.9
1640.52951	75410.6
1643.82246	83340.6
1647.11321	89110.9
1650.40179	89426.8
1653.68819	83639
1656.97241	74356.4
1660.25446	65310.7
1663.53433	58729.2
1666.81203	54488
1670.08756	51840.7
1673.36092	50099.2
1676.63211	48913
1679.90115	48038.4
1683.16801	47365.6
1686.43272	46938.1
1689.69527	46586.5
1692.95567	46302.7
1696.2139	46145.4
1699.46999	45995.9
1702.72392	45941.8
1705.97571	45822.8
1709.22535	45696.7
1712.47284	45696.1
1715.71819	45641.5
1718.96139	45502.9
1722.20246	45413.2
1725.44139	45241.7
1728.67818	45006
1731.91284	44753.4
1735.14537	44598.1
1738.37576	44465.1
1741.60403	44361
1744.83017	44144.9
1748.05418	43988.4
1751.27607	43903.7
1754.49584	43939.2
1757.71349	43922.7
1760.92903	43904.6
1764.14244	43780.6
1767.35375	43736.7
1770.56294	43661.3
1773.77002	43656.2
1776.97499	43645.1
1780.17785	43556.2
1783.37861	43473.3
1786.57727	43395.6
1789.77382	43352.5
1792.96828	43309.6
1796.16064	43231.2
1799.3509	43165.1
1802.53907	43069.7
1805.72514	42970.6
1808.90913	42842.8
1812.09102	42786
1815.27083	42721.4
1818.44856	42679.7
1821.6242	42564.2
1824.79776	42545.9
1827.96924	42530.2
1831.13864	42529.8
1834.30597	42536.6
1837.47122	42442.3
1840.6344	42412.9
1843.7955	42429.8
1846.95454	42382.7
1850.11151	42404.2
1853.26642	42335.3
1856.41926	42316.1
1859.57004	42282.5
1862.71876	42227.6
1865.86542	42256.7
1869.01003	42155.7
1872.15258	42093.1
1875.29308	42099.2
1878.43152	42014.6
1881.56792	42028.1
1884.70227	42028.1
1887.83457	42034
1890.96482	41969.1
1894.09304	41913.8
1897.21921	41903.3
1900.34335	41836.7
1903.46544	41763.6
1906.58551	41761.7
1909.70353	41757.2
1912.81953	41673.5
1915.93349	41605.3
1919.04543	41478.1
1922.15534	41468.9
1925.26322	41454
1928.36908	41375.6
1931.47292	41302.3
1934.57473	41170.9
1937.67453	41084.4
1940.77232	41002.3
1943.86808	40892.5
1946.96184	40768.7
1950.05358	40675.8
1953.14331	40588.4
1956.23103	40378.3
1959.31675	40319.4
1962.40046	40201.8
1965.48217	40086.8
1968.56188	39916.9
1971.63959	39807
1974.7153	39780.4
1977.78901	39605.5
1980.86073	39512.2
1983.93046	39449.1
1986.99819	39323.6
1990.06394	39207
1993.1277	39141
1996.18947	39000.4
1999.24925	38898
2002.30706	38829.2
2005.36288	38675.3
2008.41672	38525.3
2011.46859	38503.6
2014.51848	38393.4
2017.56639	38252.7
2020.61233	38155.6
2023.6563	38084.6
2026.6983	38014.5
2029.73833	37897
2032.7764	37842.1
2035.8125	37780.4
2038.84664	37673.3
2041.87881	37666
2044.90903	37669.4
2047.93729	37596.4
2050.96359	37579.8
2053.98794	37480.9
2057.01034	37432.9
2060.03078	37488.2
2063.04927	37416.6
2066.06582	37401.4
2069.08042	37347.1
2072.09307	37320.5
2075.10378	37261.5
2078.11255	37225.7
2081.11938	37273.5
2084.12426	37205.3
2087.12722	37231.3
2090.12824	37171.8
2093.12732	37185.8
2096.12447	37218.1
2099.11969	37170
2102.11299	37193
2105.10435	37229
2108.09379	37254.3
2111.08131	37253.3
2114.0669	37228
2117.05057	37250.7
2120.03233	37315.9
2123.01216	37345.3
2125.99008	37413
2128.96609	37426.2
2131.94018	37457.9
2134.91236	37518.1
2137.88263	37520
2140.851	37526.6
2143.81746	37555.1
2146.78201	37585.1
2149.74466	37597.9
2152.7054	37568.1
2155.66425	37579.3
2158.6212	37568.7
2161.57625	37567.8
2164.52941	37541.9
2167.48067	37501.4
2170.43004	37479.6
2173.37752	37550
2176.32311	37559.2
2179.26681	37579.9
2182.20863	37515.6
2185.14856	37594.7
2188.08661	37551.4
2191.02278	37558.1
2193.95707	37477.7
2196.88948	37435.5
2199.82001	37434.2
2202.74867	37440.2
2205.67545	37413.4
2208.60037	37394.8
2211.52341	37353.2
2214.44458	37334.1
2217.36388	37268.2
2220.28132	37166.5
2223.1969	37131
2226.11061	37023.3
2229.02246	36881.1
2231.93245	36898
2234.84058	36755.1
2237.74686	36782.9
2240.65128	36745.2
2243.55385	36652
2246.45456	36626.6
2249.35343	36654.3
2252.25044	36584.4
2255.14561	36543.5
2258.03893	36463.4
2260.93041	36404.2
2263.82004	36294.8
2266.70783	36152.1
2269.59378	36118.5
2272.4779	36048.8
2275.36017	35964.8
2278.24061	35962.7
2281.11922	35835.9
2283.996	35769.5
2286.87094	35784
2289.74405	35802.9
2292.61534	35725.9
2295.4848	35660.9
2298.35243	35688
2301.21824	35656.9
2304.08223	35664.4
2306.94439	35650.5
2309.80474	35700.5
2312.66327	35733.3
2315.51999	35632.3
2318.37489	35643.3
2321.22797	35633.7
2324.07925	35598.1
2326.92871	35499.4
2329.77637	35460.3
2332.62222	35400.1
2335.46626	35379.7
2338.3085	35388
2341.14893	35323.3
2343.98756	35336.9
2346.8244	35349.1
2349.65943	35359.1
2352.49267	35391.4
2355.32411	35306
2358.15376	35306.6
2360.98161	35303.6
2363.80768	35257
2366.63195	35277.1
2369.45444	35220.8
2372.27514	35156.8
2375.09405	35098.1
2377.91118	35071.5
2380.72652	34968.2
2383.54009	34889.3
2386.35187	34793.9
2389.16188	34678.2
2391.97011	34631.6
2394.77657	34600.8
2397.58125	34575.6
2400.38416	34513.9
2403.18529	34436.8
2405.98466	34419.5
2408.78226	34375.3
2411.57809	34342
2414.37216	34288
2417.16446	34273
2419.955	34178.4
2422.74378	34202.4
2425.5308	34147.5
2428.31606	34185.3
2431.09956	34141.7
2433.88131	34118.2
2436.6613	34116.3
2439.43954	34102.1
2442.21603	34053.6
2444.99077	34027.6
2447.76377	34024.4
2450.53501	34002.7
2453.30451	34005.1
2456.07226	33948.4
2458.83827	33938
2461.60254	33913.7
2464.36507	33932.9
2467.12586	33934.3
2469.88492	33895.9
2472.64224	33896
2475.39782	33867.9
2478.15167	33920.4
2480.90379	33960
2483.65417	34011.4
2486.40283	34010.9
2489.14976	33975.7
2491.89497	33926.6
2494.63845	33975.1
2497.3802	33885.3
2500.12024	33912
2502.85855	33876.3
2505.59514	33838.3
2508.33002	33812.4
2511.06318	33774.2
2513.79462	33714
2516.52435	33757.1
2519.25237	33693.2
2521.97867	33740.6
2524.70327	33678.7
2527.42616	33663.7
2530.14734	33643.4
2532.86681	33574.8
2535.58458	33557.9
2538.30065	33530.5
2541.01501	33543.1
2543.72768	33553.5
2546.43864	33561.3
2549.14791	33498.4
2551.85548	33449.8
2554.56136	33352.1
2557.26554	33284.8
2559.96803	33196.5
2562.66883	33194.1
2565.36794	33159.9
2568.06536	33135.8
2570.7611	33116.5
2573.45514	33064.9
2576.14751	33026.9
2578.83819	32963.9
2581.52719	32997.1
2584.21451	32957.7
2586.90015	32922.1
2589.58411	32903.2
2592.2664	32883.2
2594.94701	32847.7
2597.62594	32934.6
2600.30321	32852
2602.9788	32829.6
2605.65273	32759.8
2608.32498	32818.1
2610.99557	32779.8
2613.66449	32807.6
2616.33175	32754.9
2618.99734	32742.1
2621.66128	32694.7
2624.32355	32705.9
2626.98416	32674.2
2629.64311	32658.9
2632.30041	32650.6
2634.95605	32634.5
2637.61004	32637
2640.26238	32597.9
2642.91306	32566.5
2645.56209	32485.6
2648.20948	32468.3
2650.85521	32452.8
2653.4993	32496.1
2656.14175	32453.2
2658.78255	32500.3
2661.42171	32551.5
2664.05923	32555.5
2666.6951	32543.1
2669.32934	32557.6
2671.96194	32582.1
2674.59291	32602.3
2677.22224	32630.4
2679.84993	32612.9
2682.476	32518.9
2685.10043	32552.4
2687.72324	32460.7
2690.34441	32468.8
2692.96396	32459.7
2695.58188	32476.7
2698.19818	32404.9
2700.81285	32375.9
2703.4259	32396.5
2706.03733	32477
2708.64714	32463.4
2711.25533	32502.9
2713.86191	32460
2716.46687	32573.3
2719.07021	32539.1
2721.67194	32561.3
2724.27206	32520.1
2726.87057	32535.5
2729.46747	32572.3
2732.06276	32542.7
2734.65644	32547.6
2737.24852	32584.4
2739.83899	32519.2
2742.42786	32564.8
2745.01513	32514
2747.60079	32516.1
2750.18486	32453.4
2752.76733	32457.1
2755.3482	32405.9
2757.92747	32408.4
2760.50515	32388.1
2763.08123	32393.6
2765.65573	32340.1
2768.22863	32396.2
2770.79994	32338
2773.36967	32326.8
2775.9378	32364.9
2778.50435	32356.9
2781.06932	32312.6
2783.6327	32258.2
2786.1945	32249.3
2788.75471	32201
2791.31335	32138
2793.87041	32080.9
2796.42589	32031.6
2798.97979	32019.6
2801.53212	31883
2804.08288	31884.1
2806.63206	31785.2
2809.17967	31740.6
2811.72571	31656.2
2814.27018	31558.4
2816.81308	31468.1
2819.35442	31444.6
2821.89419	31420
2824.43239	31367.4
2826.96904	31366
2829.50412	31379.4
2832.03763	31269.5
2834.56959	31216
2837.1	31158.6
2839.62884	31134
2842.15613	31084.9
2844.68186	31114.5
2847.20604	31030.7
2849.72867	31040.2
2852.24974	31015.8
2854.76927	30971.7
2857.28724	30972.2
2859.80367	30950.6
2862.31855	30891.3
2864.83189	30856.6
2867.34368	30827.9
2869.85393	30807.1
2872.36264	30809.1
2874.8698	30742.4
2877.37543	30748.3
2879.87952	30664
2882.38207	30734.7
2884.88308	30692.8
2887.38256	30670.4
2889.88051	30719.9
2892.37692	30746.6
2894.8718	30765.1
2897.36515	30777.8
2899.85698	30770.9
2902.34727	30827.7
2904.83604	30822.1
2907.32328	30868.3
2909.809	30865.1
2912.29319	30911.7
2914.77587	30916.6
2917.25702	30913.6
2919.73665	30866.5
2922.21476	30871.8
2924.69136	30836.7
2927.16644	30825.4
2929.64	30790.1
2932.11205	30766.2
2934.58258	30669.4
2937.05161	30712.7
2939.51912	30720.7
2941.98513	30713.5
2944.44962	30661.6
2946.91261	30567.5
2949.37409	30636.6
2951.83407	30583.5
2954.29254	30594.7
2956.74951	30581.7
2959.20498	30600.9
2961.65895	30528.2
2964.11142	30555
2966.56239	30558.4
2969.01186	30516.8
2971.45984	30349.9
2973.90632	30397.6
2976.35131	30366.1
2978.7948	30271.6
2981.23681	30260.7
2983.67732	30167.2
2986.11635	30094
2988.55388	30048.7
2990.98993	30020
2993.4245	29954.2
2995.85758	29897.9
2998.28917	29787.1
3000.71928	29755.4
3003.14791	29622.9
3005.57506	29647
3008.00073	29570.3
3010.42493	29534.9
3012.84764	29469.2
3015.26888	29461.5
3017.68865	29381.8
3020.10694	29332.8
3022.52376	29284.4
3024.9391	29291.8
3027.35298	29254.4
3029.76539	29229.5
3032.17632	29179
3034.5858	29133.4
3036.9938	29114.6
3039.40034	29108.4
3041.80542	29093.2
3044.20903	29020
3046.61118	29004.7
3049.01187	28905.1
3051.4111	28842.9
3053.80888	28790.2
3056.20519	28776.7
3058.60005	28674.6
3060.99345	28693
3063.3854	28568.7
3065.7759	28450.7
3068.16494	28417.6
3070.55254	28304.9
3072.93868	28263.4
3075.32338	28128.2
3077.70662	28096
3080.08842	27999.8
3082.46878	27979.1
3084.84769	27919.1
3087.22515	27952.3
3089.60118	27924.6
3091.97576	27915.8
3094.3489	27846.7
3096.72061	27889.4
3099.09087	27886.2
3101.4597	27870.2
3103.82709	27856.7
3106.19305	27777.4
3108.55757	27777.2
3110.92066	27757
3113.28232	27731
3115.64255	27630.3
3118.00134	27543.6
3120.35871	27433.2
3122.71466	27414.6
3125.06917	27363.9
3127.42226	27319.9
3129.77393	27293.7
3132.12417	27195.1
3134.47299	27237.4
3136.82039	27160.4
3139.16636	27171.8
3141.51092	27122
3143.85406	27145.5
3146.19579	27121.1
3148.53609	27137.1
3150.87499	27153
3153.21246	27167.3
3155.54853	27141.3
3157.88318	27133.3
3160.21642	27155.3
3162.54826	27137.5
3164.87868	27088
3167.2077	27067.8
3169.5353	27052.4
3171.86151	27028
3174.18631	27022.5
3176.5097	27004.2
3178.83169	26934.4
3181.15228	26944.4
3183.47147	26829.9
3185.78926	26866.4
3188.10565	26830.3
3190.42065	26797.4
3192.73424	26755.7
3195.04645	26721.8
3197.35725	26668.3
3199.66667	26664.6
3201.97469	26703.6
3204.28132	26651
3206.58656	26655.7
3208.8904	26624.6
3211.19287	26642.7
3213.49394	26656.7
3215.79363	26671.6
3218.09193	26712.8
3220.38884	26691
3222.68438	26673.2
3224.97853	26613.2
3227.2713	26608.4
3229.56269	26600.6
3231.8527	26581.2
3234.14133	26544.6
3236.42858	26478.4
3238.71446	26429.6
3240.99896	26381.7
3243.28209	26374
3245.56384	26348.6
3247.84423	26280.4
3250.12324	26247
3252.40088	26228.3
3254.67715	26195.3
3256.95205	26212.8
3259.22558	26183.2
3261.49775	26142.7
3263.76855	26102.8
3266.03799	26011.6
3268.30606	25999.1
3270.57277	25922.9
3272.83812	25894.3
3275.10211	25854
3277.36474	25807.5
3279.62601	25834.5
3281.88593	25783.6
3284.14448	25796.5
3286.40168	25754.1
3288.65753	25761.2
3290.91202	25712.3
3293.16516	25675
3295.41695	25651.5
3297.66738	25452
3299.91647	25363.4
3302.16421	25225.7
3304.4106	25031.2
3306.65564	24936.9
3308.89933	24744
3311.14169	24596.2
3313.38269	24456.9
3315.62236	24255.3
3317.86068	24025.9
3320.09766	23824.8
3322.3333	23665.1
3324.5676	23608.8
3326.80056	23231.7
3329.03219	23105.8
3331.26248	5.8
3333.49143	0.5
3335.71905	-0.7
