Data from AgNPs_FTO_APTES_UA_20uM_CRN_2uM_R6G_10uM_NaF_0.1M_Addition_RamanShift__36__13-22-32-116.txt Node

Date: Thu Feb 17 13:22:32 GMT 2022
User: TCL
Spectrometer: QEP01345
Trigger mode: 4
Integration Time (sec): 7.000000E0
Scans to average: 10
Electric dark correction enabled: true
Nonlinearity correction enabled: false
Boxcar width: 0
XAxis mode: Raman Shifts
Number of Pixels in Spectrum: 1044
>>>>>Begin Spectral Data<<<<<
46.04893	-1.0375
50.45542	-3.1375
54.85868	-3.5375
59.25871	-0.6375
63.6555	144.2625
68.04907	147.0625
72.43941	153.5625
76.82654	154.2625
81.21044	162.2625
85.59113	164.9625
89.96862	170.3625
94.34289	171.6625
98.71396	178.4625
103.08183	180.0625
107.4465	186.4625
111.80798	194.2625
116.16626	199.5625
120.52136	213.3625
124.87327	219.3625
129.222	235.1625
133.56755	253.2625
137.90993	270.9625
142.24913	300.6625
146.58517	345.5625
150.91804	405.5625
155.24774	484.6625
159.57429	616.0625
163.89768	797.3625
168.21792	1065.4625
172.53501	1481.2625
176.84895	2065.3625
181.15975	2925.5625
185.46741	4116.7625
189.77193	5705.6625
194.07331	7659.7625
198.37157	9881.7625
202.6667	12261.9625
206.9587	14603.7625
211.24758	16858.9625
215.53334	19151.7625
219.81599	21594.3625
224.09553	24198.8625
228.37195	27119.0625
232.64527	30388.9625
236.91549	33791.5625
241.18261	37301.7625
245.44663	40625.7625
249.70755	43548.0625
253.96539	46154.6625
258.22014	48403.4625
262.4718	50226.7625
266.72039	51524.2625
270.96589	52229.7625
275.20832	52283.6625
279.44768	51947.0625
283.68397	51445.0625
287.91719	50827.4625
292.14735	50436.1625
296.37445	50274.5625
300.59849	50383.1625
304.81948	50569.6625
309.03742	50658.6625
313.25231	50607.6625
317.46415	50293.4625
321.67296	49839.9625
325.87872	49400.6625
330.08145	49283.8625
334.28114	49417.7625
338.47781	49786.6625
342.67145	50387.4625
346.86207	51164.8625
351.04966	52046.0625
355.23424	52843.2625
359.4158	53428.7625
363.59435	53988.5625
367.76989	54366.8625
371.94243	54733.7625
376.11196	55144.0625
380.27849	55525.2625
384.44203	55955.3625
388.60257	56349.3625
392.76012	56819.2625
396.91468	57394.5625
401.06626	57939.0625
405.21485	58416.9625
409.36047	58389.1625
413.50311	58000.2625
417.64277	57770.0625
421.77947	57866.9625
425.9132	58086.6625
430.04396	58558.3625
434.17176	59021.7625
438.2966	59784.6625
442.41849	61031.2625
446.53742	62864.8625
450.6534	64711.3625
454.76644	66004.2625
458.87653	66206.9625
462.98368	65631.1625
467.08789	64644.7625
471.18916	63632.6625
475.2875	62649.2625
479.38291	61963.0625
483.4754	61446.4625
487.56496	60996.4625
491.6516	60403.9625
495.73531	59875.9625
499.81612	59526.1625
503.89401	59755.1625
507.96899	59926.0625
512.04106	59921.4625
516.11023	59631.9625
520.1765	59459.8625
524.23987	59436.3625
528.30034	59481.5625
532.35792	59391.8625
536.41261	58910.3625
540.46441	58444.1625
544.51333	58243.3625
548.55936	58563.9625
552.60252	59538.8625
556.64279	60961.8625
560.6802	62081.0625
564.71473	62554.6625
568.7464	63099.7625
572.7752	64340.8625
576.80114	65685.2625
580.82422	66960.2625
584.84444	68718.2625
588.86181	71799.4625
592.87633	75131.1625
596.888	76077.6625
600.89682	73174.2625
604.9028	71230.3625
608.90594	73395.1625
612.90624	76400.4625
616.90371	72936.2625
620.89834	65070.6625
624.89015	61685.7625
628.87913	61236.4625
632.86528	61365.5625
636.84862	61089.6625
640.82913	60364.0625
644.80683	59372.1625
648.78172	58744.1625
652.75379	58835.5625
656.72306	59502.4625
660.68952	60374.9625
664.65319	60209.8625
668.61405	59415.8625
672.57211	59369.4625
676.52738	59659.4625
680.47986	59660.4625
684.42955	59394.8625
688.37646	59239.4625
692.32058	59667.5625
696.26192	60389.5625
700.20048	61160.3625
704.13626	61586.8625
708.06928	61511.3625
711.99952	61350.9625
715.927	61393.3625
719.85171	61566.3625
723.77365	61396.3625
727.69284	60972.4625
731.60928	60433.3625
735.52295	60265.1625
739.43388	60426.1625
743.34206	60688.5625
747.24749	60968.0625
751.15017	61374.1625
755.05012	61994.2625
758.94733	63156.6625
762.8418	65178.5625
766.73354	68258.3625
770.62254	71214.3625
774.50882	71591.9625
778.39237	69352.3625
782.27321	66089.2625
786.15132	63412.9625
790.02671	61876.3625
793.89938	61030.7625
797.76935	60653.2625
801.6366	60509.9625
805.50115	60343.0625
809.36299	60228.3625
813.22213	59980.1625
817.07857	59932.9625
820.93231	59899.5625
824.78336	59778.9625
828.63172	59723.1625
832.47738	59699.0625
836.32036	59773.5625
840.16066	60077.2625
843.99827	60225.3625
847.8332	60221.7625
851.66546	60216.0625
855.49504	60238.6625
859.32195	60261.6625
863.1462	60254.4625
866.96777	60184.2625
870.78668	60098.1625
874.60293	60160.2625
878.41652	60257.5625
882.22745	60424.4625
886.03573	60545.5625
889.84136	60427.6625
893.64433	60223.6625
897.44466	59978.9625
901.24235	59888.5625
905.0374	59710.4625
908.8298	59723.0625
912.61957	59805.5625
916.40671	60201.9625
920.19121	60872.2625
923.97308	61413.7625
927.75233	61436.2625
931.52895	61022.8625
935.30295	60397.6625
939.07433	59745.9625
942.84309	59391.3625
946.60924	59221.9625
950.37278	59277.0625
954.13371	59298.4625
957.89203	59208.7625
961.64774	59089.1625
965.40086	59038.5625
969.15137	58982.6625
972.89929	58925.5625
976.64461	58899.0625
980.38733	58995.9625
984.12747	59127.2625
987.86502	59500.5625
991.59999	60097.4625
995.33237	60703.7625
999.06217	61708.2625
1002.78939	62936.8625
1006.51404	64022.3625
1010.23611	64842.9625
1013.95561	65453.5625
1017.67255	65662.7625
1021.38692	65066.9625
1025.09872	64117.4625
1028.80796	63730.7625
1032.51465	64069.0625
1036.21877	64743.5625
1039.92035	64942.7625
1043.61937	64589.0625
1047.31584	64057.4625
1051.00976	63420.0625
1054.70114	63138.5625
1058.38998	63169.0625
1062.07627	63475.3625
1065.76003	63867.7625
1069.44126	64433.3625
1073.11995	65160.6625
1076.79611	65805.7625
1080.46974	66248.7625
1084.14085	66713.2625
1087.80943	67334.9625
1091.47549	67655.5625
1095.13903	67504.7625
1098.80005	66902.3625
1102.45857	66031.1625
1106.11456	65487.1625
1109.76805	65312.4625
1113.41903	65530.9625
1117.06751	65813.2625
1120.71348	66239.8625
1124.35696	66605.0625
1127.99793	66938.2625
1131.63641	67075.4625
1135.2724	66835.1625
1138.90589	66678.0625
1142.5369	66779.5625
1146.16542	67134.6625
1149.79145	67601.5625
1153.415	68052.0625
1157.03607	68749.1625
1160.65467	70031.3625
1164.27079	72140.5625
1167.88443	74901.3625
1171.49561	78185.4625
1175.10432	82267.1625
1178.71056	87394.2625
1182.31434	92187.6625
1185.91565	93880.6625
1189.51451	92407.7625
1193.11091	89642.1625
1196.70485	86967.0625
1200.29634	84829.7625
1203.88538	83334.0625
1207.47197	82558.6625
1211.05612	81777.4625
1214.63782	80684.6625
1218.21708	79637.0625
1221.79391	78829.1625
1225.36829	78527.2625
1228.94024	77991.6625
1232.50976	76791.4625
1236.07685	75318.2625
1239.6415	74376.0625
1243.20374	74275.9625
1246.76355	74777.2625
1250.32093	75710.6625
1253.8759	76904.7625
1257.42845	78310.0625
1260.97859	79906.2625
1264.52631	81611.0625
1268.07163	83451.0625
1271.61453	85350.2625
1275.15503	87160.9625
1278.69312	89004.6625
1282.22882	91035.5625
1285.76211	93651.1625
1289.29301	96727.9625
1292.82151	100515.0625
1296.34761	105067.8625
1299.87133	110433.3625
1303.39266	116206.0625
1306.9116	121932.4625
1310.42815	126642.2625
1313.94233	129337.4625
1317.45412	128648.0625
1320.96354	125561.3625
1324.47058	122363.9625
1327.97525	119419.9625
1331.47754	117185.9625
1334.97747	115459.5625
1338.47502	114201.6625
1341.97022	112794.9625
1345.46305	111109.9625
1348.95352	110233.0625
1352.44163	110831.9625
1355.92738	114082.8625
1359.41078	119329.6625
1362.89183	123220.8625
1366.37053	121831.0625
1369.84688	113561.7625
1373.32088	102805.3625
1376.79254	95643.0625
1380.26186	93316.8625
1383.72883	93631.1625
1387.19347	94047.4625
1390.65578	93333.4625
1394.11575	93141.7625
1397.57339	93868.6625
1401.0287	95081.8625
1404.48168	96003.3625
1407.93234	95880.8625
1411.38068	94655.8625
1414.82669	92529.9625
1418.27039	89984.8625
1421.71177	87219.3625
1425.15083	84786.6625
1428.58758	83626.8625
1432.02203	84297.9625
1435.45416	86189.2625
1438.88399	88365.5625
1442.31151	89927.6625
1445.73673	90674.4625
1449.15965	90963.0625
1452.58027	90827.4625
1455.9986	90108.0625
1459.41463	90003.1625
1462.82837	90926.5625
1466.23982	92179.5625
1469.64898	93844.5625
1473.05586	95140.0625
1476.46045	95821.3625
1479.86276	95759.0625
1483.26279	95132.9625
1486.66054	94623.1625
1490.05602	94918.4625
1493.44922	95493.8625
1496.84016	95807.1625
1500.22882	96632.5625
1503.61521	97902.8625
1506.99934	99723.0625
1510.38121	101196.6625
1513.76081	101238.0625
1517.13816	99292.2625
1520.51324	96806.3625
1523.88607	95251.8625
1527.25665	95150.0625
1530.62498	95800.9625
1533.99105	96154.3625
1537.35488	95455.3625
1540.71647	94013.3625
1544.07581	92067.9625
1547.4329	89948.4625
1550.78776	88058.7625
1554.14038	86725.0625
1557.49077	85907.6625
1560.83892	85394.1625
1564.18484	85333.6625
1567.52853	85502.9625
1570.86999	86249.9625
1574.20922	87467.7625
1577.54624	88601.0625
1580.88103	88896.1625
1584.2136	89594.3625
1587.54395	92013.9625
1590.87208	96345.5625
1594.19801	102124.3625
1597.52172	107553.8625
1600.84321	109617.4625
1604.16251	105917.5625
1607.47959	98529.4625
1610.79447	90308.3625
1614.10715	83375.0625
1617.41763	78178.2625
1620.7259	75118.6625
1624.03199	73821.1625
1627.33587	74140.9625
1630.63757	75928.3625
1633.93707	79757.4625
1637.23439	86143.7625
1640.52951	95790.9625
1643.82246	107358.8625
1647.11321	116264.6625
1650.40179	117018.8625
1653.68819	108522.8625
1656.97241	95328.5625
1660.25446	83421.6625
1663.53433	75059.5625
1666.81203	69946.2625
1670.08756	66824.4625
1673.36092	64864.6625
1676.63211	63540.3625
1679.90115	62630.9625
1683.16801	61853.7625
1686.43272	61399.7625
1689.69527	61060.0625
1692.95567	60691.6625
1696.2139	60597.7625
1699.46999	60539.6625
1702.72392	60399.0625
1705.97571	60279.0625
1709.22535	60233.7625
1712.47284	60187.3625
1715.71819	60163.7625
1718.96139	60098.4625
1722.20246	59936.8625
1725.44139	59754.3625
1728.67818	59589.4625
1731.91284	59243.9625
1735.14537	59079.3625
1738.37576	58875.3625
1741.60403	58741.3625
1744.83017	58538.4625
1748.05418	58388.2625
1751.27607	58314.5625
1754.49584	58240.4625
1757.71349	58300.6625
1760.92903	58292.9625
1764.14244	58168.3625
1767.35375	58141.6625
1770.56294	58161.3625
1773.77002	58082.7625
1776.97499	58075.4625
1780.17785	58051.3625
1783.37861	57904.9625
1786.57727	57846.7625
1789.77382	57690.9625
1792.96828	57745.3625
1796.16064	57612.6625
1799.3509	57587.8625
1802.53907	57522.2625
1805.72514	57385.3625
1808.90913	57290.2625
1812.09102	57174.1625
1815.27083	57060.4625
1818.44856	56994.5625
1821.6242	56957.6625
1824.79776	56908.8625
1827.96924	56819.1625
1831.13864	56870.7625
1834.30597	56866.6625
1837.47122	56802.0625
1840.6344	56665.8625
1843.7955	56706.8625
1846.95454	56728.8625
1850.11151	56699.5625
1853.26642	56702.0625
1856.41926	56655.5625
1859.57004	56599.1625
1862.71876	56528.4625
1865.86542	56476.0625
1869.01003	56465.3625
1872.15258	56444.8625
1875.29308	56404.4625
1878.43152	56307.1625
1881.56792	56290.3625
1884.70227	56350.0625
1887.83457	56359.5625
1890.96482	56370.8625
1894.09304	56299.2625
1897.21921	56189.0625
1900.34335	56124.0625
1903.46544	56087.0625
1906.58551	56120.0625
1909.70353	56092.9625
1912.81953	55939.3625
1915.93349	55959.3625
1919.04543	55831.3625
1922.15534	55793.9625
1925.26322	55738.2625
1928.36908	55592.4625
1931.47292	55562.2625
1934.57473	55466.2625
1937.67453	55350.3625
1940.77232	55276.4625
1943.86808	55100.4625
1946.96184	54998.4625
1950.05358	54829.6625
1953.14331	54736.2625
1956.23103	54613.8625
1959.31675	54430.7625
1962.40046	54244.0625
1965.48217	54069.1625
1968.56188	53960.9625
1971.63959	53869.1625
1974.7153	53744.9625
1977.78901	53617.8625
1980.86073	53409.2625
1983.93046	53299.7625
1986.99819	53151.2625
1990.06394	53094.8625
1993.1277	53041.1625
1996.18947	52827.3625
1999.24925	52725.5625
2002.30706	52607.9625
2005.36288	52442.4625
2008.41672	52253.7625
2011.46859	52118.6625
2014.51848	52000.0625
2017.56639	51875.6625
2020.61233	51771.4625
2023.6563	51662.6625
2026.6983	51543.9625
2029.73833	51434.8625
2032.7764	51369.7625
2035.8125	51320.6625
2038.84664	51199.7625
2041.87881	51179.3625
2044.90903	51114.1625
2047.93729	51030.4625
2050.96359	50954.0625
2053.98794	50925.9625
2057.01034	50957.8625
2060.03078	50935.9625
2063.04927	50942.3625
2066.06582	50898.4625
2069.08042	50836.1625
2072.09307	50788.3625
2075.10378	50778.8625
2078.11255	50710.2625
2081.11938	50811.2625
2084.12426	50830.9625
2087.12722	50755.8625
2090.12824	50716.7625
2093.12732	50703.3625
2096.12447	50744.3625
2099.11969	50741.1625
2102.11299	50715.4625
2105.10435	50716.6625
2108.09379	50749.1625
2111.08131	50851.7625
2114.0669	50790.6625
2117.05057	50845.0625
2120.03233	50897.8625
2123.01216	50907.2625
2125.99008	51046.3625
2128.96609	51131.5625
2131.94018	51132.6625
2134.91236	51258.3625
2137.88263	51297.5625
2140.851	51311.1625
2143.81746	51380.7625
2146.78201	51352.8625
2149.74466	51416.4625
2152.7054	51462.4625
2155.66425	51428.0625
2158.6212	51532.6625
2161.57625	51420.2625
2164.52941	51411.2625
2167.48067	51363.5625
2170.43004	51373.2625
2173.37752	51385.4625
2176.32311	51477.0625
2179.26681	51456.3625
2182.20863	51441.7625
2185.14856	51599.3625
2188.08661	51504.9625
2191.02278	51510.0625
2193.95707	51453.6625
2196.88948	51429.3625
2199.82001	51465.0625
2202.74867	51453.2625
2205.67545	51355.2625
2208.60037	51288.8625
2211.52341	51178.6625
2214.44458	51200.6625
2217.36388	51114.9625
2220.28132	51092.9625
2223.1969	50965.3625
2226.11061	50852.5625
2229.02246	50734.8625
2231.93245	50612.0625
2234.84058	50648.3625
2237.74686	50681.2625
2240.65128	50638.7625
2243.55385	50488.7625
2246.45456	50443.0625
2249.35343	50411.0625
2252.25044	50300.2625
2255.14561	50223.5625
2258.03893	50195.4625
2260.93041	50091.6625
2263.82004	49985.8625
2266.70783	49859.5625
2269.59378	49766.1625
2272.4779	49724.2625
2275.36017	49607.6625
2278.24061	49532.7625
2281.11922	49489.3625
2283.996	49399.4625
2286.87094	49382.3625
2289.74405	49282.6625
2292.61534	49360.2625
2295.4848	49300.3625
2298.35243	49336.0625
2301.21824	49314.7625
2304.08223	49229.4625
2306.94439	49234.9625
2309.80474	49242.2625
2312.66327	49271.8625
2315.51999	49175.7625
2318.37489	49108.0625
2321.22797	49088.0625
2324.07925	49072.7625
2326.92871	48951.0625
2329.77637	48842.1625
2332.62222	48769.9625
2335.46626	48791.3625
2338.3085	48788.3625
2341.14893	48755.1625
2343.98756	48775.4625
2346.8244	48762.7625
2349.65943	48752.1625
2352.49267	48788.1625
2355.32411	48771.5625
2358.15376	48648.9625
2360.98161	48676.1625
2363.80768	48600.9625
2366.63195	48575.8625
2369.45444	48510.8625
2372.27514	48472.8625
2375.09405	48458.0625
2377.91118	48413.4625
2380.72652	48286.2625
2383.54009	48186.1625
2386.35187	48110.3625
2389.16188	47985.5625
2391.97011	47908.5625
2394.77657	47878.8625
2397.58125	47849.4625
2400.38416	47819.3625
2403.18529	47657.6625
2405.98466	47618.4625
2408.78226	47580.9625
2411.57809	47529.1625
2414.37216	47443.9625
2417.16446	47428.3625
2419.955	47410.9625
2422.74378	47428.7625
2425.5308	47404.4625
2428.31606	47399.4625
2431.09956	47368.5625
2433.88131	47321.1625
2436.6613	47400.6625
2439.43954	47297.3625
2442.21603	47287.1625
2444.99077	47304.6625
2447.76377	47237.9625
2450.53501	47157.8625
2453.30451	47240.9625
2456.07226	47177.2625
2458.83827	47088.8625
2461.60254	47022.9625
2464.36507	47062.2625
2467.12586	47080.0625
2469.88492	47075.4625
2472.64224	47077.9625
2475.39782	47055.9625
2478.15167	47044.7625
2480.90379	47140.3625
2483.65417	47177.6625
2486.40283	47107.9625
2489.14976	47163.5625
2491.89497	47088.5625
2494.63845	47092.0625
2497.3802	47036.4625
2500.12024	47097.2625
2502.85855	47096.1625
2505.59514	47024.0625
2508.33002	46917.7625
2511.06318	46870.8625
2513.79462	46900.0625
2516.52435	46901.8625
2519.25237	46878.5625
2521.97867	46834.0625
2524.70327	46829.1625
2527.42616	46681.1625
2530.14734	46713.5625
2532.86681	46655.6625
2535.58458	46635.8625
2538.30065	46619.6625
2541.01501	46606.9625
2543.72768	46607.7625
2546.43864	46568.6625
2549.14791	46417.7625
2551.85548	46467.4625
2554.56136	46371.1625
2557.26554	46252.0625
2559.96803	46208.8625
2562.66883	46211.8625
2565.36794	46211.7625
2568.06536	46148.7625
2570.7611	46009.7625
2573.45514	45998.6625
2576.14751	45924.0625
2578.83819	45954.9625
2581.52719	45881.7625
2584.21451	45839.0625
2586.90015	45836.6625
2589.58411	45699.6625
2592.2664	45713.2625
2594.94701	45752.2625
2597.62594	45679.4625
2600.30321	45627.2625
2602.9788	45649.5625
2605.65273	45617.4625
2608.32498	45624.6625
2610.99557	45552.8625
2613.66449	45606.3625
2616.33175	45489.6625
2618.99734	45466.7625
2621.66128	45385.4625
2624.32355	45356.6625
2626.98416	45326.1625
2629.64311	45233.0625
2632.30041	45230.3625
2634.95605	45177.0625
2637.61004	45130.5625
2640.26238	45114.7625
2642.91306	45133.9625
2645.56209	45083.0625
2648.20948	45070.5625
2650.85521	45066.8625
2653.4993	45104.1625
2656.14175	45093.1625
2658.78255	45125.0625
2661.42171	45153.9625
2664.05923	45214.3625
2666.6951	45178.3625
2669.32934	45225.3625
2671.96194	45223.7625
2674.59291	45259.4625
2677.22224	45293.7625
2679.84993	45261.2625
2682.476	45240.8625
2685.10043	45220.2625
2687.72324	45112.6625
2690.34441	45140.4625
2692.96396	45162.6625
2695.58188	45208.0625
2698.19818	45138.8625
2700.81285	45140.9625
2703.4259	45124.4625
2706.03733	45196.6625
2708.64714	45150.9625
2711.25533	45228.6625
2713.86191	45260.5625
2716.46687	45315.4625
2719.07021	45311.8625
2721.67194	45358.2625
2724.27206	45284.4625
2726.87057	45394.0625
2729.46747	45380.2625
2732.06276	45381.2625
2734.65644	45373.1625
2737.24852	45457.3625
2739.83899	45370.5625
2742.42786	45400.7625
2745.01513	45330.9625
2747.60079	45326.9625
2750.18486	45251.7625
2752.76733	45281.4625
2755.3482	45176.0625
2757.92747	45123.9625
2760.50515	45139.5625
2763.08123	45105.4625
2765.65573	45061.1625
2768.22863	45081.5625
2770.79994	45005.7625
2773.36967	45056.5625
2775.9378	45094.4625
2778.50435	45112.0625
2781.06932	45008.0625
2783.6327	45043.4625
2786.1945	44927.7625
2788.75471	44879.9625
2791.31335	44770.5625
2793.87041	44708.1625
2796.42589	44677.2625
2798.97979	44605.5625
2801.53212	44470.6625
2804.08288	44357.0625
2806.63206	44294.7625
2809.17967	44302.5625
2811.72571	44143.7625
2814.27018	43982.5625
2816.81308	43838.8625
2819.35442	43772.7625
2821.89419	43733.2625
2824.43239	43786.0625
2826.96904	43718.4625
2829.50412	43766.6625
2832.03763	43601.2625
2834.56959	43613.8625
2837.1	43527.7625
2839.62884	43509.1625
2842.15613	43470.2625
2844.68186	43496.2625
2847.20604	43416.8625
2849.72867	43386.9625
2852.24974	43324.7625
2854.76927	43237.8625
2857.28724	43207.2625
2859.80367	43223.5625
2862.31855	43137.6625
2864.83189	43099.0625
2867.34368	43009.8625
2869.85393	42996.7625
2872.36264	42942.1625
2874.8698	42917.8625
2877.37543	42846.3625
2879.87952	42816.8625
2882.38207	42898.2625
2884.88308	42839.0625
2887.38256	42904.6625
2889.88051	42953.0625
2892.37692	42909.7625
2894.8718	42945.3625
2897.36515	42961.0625
2899.85698	42950.9625
2902.34727	43050.1625
2904.83604	43071.7625
2907.32328	43127.7625
2909.809	43069.9625
2912.29319	43166.7625
2914.77587	43157.5625
2917.25702	43151.6625
2919.73665	43091.7625
2922.21476	43103.0625
2924.69136	43043.8625
2927.16644	43048.7625
2929.64	42980.4625
2932.11205	42974.5625
2934.58258	42880.9625
2937.05161	42946.8625
2939.51912	42967.7625
2941.98513	42914.0625
2944.44962	42849.3625
2946.91261	42761.9625
2949.37409	42911.4625
2951.83407	42805.8625
2954.29254	42804.0625
2956.74951	42805.6625
2959.20498	42831.6625
2961.65895	42817.5625
2964.11142	42870.2625
2966.56239	42802.5625
2969.01186	42744.5625
2971.45984	42566.9625
2973.90632	42529.7625
2976.35131	42516.4625
2978.7948	42481.5625
2981.23681	42422.3625
2983.67732	42342.0625
2986.11635	42249.8625
2988.55388	42198.2625
2990.98993	42162.6625
2993.4245	42083.0625
2995.85758	41911.9625
2998.28917	41868.0625
3000.71928	41810.1625
3003.14791	41711.0625
3005.57506	41674.8625
3008.00073	41591.0625
3010.42493	41564.1625
3012.84764	41447.0625
3015.26888	41454.4625
3017.68865	41352.4625
