Data from AgNPs_FTO_APTES_UA_20uM_CRN_10uM_R6G_10uM_NaF_0.1M_Addition_RamanShift__30__14-45-22-225.txt Node

Date: Thu Feb 17 14:45:22 GMT 2022
User: TCL
Spectrometer: QEP01345
Trigger mode: 4
Integration Time (sec): 7.000000E0
Scans to average: 10
Electric dark correction enabled: true
Nonlinearity correction enabled: false
Boxcar width: 0
XAxis mode: Raman Shifts
Number of Pixels in Spectrum: 1044
>>>>>Begin Spectral Data<<<<<
46.04893	0.3125
50.45542	-0.8875
54.85868	-2.4875
59.25871	-0.1875
63.6555	78.8125
68.04907	80.0125
72.43941	84.5125
76.82654	86.2125
81.21044	88.4125
85.59113	94.2125
89.96862	92.4125
94.34289	96.0125
98.71396	97.0125
103.08183	100.2125
107.4465	104.4125
111.80798	105.1125
116.16626	110.9125
120.52136	118.0125
124.87327	116.8125
129.222	123.8125
133.56755	130.6125
137.90993	137.3125
142.24913	153.1125
146.58517	171.2125
150.91804	199.2125
155.24774	232.5125
159.57429	287.9125
163.89768	364.0125
168.21792	488.1125
172.53501	665.8125
176.84895	924.3125
181.15975	1315.9125
185.46741	1829.7125
189.77193	2527.2125
194.07331	3380.4125
198.37157	4386.4125
202.6667	5438.4125
206.9587	6473.2125
211.24758	7508.4125
215.53334	8553.6125
219.81599	9731.5125
224.09553	11042.2125
228.37195	12517.0125
232.64527	14143.8125
236.91549	15846.7125
241.18261	17461.8125
245.44663	18935.6125
249.70755	20153.6125
253.96539	21196.6125
258.22014	22096.7125
262.4718	22876.9125
266.72039	23455.6125
270.96589	23846.1125
275.20832	23878.6125
279.44768	23780.9125
283.68397	23475.4125
287.91719	23292.0125
292.14735	23313.0125
296.37445	23595.9125
300.59849	24186.9125
304.81948	24861.3125
309.03742	25258.7125
313.25231	25115.4125
317.46415	24182.8125
321.67296	22860.5125
325.87872	21756.9125
330.08145	21258.3125
334.28114	21279.6125
338.47781	21569.6125
342.67145	22074.0125
346.86207	22865.6125
351.04966	23887.4125
355.23424	25020.0125
359.4158	25896.0125
363.59435	26461.8125
367.76989	26766.1125
371.94243	26888.7125
376.11196	26957.7125
380.27849	26987.5125
384.44203	26923.1125
388.60257	26783.1125
392.76012	26722.1125
396.91468	26915.5125
401.06626	27501.7125
405.21485	28017.3125
409.36047	27720.3125
413.50311	26808.2125
417.64277	25857.2125
421.77947	25339.1125
425.9132	25181.1125
430.04396	25336.7125
434.17176	25534.2125
438.2966	25830.4125
442.41849	26292.1125
446.53742	26939.7125
450.6534	27620.4125
454.76644	28154.9125
458.87653	28377.6125
462.98368	28212.1125
467.08789	27832.4125
471.18916	27267.6125
475.2875	26652.9125
479.38291	26202.1125
483.4754	25838.0125
487.56496	25587.5125
491.6516	25333.8125
495.73531	25270.3125
499.81612	25235.2125
503.89401	25512.6125
507.96899	25740.3125
512.04106	26010.6125
516.11023	26351.8125
520.1765	26564.4125
524.23987	26558.3125
528.30034	26221.4125
532.35792	25852.8125
536.41261	25532.0125
540.46441	25218.7125
544.51333	25058.7125
548.55936	25232.8125
552.60252	25681.5125
556.64279	26264.6125
560.6802	26439.7125
564.71473	26620.6125
568.7464	27278.2125
572.7752	27778.0125
576.80114	27536.4125
580.82422	27126.0125
584.84444	27048.6125
588.86181	27066.8125
592.87633	27175.1125
596.888	27392.0125
600.89682	28065.2125
604.9028	30517.6125
608.90594	36742.3125
612.90624	44803.5125
616.90371	43112.7125
620.89834	32769.2125
624.89015	27951.7125
628.87913	27095.5125
632.86528	27168.1125
636.84862	27260.3125
640.82913	26964.9125
644.80683	26116.4125
648.78172	25537.4125
652.75379	25603.7125
656.72306	26420.7125
660.68952	27406.8125
664.65319	27245.5125
668.61405	26317.3125
672.57211	25850.5125
676.52738	25849.8125
680.47986	25881.0125
684.42955	25804.2125
688.37646	25772.2125
692.32058	25910.4125
696.26192	26156.9125
700.20048	26428.1125
704.13626	26676.9125
708.06928	26643.6125
711.99952	26525.2125
715.927	26439.1125
719.85171	26524.5125
723.77365	26503.4125
727.69284	26329.7125
731.60928	26195.5125
735.52295	26148.5125
739.43388	26315.6125
743.34206	26545.2125
747.24749	26724.7125
751.15017	26928.3125
755.05012	27393.4125
758.94733	28408.1125
762.8418	30470.2125
766.73354	34013.1125
770.62254	37785.5125
774.50882	39696.7125
778.39237	38087.7125
782.27321	33966.1125
786.15132	30165.4125
790.02671	28109.6125
793.89938	27213.4125
797.76935	26867.7125
801.6366	26686.6125
805.50115	26538.0125
809.36299	26467.8125
813.22213	26429.2125
817.07857	26387.8125
820.93231	26462.5125
824.78336	26607.7125
828.63172	26662.3125
832.47738	26746.3125
836.32036	26783.1125
840.16066	26771.6125
843.99827	26770.9125
847.8332	26732.6125
851.66546	26623.5125
855.49504	26596.9125
859.32195	26589.8125
863.1462	26550.3125
866.96777	26545.3125
870.78668	26565.8125
874.60293	26613.0125
878.41652	26659.7125
882.22745	26771.3125
886.03573	26863.4125
889.84136	26857.8125
893.64433	26732.4125
897.44466	26700.0125
901.24235	26699.2125
905.0374	26674.5125
908.8298	26655.6125
912.61957	26690.2125
916.40671	26870.7125
920.19121	27093.2125
923.97308	27316.6125
927.75233	27471.2125
931.52895	27568.8125
935.30295	27374.4125
939.07433	26917.4125
942.84309	26475.2125
946.60924	26249.7125
950.37278	26143.1125
954.13371	26027.0125
957.89203	25934.2125
961.64774	25865.1125
965.40086	25805.0125
969.15137	25743.2125
972.89929	25716.0125
976.64461	25684.0125
980.38733	25693.7125
984.12747	25777.2125
987.86502	25896.2125
991.59999	26130.0125
995.33237	26516.4125
999.06217	27165.8125
1002.78939	27925.9125
1006.51404	28480.8125
1010.23611	28934.1125
1013.95561	29299.2125
1017.67255	29308.8125
1021.38692	29063.6125
1025.09872	28861.6125
1028.80796	28985.0125
1032.51465	29595.2125
1036.21877	30126.5125
1039.92035	30249.1125
1043.61937	29977.3125
1047.31584	29453.7125
1051.00976	28920.8125
1054.70114	28626.8125
1058.38998	28638.7125
1062.07627	28756.0125
1065.76003	28882.2125
1069.44126	28969.3125
1073.11995	29166.8125
1076.79611	29316.7125
1080.46974	29649.2125
1084.14085	30062.4125
1087.80943	30551.8125
1091.47549	30779.0125
1095.13903	30446.3125
1098.80005	29713.5125
1102.45857	29156.5125
1106.11456	28960.6125
1109.76805	29040.2125
1113.41903	29577.2125
1117.06751	30188.8125
1120.71348	30961.1125
1124.35696	31730.4125
1127.99793	32273.5125
1131.63641	32122.9125
1135.2724	31283.1125
1138.90589	30391.5125
1142.5369	29823.5125
1146.16542	29452.0125
1149.79145	29288.4125
1153.415	29375.8125
1157.03607	29623.7125
1160.65467	30041.3125
1164.27079	30755.1125
1167.88443	31807.1125
1171.49561	33623.8125
1175.10432	36464.7125
1178.71056	40351.9125
1182.31434	43601.2125
1185.91565	44682.4125
1189.51451	43770.7125
1193.11091	41445.1125
1196.70485	38778.1125
1200.29634	36878.2125
1203.88538	35606.1125
1207.47197	34262.2125
1211.05612	33077.5125
1214.63782	32431.9125
1218.21708	32339.5125
1221.79391	32452.8125
1225.36829	32612.5125
1228.94024	32570.3125
1232.50976	32442.5125
1236.07685	32427.4125
1239.6415	32564.0125
1243.20374	32829.2125
1246.76355	33141.4125
1250.32093	33610.8125
1253.8759	34381.6125
1257.42845	35303.8125
1260.97859	36087.3125
1264.52631	36608.8125
1268.07163	37152.9125
1271.61453	37815.0125
1275.15503	38488.7125
1278.69312	39074.5125
1282.22882	39537.5125
1285.76211	40150.5125
1289.29301	40888.2125
1292.82151	41754.5125
1296.34761	42738.0125
1299.87133	44470.8125
1303.39266	47142.6125
1306.9116	51215.9125
1310.42815	55533.1125
1313.94233	57734.6125
1317.45412	56571.2125
1320.96354	53573.4125
1324.47058	50307.6125
1327.97525	47580.7125
1331.47754	46176.4125
1334.97747	46052.8125
1338.47502	47007.9125
1341.97022	48584.4125
1345.46305	50012.9125
1348.95352	51370.9125
1352.44163	53069.3125
1355.92738	56192.1125
1359.41078	61885.8125
1362.89183	67407.4125
1366.37053	65707.3125
1369.84688	57481.3125
1373.32088	49344.5125
1376.79254	44084.1125
1380.26186	41272.2125
1383.72883	39951.0125
1387.19347	39076.9125
1390.65578	38263.7125
1394.11575	37665.0125
1397.57339	37352.9125
1401.0287	37587.4125
1404.48168	38259.5125
1407.93234	39171.0125
1411.38068	40192.8125
1414.82669	40705.4125
1418.27039	40266.4125
1421.71177	39274.6125
1425.15083	38271.6125
1428.58758	37801.3125
1432.02203	37859.1125
1435.45416	38043.0125
1438.88399	38107.9125
1442.31151	38192.4125
1445.73673	38369.4125
1449.15965	38597.9125
1452.58027	38547.5125
1455.9986	38239.8125
1459.41463	37999.8125
1462.82837	38231.0125
1466.23982	38786.6125
1469.64898	39608.4125
1473.05586	40237.0125
1476.46045	40819.2125
1479.86276	41559.6125
1483.26279	42528.2125
1486.66054	43463.0125
1490.05602	44766.7125
1493.44922	46335.6125
1496.84016	48354.1125
1500.22882	51139.2125
1503.61521	55145.2125
1506.99934	59943.4125
1510.38121	63713.6125
1513.76081	64632.2125
1517.13816	61518.0125
1520.51324	55781.2125
1523.88607	50410.5125
1527.25665	46838.9125
1530.62498	44727.6125
1533.99105	43470.6125
1537.35488	42666.1125
1540.71647	42268.2125
1544.07581	42083.1125
1547.4329	41951.4125
1550.78776	41707.0125
1554.14038	41568.2125
1557.49077	41707.0125
1560.83892	42056.6125
1564.18484	42606.2125
1567.52853	43164.0125
1570.86999	43582.8125
1574.20922	43761.8125
1577.54624	43471.5125
1580.88103	41975.4125
1584.2136	40423.3125
1587.54395	39944.9125
1590.87208	40931.8125
1594.19801	43266.8125
1597.52172	46211.8125
1600.84321	47647.3125
1604.16251	46494.7125
1607.47959	43869.6125
1610.79447	40906.9125
1614.10715	38189.9125
1617.41763	36137.4125
1620.7259	34764.0125
1624.03199	34166.3125
1627.33587	34222.2125
1630.63757	34837.5125
1633.93707	36228.3125
1637.23439	38122.6125
1640.52951	40587.3125
1643.82246	43699.8125
1647.11321	47098.0125
1650.40179	49350.3125
1653.68819	48101.3125
1656.97241	43292.5125
1660.25446	38069.9125
1663.53433	34360.0125
1666.81203	32039.6125
1670.08756	30703.6125
1673.36092	29825.8125
1676.63211	29271.5125
1679.90115	28847.1125
1683.16801	28539.7125
1686.43272	28297.0125
1689.69527	28166.8125
1692.95567	28079.1125
1696.2139	28036.3125
1699.46999	28036.4125
1702.72392	28021.1125
1705.97571	28001.7125
1709.22535	27921.8125
1712.47284	27964.4125
1715.71819	27961.0125
1718.96139	27958.3125
1722.20246	27943.9125
1725.44139	27816.6125
1728.67818	27718.7125
1731.91284	27556.1125
1735.14537	27467.1125
1738.37576	27345.5125
1741.60403	27277.8125
1744.83017	27220.0125
1748.05418	27133.8125
1751.27607	27109.8125
1754.49584	27115.7125
1757.71349	27118.8125
1760.92903	27131.6125
1764.14244	27090.6125
1767.35375	27094.7125
1770.56294	27060.5125
1773.77002	27039.7125
1776.97499	27017.0125
1780.17785	26994.1125
1783.37861	26910.3125
1786.57727	26897.4125
1789.77382	26848.1125
1792.96828	26886.9125
1796.16064	26857.0125
1799.3509	26868.6125
1802.53907	26879.5125
1805.72514	26816.1125
1808.90913	26729.9125
1812.09102	26683.3125
1815.27083	26685.8125
1818.44856	26609.1125
1821.6242	26571.4125
1824.79776	26532.2125
1827.96924	26586.6125
1831.13864	26571.3125
1834.30597	26552.5125
1837.47122	26519.4125
1840.6344	26433.4125
1843.7955	26472.4125
1846.95454	26475.7125
1850.11151	26467.2125
1853.26642	26489.1125
1856.41926	26516.7125
1859.57004	26511.5125
1862.71876	26518.2125
1865.86542	26470.0125
1869.01003	26474.8125
1872.15258	26493.8125
1875.29308	26506.1125
1878.43152	26507.7125
1881.56792	26530.7125
1884.70227	26549.7125
1887.83457	26510.5125
1890.96482	26487.1125
1894.09304	26464.5125
1897.21921	26477.2125
1900.34335	26426.3125
1903.46544	26440.6125
1906.58551	26472.6125
1909.70353	26443.6125
1912.81953	26479.9125
1915.93349	26447.4125
1919.04543	26409.8125
1922.15534	26410.9125
1925.26322	26351.0125
1928.36908	26320.6125
1931.47292	26329.1125
1934.57473	26234.8125
1937.67453	26213.1125
1940.77232	26112.1125
1943.86808	26027.6125
1946.96184	26012.1125
1950.05358	25904.5125
1953.14331	25871.6125
1956.23103	25791.1125
1959.31675	25708.9125
1962.40046	25624.8125
1965.48217	25536.0125
1968.56188	25504.9125
1971.63959	25416.7125
1974.7153	25390.0125
1977.78901	25313.8125
1980.86073	25255.5125
1983.93046	25146.9125
1986.99819	25091.1125
1990.06394	25039.0125
1993.1277	24951.2125
1996.18947	24870.3125
1999.24925	24848.4125
2002.30706	24776.1125
2005.36288	24721.2125
2008.41672	24640.4125
2011.46859	24613.2125
2014.51848	24518.4125
2017.56639	24473.2125
2020.61233	24379.7125
2023.6563	24359.4125
2026.6983	24340.7125
2029.73833	24236.0125
2032.7764	24222.7125
2035.8125	24135.0125
2038.84664	24123.6125
2041.87881	24098.1125
2044.90903	24076.7125
2047.93729	24062.0125
2050.96359	24009.2125
2053.98794	23993.8125
2057.01034	24014.2125
2060.03078	23952.7125
2063.04927	23953.2125
2066.06582	23945.1125
2069.08042	23906.3125
2072.09307	23886.9125
2075.10378	23870.3125
2078.11255	23828.9125
2081.11938	23873.9125
2084.12426	23829.6125
2087.12722	23798.9125
2090.12824	23818.2125
2093.12732	23804.6125
2096.12447	23834.5125
2099.11969	23805.9125
2102.11299	23795.5125
2105.10435	23830.2125
2108.09379	23817.3125
2111.08131	23856.1125
2114.0669	23852.1125
2117.05057	23857.5125
2120.03233	23929.2125
2123.01216	23959.9125
2125.99008	23949.9125
2128.96609	23983.0125
2131.94018	24025.7125
2134.91236	24024.4125
2137.88263	24051.0125
2140.851	24039.4125
2143.81746	24082.9125
2146.78201	24069.3125
2149.74466	24127.4125
2152.7054	24119.8125
2155.66425	24106.6125
2158.6212	24092.0125
2161.57625	24075.2125
2164.52941	24087.7125
2167.48067	24091.0125
2170.43004	24078.9125
2173.37752	24044.3125
2176.32311	24093.3125
2179.26681	24069.9125
2182.20863	24063.0125
2185.14856	24151.2125
2188.08661	24128.7125
2191.02278	24136.1125
2193.95707	24089.0125
2196.88948	24068.6125
2199.82001	24047.3125
2202.74867	24057.6125
2205.67545	24047.3125
2208.60037	24018.2125
2211.52341	23999.6125
2214.44458	23977.0125
2217.36388	23960.0125
2220.28132	23926.8125
2223.1969	23901.7125
2226.11061	23854.0125
2229.02246	23806.6125
2231.93245	23750.8125
2234.84058	23682.9125
2237.74686	23631.3125
2240.65128	23629.1125
2243.55385	23622.7125
2246.45456	23625.5125
2249.35343	23573.5125
2252.25044	23561.1125
2255.14561	23582.8125
2258.03893	23567.4125
2260.93041	23508.4125
2263.82004	23480.2125
2266.70783	23434.9125
2269.59378	23404.5125
2272.4779	23337.7125
2275.36017	23261.5125
2278.24061	23249.9125
2281.11922	23191.9125
2283.996	23151.6125
2286.87094	23129.1125
2289.74405	23097.9125
2292.61534	23076.1125
2295.4848	23051.8125
2298.35243	23044.4125
2301.21824	23072.8125
2304.08223	23075.5125
2306.94439	23060.3125
2309.80474	23071.6125
2312.66327	23049.5125
2315.51999	23068.5125
2318.37489	23031.4125
2321.22797	23017.8125
2324.07925	23029.4125
2326.92871	22945.4125
2329.77637	22931.2125
2332.62222	22920.1125
2335.46626	22900.7125
2338.3085	22892.6125
2341.14893	22893.0125
2343.98756	22879.9125
2346.8244	22900.1125
2349.65943	22914.1125
2352.49267	22943.0125
2355.32411	22953.1125
2358.15376	22973.2125
2360.98161	22933.7125
2363.80768	22947.7125
2366.63195	22931.5125
2369.45444	22898.8125
2372.27514	22875.5125
2375.09405	22835.4125
2377.91118	22781.2125
2380.72652	22730.8125
2383.54009	22633.4125
2386.35187	22567.5125
2389.16188	22501.8125
2391.97011	22466.8125
2394.77657	22411.2125
2397.58125	22390.2125
2400.38416	22378.4125
2403.18529	22328.8125
2405.98466	22256.5125
2408.78226	22202.3125
2411.57809	22168.1125
2414.37216	22170.0125
2417.16446	22173.8125
2419.955	22070.4125
2422.74378	22088.3125
2425.5308	22082.0125
2428.31606	22091.7125
2431.09956	22115.6125
2433.88131	22036.2125
2436.6613	22058.2125
2439.43954	22035.7125
2442.21603	22034.9125
2444.99077	21988.2125
2447.76377	21991.2125
2450.53501	21940.7125
2453.30451	21978.2125
2456.07226	21915.2125
2458.83827	21934.6125
2461.60254	21922.8125
2464.36507	21897.1125
2467.12586	21881.9125
2469.88492	21890.1125
2472.64224	21876.7125
2475.39782	21866.3125
2478.15167	21963.3125
2480.90379	21952.1125
2483.65417	21977.7125
2486.40283	21990.1125
2489.14976	21994.7125
2491.89497	22013.8125
2494.63845	22054.4125
2497.3802	21989.0125
2500.12024	21973.0125
2502.85855	21966.5125
2505.59514	21945.6125
2508.33002	21840.1125
2511.06318	21867.3125
2513.79462	21799.3125
2516.52435	21758.2125
2519.25237	21667.5125
2521.97867	21693.3125
2524.70327	21670.6125
2527.42616	21650.9125
2530.14734	21605.1125
2532.86681	21579.6125
2535.58458	21578.9125
2538.30065	21588.1125
2541.01501	21564.9125
2543.72768	21595.8125
2546.43864	21579.1125
2549.14791	21519.3125
2551.85548	21489.2125
2554.56136	21460.0125
2557.26554	21419.7125
2559.96803	21341.6125
2562.66883	21363.3125
2565.36794	21330.3125
2568.06536	21301.4125
2570.7611	21310.7125
2573.45514	21209.0125
2576.14751	21239.6125
2578.83819	21180.6125
2581.52719	21205.3125
2584.21451	21151.2125
2586.90015	21137.9125
2589.58411	21127.7125
2592.2664	21089.8125
2594.94701	21083.1125
2597.62594	21083.3125
2600.30321	21088.1125
2602.9788	21071.2125
2605.65273	21071.9125
2608.32498	21053.2125
2610.99557	21043.8125
2613.66449	21057.1125
2616.33175	21019.4125
2618.99734	21075.4125
2621.66128	21037.0125
2624.32355	20994.3125
2626.98416	21011.2125
2629.64311	20969.1125
2632.30041	20983.2125
2634.95605	20920.9125
2637.61004	20944.9125
2640.26238	20882.8125
2642.91306	20853.2125
2645.56209	20816.2125
2648.20948	20822.9125
2650.85521	20797.7125
2653.4993	20793.1125
2656.14175	20751.5125
2658.78255	20795.1125
2661.42171	20817.6125
2664.05923	20809.8125
2666.6951	20829.6125
2669.32934	20873.2125
2671.96194	20861.4125
2674.59291	20893.8125
2677.22224	20907.9125
2679.84993	20938.7125
2682.476	20902.4125
2685.10043	20886.1125
2687.72324	20877.1125
2690.34441	20876.2125
2692.96396	20877.2125
2695.58188	20909.4125
2698.19818	20858.0125
2700.81285	20816.7125
2703.4259	20824.1125
2706.03733	20902.0125
2708.64714	20807.9125
2711.25533	20856.2125
2713.86191	20815.6125
2716.46687	20861.0125
2719.07021	20871.9125
2721.67194	20846.2125
2724.27206	20826.0125
2726.87057	20838.9125
2729.46747	20850.4125
2732.06276	20843.8125
2734.65644	20854.9125
2737.24852	20844.2125
2739.83899	20876.3125
2742.42786	20865.6125
2745.01513	20844.4125
2747.60079	20843.7125
2750.18486	20807.5125
2752.76733	20793.4125
2755.3482	20758.0125
2757.92747	20786.6125
2760.50515	20756.6125
2763.08123	20721.6125
2765.65573	20718.1125
2768.22863	20689.7125
2770.79994	20654.2125
2773.36967	20683.3125
2775.9378	20656.6125
2778.50435	20670.4125
2781.06932	20624.4125
2783.6327	20624.3125
2786.1945	20608.9125
2788.75471	20558.6125
2791.31335	20592.1125
2793.87041	20543.2125
2796.42589	20537.2125
2798.97979	20507.4125
2801.53212	20397.5125
2804.08288	20395.1125
2806.63206	20360.9125
2809.17967	20341.4125
2811.72571	20309.5125
2814.27018	20248.0125
2816.81308	20223.5125
2819.35442	20218.5125
2821.89419	20207.4125
2824.43239	20218.5125
2826.96904	20202.6125
2829.50412	20213.5125
2832.03763	20212.7125
2834.56959	20206.0125
2837.1	20212.3125
2839.62884	20130.3125
2842.15613	20114.3125
2844.68186	20101.1125
2847.20604	20111.9125
2849.72867	20120.0125
2852.24974	20079.6125
2854.76927	20026.3125
2857.28724	20047.2125
2859.80367	20039.4125
2862.31855	19968.1125
2864.83189	19951.0125
2867.34368	19945.7125
2869.85393	19957.8125
2872.36264	19969.0125
2874.8698	19925.6125
2877.37543	19889.2125
2879.87952	19849.6125
2882.38207	19903.9125
2884.88308	19869.6125
2887.38256	19883.5125
2889.88051	19834.3125
2892.37692	19840.7125
2894.8718	19849.3125
2897.36515	19909.3125
2899.85698	19893.5125
2902.34727	19924.8125
2904.83604	19902.8125
2907.32328	19910.8125
2909.809	19938.2125
2912.29319	19955.4125
2914.77587	19966.2125
2917.25702	19956.2125
2919.73665	19888.4125
2922.21476	19887.8125
2924.69136	19867.6125
2927.16644	19823.9125
2929.64	19813.8125
2932.11205	19810.7125
2934.58258	19742.1125
2937.05161	19795.1125
2939.51912	19777.5125
2941.98513	19766.1125
2944.44962	19788.1125
2946.91261	19706.6125
2949.37409	19761.5125
2951.83407	19720.9125
2954.29254	19681.8125
2956.74951	19681.6125
2959.20498	19658.8125
2961.65895	19662.4125
2964.11142	19648.6125
2966.56239	19594.5125
2969.01186	19590.5125
2971.45984	19556.9125
2973.90632	19500.3125
2976.35131	19479.9125
2978.7948	19456.4125
2981.23681	19396.5125
2983.67732	19390.8125
2986.11635	19349.4125
2988.55388	19353.0125
2990.98993	19320.0125
2993.4245	19278.6125
2995.85758	19231.3125
2998.28917	19193.9125
3000.71928	19153.8125
3003.14791	19110.8125
3005.57506	19102.1125
3008.00073	19056.4125
3010.42493	19038.0125
3012.84764	18986.5125
3015.26888	19006.6125
3017.68865	18954.8125
3020.10694	18930.9125
3022.52376	18871.3125
