Data from AgNPs_FTO_APTES_UA_20uM_CRN_10uM_R6G_10uM_NaF_0.1M_Addition_RamanShift__8__14-19-42-191.txt Node

Date: Thu Feb 17 14:19:42 GMT 2022
User: TCL
Spectrometer: QEP01345
Trigger mode: 4
Integration Time (sec): 7.000000E0
Scans to average: 10
Electric dark correction enabled: true
Nonlinearity correction enabled: false
Boxcar width: 0
XAxis mode: Raman Shifts
Number of Pixels in Spectrum: 1044
>>>>>Begin Spectral Data<<<<<
46.04893	-0.575
50.45542	-1.275
54.85868	-2.675
59.25871	-1.975
63.6555	123.125
68.04907	126.725
72.43941	135.025
76.82654	134.625
81.21044	135.825
85.59113	146.425
89.96862	143.725
94.34289	145.525
98.71396	153.125
103.08183	158.825
107.4465	163.325
111.80798	172.925
116.16626	178.925
120.52136	185.725
124.87327	193.625
129.222	203.925
133.56755	218.325
137.90993	237.125
142.24913	262.625
146.58517	298.025
150.91804	355.125
155.24774	425.025
159.57429	526.925
163.89768	681.325
168.21792	918.125
172.53501	1266.925
176.84895	1769.225
181.15975	2514.725
185.46741	3526.125
189.77193	4886.725
194.07331	6581.625
198.37157	8494.725
202.6667	10550.525
206.9587	12538.925
211.24758	14518.025
215.53334	16496.325
219.81599	18521.225
224.09553	20784.925
228.37195	23302.225
232.64527	26038.125
236.91549	28932.825
241.18261	31930.625
245.44663	34745.725
249.70755	37347.725
253.96539	39653.425
258.22014	41599.825
262.4718	43150.625
266.72039	44254.325
270.96589	44795.425
275.20832	44924.225
279.44768	44811.625
283.68397	44482.125
287.91719	44104.725
292.14735	43964.325
296.37445	43881.625
300.59849	43989.625
304.81948	44140.725
309.03742	44187.825
313.25231	44045.325
317.46415	43547.825
321.67296	42875.225
325.87872	42259.825
330.08145	42122.525
334.28114	42122.325
338.47781	42435.025
342.67145	42940.025
346.86207	43588.625
351.04966	44271.225
355.23424	44909.525
359.4158	45401.625
363.59435	45872.525
367.76989	46168.925
371.94243	46423.025
376.11196	46721.025
380.27849	46968.625
384.44203	47227.125
388.60257	47583.025
392.76012	48015.725
396.91468	48709.225
401.06626	49260.625
405.21485	49747.825
409.36047	49662.525
413.50311	49323.525
417.64277	48995.825
421.77947	49020.725
425.9132	49269.925
430.04396	49557.525
434.17176	49894.225
438.2966	50147.425
442.41849	50833.125
446.53742	51837.225
450.6534	52905.825
454.76644	53830.925
458.87653	54219.625
462.98368	54183.125
467.08789	53803.925
471.18916	53325.225
475.2875	52852.725
479.38291	52544.125
483.4754	52282.125
487.56496	51894.425
491.6516	51520.225
495.73531	51058.825
499.81612	50703.625
503.89401	50918.825
507.96899	51079.525
512.04106	51128.525
516.11023	50995.025
520.1765	50793.525
524.23987	50707.525
528.30034	50459.525
532.35792	50244.125
536.41261	49870.725
540.46441	49656.825
544.51333	49720.225
548.55936	50102.625
552.60252	50849.325
556.64279	51759.725
560.6802	52504.825
564.71473	52868.025
568.7464	53543.525
572.7752	54769.825
576.80114	56204.425
580.82422	57573.025
584.84444	58684.725
588.86181	60061.025
592.87633	61377.625
596.888	61191.225
600.89682	59723.125
604.9028	59512.925
608.90594	61762.125
612.90624	64194.325
616.90371	61197.525
620.89834	54913.925
624.89015	52212.925
628.87913	52009.425
632.86528	52411.125
636.84862	52443.625
640.82913	51957.925
644.80683	51185.525
648.78172	50573.025
652.75379	50466.725
656.72306	50922.525
660.68952	51608.425
664.65319	51483.025
668.61405	50914.725
672.57211	50968.225
676.52738	51184.325
680.47986	51218.925
684.42955	51011.125
688.37646	50934.425
692.32058	51193.625
696.26192	51689.225
700.20048	52253.425
704.13626	52669.225
708.06928	52768.425
711.99952	52633.625
715.927	52545.425
719.85171	52561.025
723.77365	52482.125
727.69284	52044.025
731.60928	51517.125
735.52295	51330.325
739.43388	51306.225
743.34206	51472.525
747.24749	51766.025
751.15017	52075.625
755.05012	52724.325
758.94733	53751.625
762.8418	55480.725
766.73354	58205.525
770.62254	60614.325
774.50882	60941.025
778.39237	59062.125
782.27321	56351.025
786.15132	54202.625
790.02671	52806.025
793.89938	52084.825
797.76935	51731.025
801.6366	51557.325
805.50115	51407.325
809.36299	51323.925
813.22213	51168.325
817.07857	51097.025
820.93231	51089.025
824.78336	50998.525
828.63172	50837.625
832.47738	50802.025
836.32036	50785.625
840.16066	50903.425
843.99827	50909.025
847.8332	51018.225
851.66546	51136.825
855.49504	51197.725
859.32195	51236.625
863.1462	51208.325
866.96777	51232.225
870.78668	51254.425
874.60293	51286.425
878.41652	51325.025
882.22745	51380.425
886.03573	51474.425
889.84136	51474.025
893.64433	51363.825
897.44466	51208.025
901.24235	51127.925
905.0374	51113.625
908.8298	51005.825
912.61957	51113.125
916.40671	51451.825
920.19121	51960.525
923.97308	52383.925
927.75233	52227.225
931.52895	51835.325
935.30295	51306.525
939.07433	50831.725
942.84309	50396.425
946.60924	50186.925
950.37278	50221.125
954.13371	50282.625
957.89203	50296.925
961.64774	50250.125
965.40086	50237.825
969.15137	50234.425
972.89929	50089.025
976.64461	50044.525
980.38733	50004.925
984.12747	50087.425
987.86502	50285.525
991.59999	50594.325
995.33237	50928.225
999.06217	51446.825
1002.78939	52134.125
1006.51404	52992.625
1010.23611	53637.925
1013.95561	54152.925
1017.67255	54276.025
1021.38692	53958.925
1025.09872	53433.425
1028.80796	52930.125
1032.51465	52739.025
1036.21877	52892.725
1039.92035	53004.525
1043.61937	53123.725
1047.31584	53120.125
1051.00976	53051.825
1054.70114	53222.025
1058.38998	53475.225
1062.07627	53911.025
1065.76003	54423.425
1069.44126	55115.025
1073.11995	55790.725
1076.79611	56371.125
1080.46974	56740.825
1084.14085	57011.625
1087.80943	57383.725
1091.47549	57704.425
1095.13903	57799.825
1098.80005	57337.425
1102.45857	56478.925
1106.11456	55788.225
1109.76805	55330.925
1113.41903	55333.725
1117.06751	55447.425
1120.71348	55756.925
1124.35696	56187.225
1127.99793	56448.225
1131.63641	56637.025
1135.2724	56583.525
1138.90589	56476.625
1142.5369	56558.625
1146.16542	56772.625
1149.79145	57138.325
1153.415	57466.725
1157.03607	57919.925
1160.65467	58824.425
1164.27079	60289.425
1167.88443	62312.525
1171.49561	64535.225
1175.10432	67196.225
1178.71056	70623.125
1182.31434	73948.725
1185.91565	75699.225
1189.51451	75825.325
1193.11091	74963.225
1196.70485	73394.525
1200.29634	71666.325
1203.88538	70214.725
1207.47197	69521.625
1211.05612	68826.725
1214.63782	67897.025
1218.21708	66666.125
1221.79391	65382.425
1225.36829	64447.525
1228.94024	63902.525
1232.50976	63320.425
1236.07685	62664.625
1239.6415	62344.125
1243.20374	62321.025
1246.76355	62656.125
1250.32093	63400.425
1253.8759	64297.625
1257.42845	65489.125
1260.97859	66914.625
1264.52631	68298.825
1268.07163	69611.525
1271.61453	70844.225
1275.15503	72015.025
1278.69312	73330.925
1282.22882	74676.125
1285.76211	76360.125
1289.29301	78436.325
1292.82151	80940.125
1296.34761	83899.625
1299.87133	87340.925
1303.39266	90931.825
1306.9116	94042.825
1310.42815	96715.025
1313.94233	97945.725
1317.45412	97518.525
1320.96354	96341.925
1324.47058	95333.825
1327.97525	94547.125
1331.47754	93800.625
1334.97747	93447.325
1338.47502	93348.525
1341.97022	93372.525
1345.46305	93489.625
1348.95352	93518.725
1352.44163	93275.525
1355.92738	93712.525
1359.41078	95270.625
1362.89183	96588.525
1366.37053	94969.825
1369.84688	89599.525
1373.32088	82814.825
1376.79254	78130.625
1380.26186	76112.825
1383.72883	76052.425
1387.19347	76229.625
1390.65578	75819.725
1394.11575	75368.825
1397.57339	75271.025
1401.0287	75582.225
1404.48168	75766.025
1407.93234	75484.025
1411.38068	74514.425
1414.82669	72942.425
1418.27039	71068.525
1421.71177	69182.125
1425.15083	67723.325
1428.58758	67124.425
1432.02203	67534.725
1435.45416	68653.825
1438.88399	70092.225
1442.31151	71220.825
1445.73673	71843.025
1449.15965	72255.225
1452.58027	72457.825
1455.9986	72584.625
1459.41463	72960.125
1462.82837	73807.625
1466.23982	74735.025
1469.64898	75700.825
1473.05586	76468.425
1476.46045	76733.925
1479.86276	76517.425
1483.26279	76093.625
1486.66054	75815.125
1490.05602	76185.625
1493.44922	76890.825
1496.84016	77843.825
1500.22882	79171.325
1503.61521	81213.625
1506.99934	83542.825
1510.38121	85108.525
1513.76081	84928.225
1517.13816	83345.625
1520.51324	81480.025
1523.88607	80306.225
1527.25665	80035.525
1530.62498	80176.325
1533.99105	80123.925
1537.35488	79352.725
1540.71647	77882.625
1544.07581	76398.625
1547.4329	74921.625
1550.78776	73485.125
1554.14038	72608.525
1557.49077	72007.325
1560.83892	71580.925
1564.18484	71369.725
1567.52853	71675.825
1570.86999	72136.825
1574.20922	73037.025
1577.54624	73701.625
1580.88103	73602.725
1584.2136	73677.725
1587.54395	74996.525
1590.87208	77302.925
1594.19801	80396.225
1597.52172	83461.925
1600.84321	84145.225
1604.16251	81708.725
1607.47959	77688.925
1610.79447	73329.425
1614.10715	69101.925
1617.41763	65571.725
1620.7259	62880.325
1624.03199	61441.725
1627.33587	61257.325
1630.63757	62221.125
1633.93707	64775.325
1637.23439	69142.825
1640.52951	75781.825
1643.82246	83505.725
1647.11321	89679.625
1650.40179	90693.125
1653.68819	85776.725
1656.97241	77190.625
1660.25446	68927.325
1663.53433	62633.725
1666.81203	58560.225
1670.08756	55974.025
1673.36092	54285.325
1676.63211	53213.625
1679.90115	52428.025
1683.16801	51755.025
1686.43272	51301.625
1689.69527	51033.325
1692.95567	50735.125
1696.2139	50609.225
1699.46999	50541.325
1702.72392	50443.525
1705.97571	50314.825
1709.22535	50257.225
1712.47284	50185.125
1715.71819	50244.625
1718.96139	50123.025
1722.20246	49961.125
1725.44139	49802.225
1728.67818	49655.125
1731.91284	49444.225
1735.14537	49288.425
1738.37576	49082.725
1741.60403	48914.425
1744.83017	48778.225
1748.05418	48657.125
1751.27607	48580.625
1754.49584	48588.825
1757.71349	48618.125
1760.92903	48567.925
1764.14244	48469.625
1767.35375	48420.625
1770.56294	48387.625
1773.77002	48330.525
1776.97499	48355.525
1780.17785	48242.225
1783.37861	48125.225
1786.57727	48063.825
1789.77382	47953.425
1792.96828	47985.125
1796.16064	47909.425
1799.3509	47873.525
1802.53907	47776.925
1805.72514	47653.425
1808.90913	47559.825
1812.09102	47464.625
1815.27083	47434.925
1818.44856	47399.725
1821.6242	47318.925
1824.79776	47294.625
1827.96924	47229.125
1831.13864	47196.425
1834.30597	47243.725
1837.47122	47147.625
1840.6344	47068.125
1843.7955	47064.025
1846.95454	47053.225
1850.11151	47068.225
1853.26642	47055.125
1856.41926	47052.725
1859.57004	46988.425
1862.71876	46954.025
1865.86542	46919.925
1869.01003	46822.925
1872.15258	46796.525
1875.29308	46789.425
1878.43152	46659.425
1881.56792	46738.725
1884.70227	46708.225
1887.83457	46657.525
1890.96482	46605.125
1894.09304	46548.425
1897.21921	46477.325
1900.34335	46419.225
1903.46544	46336.625
1906.58551	46358.925
1909.70353	46299.025
1912.81953	46220.325
1915.93349	46213.125
1919.04543	46069.425
1922.15534	46023.825
1925.26322	45977.425
1928.36908	45881.725
1931.47292	45848.125
1934.57473	45796.225
1937.67453	45694.525
1940.77232	45585.225
1943.86808	45403.025
1946.96184	45385.525
1950.05358	45296.125
1953.14331	45120.825
1956.23103	45011.325
1959.31675	44898.425
1962.40046	44796.925
1965.48217	44613.825
1968.56188	44494.725
1971.63959	44423.425
1974.7153	44266.325
1977.78901	44185.825
1980.86073	44063.725
1983.93046	43922.025
1986.99819	43783.425
1990.06394	43682.925
1993.1277	43587.225
1996.18947	43492.025
1999.24925	43412.425
2002.30706	43275.725
2005.36288	43118.225
2008.41672	42990.125
2011.46859	42877.325
2014.51848	42793.425
2017.56639	42707.925
2020.61233	42585.225
2023.6563	42468.425
2026.6983	42394.525
2029.73833	42324.925
2032.7764	42136.725
2035.8125	42125.925
2038.84664	42037.625
2041.87881	42016.425
2044.90903	41965.725
2047.93729	41890.025
2050.96359	41840.825
2053.98794	41797.125
2057.01034	41825.225
2060.03078	41726.825
2063.04927	41683.825
2066.06582	41735.125
2069.08042	41659.325
2072.09307	41650.425
2075.10378	41588.125
2078.11255	41531.325
2081.11938	41639.725
2084.12426	41540.125
2087.12722	41562.425
2090.12824	41548.025
2093.12732	41617.725
2096.12447	41617.525
2099.11969	41616.325
2102.11299	41569.625
2105.10435	41624.525
2108.09379	41660.825
2111.08131	41633.925
2114.0669	41651.825
2117.05057	41698.325
2120.03233	41763.525
2123.01216	41850.025
2125.99008	41908.525
2128.96609	41931.225
2131.94018	41911.125
2134.91236	41969.125
2137.88263	41993.625
2140.851	41965.425
2143.81746	42086.625
2146.78201	42087.025
2149.74466	42140.525
2152.7054	42146.425
2155.66425	42121.625
2158.6212	42130.625
2161.57625	42066.925
2164.52941	42059.425
2167.48067	42023.525
2170.43004	42015.325
2173.37752	42026.825
2176.32311	41996.425
2179.26681	42040.225
2182.20863	42050.025
2185.14856	42108.725
2188.08661	42083.025
2191.02278	42079.725
2193.95707	41967.425
2196.88948	41974.425
2199.82001	41952.625
2202.74867	41924.925
2205.67545	41857.225
2208.60037	41762.225
2211.52341	41716.225
2214.44458	41724.525
2217.36388	41686.325
2220.28132	41584.725
2223.1969	41486.225
2226.11061	41416.625
2229.02246	41269.325
2231.93245	41250.225
2234.84058	41233.425
2237.74686	41147.225
2240.65128	41127.425
2243.55385	41082.525
2246.45456	41095.125
2249.35343	41085.925
2252.25044	40960.325
2255.14561	40914.925
2258.03893	40873.625
2260.93041	40754.225
2263.82004	40703.025
2266.70783	40632.525
2269.59378	40532.925
2272.4779	40449.925
2275.36017	40417.025
2278.24061	40363.325
2281.11922	40207.225
2283.996	40160.425
2286.87094	40153.325
2289.74405	40090.425
2292.61534	40027.225
2295.4848	39993.525
2298.35243	40010.525
2301.21824	40009.325
2304.08223	39973.525
2306.94439	39965.025
2309.80474	39937.025
2312.66327	39945.825
2315.51999	39874.525
2318.37489	39768.425
2321.22797	39789.525
2324.07925	39782.025
2326.92871	39633.025
2329.77637	39590.525
2332.62222	39529.825
2335.46626	39513.625
2338.3085	39462.525
2341.14893	39431.125
2343.98756	39397.925
2346.8244	39395.025
2349.65943	39367.225
2352.49267	39331.325
2355.32411	39375.825
2358.15376	39381.625
2360.98161	39327.225
2363.80768	39331.725
2366.63195	39313.125
2369.45444	39233.625
2372.27514	39191.725
2375.09405	39165.925
2377.91118	39157.325
2380.72652	39024.025
2383.54009	38941.025
2386.35187	38896.525
2389.16188	38802.425
2391.97011	38710.725
2394.77657	38656.525
2397.58125	38600.925
2400.38416	38575.725
2403.18529	38500.025
2405.98466	38467.425
2408.78226	38398.925
2411.57809	38386.325
2414.37216	38358.325
2417.16446	38359.925
2419.955	38258.125
2422.74378	38247.125
2425.5308	38215.525
2428.31606	38241.025
2431.09956	38215.825
2433.88131	38148.725
2436.6613	38171.125
2439.43954	38171.925
2442.21603	38107.125
2444.99077	38043.225
2447.76377	38049.325
2450.53501	37994.325
2453.30451	37976.225
2456.07226	37929.525
2458.83827	37973.125
2461.60254	37906.725
2464.36507	37830.125
2467.12586	37854.125
2469.88492	37895.725
2472.64224	37864.525
2475.39782	37855.825
2478.15167	37880.025
2480.90379	37809.625
2483.65417	37862.425
2486.40283	37835.825
2489.14976	37785.525
2491.89497	37760.525
2494.63845	37835.125
2497.3802	37769.125
2500.12024	37725.825
2502.85855	37745.225
2505.59514	37711.825
2508.33002	37607.925
2511.06318	37584.325
2513.79462	37550.525
2516.52435	37497.825
2519.25237	37491.725
2521.97867	37471.925
2524.70327	37456.525
2527.42616	37425.125
2530.14734	37397.025
2532.86681	37340.425
2535.58458	37330.825
2538.30065	37267.725
2541.01501	37226.625
2543.72768	37260.625
2546.43864	37216.125
2549.14791	37153.825
2551.85548	37091.825
2554.56136	36967.125
2557.26554	36925.325
2559.96803	36888.925
2562.66883	36885.325
2565.36794	36807.525
2568.06536	36740.525
2570.7611	36697.325
2573.45514	36666.225
2576.14751	36573.425
2578.83819	36541.925
2581.52719	36540.525
2584.21451	36481.725
2586.90015	36441.925
2589.58411	36391.825
2592.2664	36360.925
2594.94701	36255.525
2597.62594	36245.425
2600.30321	36208.325
2602.9788	36212.825
2605.65273	36154.425
2608.32498	36182.625
2610.99557	36149.625
2613.66449	36201.725
2616.33175	36075.725
2618.99734	36046.625
2621.66128	35984.725
2624.32355	35941.525
2626.98416	35932.825
2629.64311	35860.125
2632.30041	35846.125
2634.95605	35796.825
2637.61004	35783.625
2640.26238	35770.225
2642.91306	35700.325
2645.56209	35627.525
2648.20948	35669.025
2650.85521	35668.125
2653.4993	35688.325
2656.14175	35676.725
2658.78255	35725.925
2661.42171	35727.725
2664.05923	35795.925
2666.6951	35699.325
2669.32934	35735.525
2671.96194	35712.425
2674.59291	35757.025
2677.22224	35762.425
2679.84993	35772.325
2682.476	35689.725
2685.10043	35670.725
2687.72324	35699.125
2690.34441	35718.225
2692.96396	35691.425
2695.58188	35694.025
2698.19818	35658.625
2700.81285	35636.825
2703.4259	35610.525
2706.03733	35701.425
2708.64714	35673.025
2711.25533	35708.625
2713.86191	35705.325
2716.46687	35762.825
2719.07021	35732.125
2721.67194	35711.025
2724.27206	35707.525
2726.87057	35708.725
2729.46747	35754.125
2732.06276	35736.325
2734.65644	35716.025
2737.24852	35764.425
2739.83899	35737.325
2742.42786	35818.925
2745.01513	35735.825
2747.60079	35690.625
2750.18486	35645.125
2752.76733	35599.225
2755.3482	35513.325
2757.92747	35494.125
2760.50515	35452.625
2763.08123	35459.325
2765.65573	35407.625
2768.22863	35402.125
2770.79994	35336.625
2773.36967	35381.625
2775.9378	35382.425
2778.50435	35407.225
2781.06932	35305.325
2783.6327	35248.025
2786.1945	35240.525
2788.75471	35181.925
2791.31335	35164.725
2793.87041	35068.125
2796.42589	34976.825
2798.97979	34948.925
2801.53212	34878.625
2804.08288	34870.925
2806.63206	34717.225
2809.17967	34627.025
2811.72571	34509.125
2814.27018	34435.525
2816.81308	34352.925
2819.35442	34314.825
2821.89419	34234.025
2824.43239	34266.925
2826.96904	34172.925
2829.50412	34233.125
2832.03763	34150.625
2834.56959	34094.725
2837.1	34006.225
2839.62884	33961.725
2842.15613	33903.725
2844.68186	33906.525
2847.20604	33869.225
2849.72867	33893.325
2852.24974	33820.625
2854.76927	33786.325
2857.28724	33766.425
2859.80367	33768.525
2862.31855	33645.225
2864.83189	33620.925
2867.34368	33531.125
2869.85393	33537.025
2872.36264	33538.125
2874.8698	33494.525
2877.37543	33438.725
2879.87952	33426.925
2882.38207	33403.825
2884.88308	33395.325
2887.38256	33407.925
2889.88051	33323.125
2892.37692	33395.625
2894.8718	33409.125
2897.36515	33415.125
2899.85698	33429.125
2902.34727	33440.025
2904.83604	33426.325
2907.32328	33473.625
2909.809	33507.725
2912.29319	33455.825
2914.77587	33485.925
2917.25702	33513.025
2919.73665	33425.525
2922.21476	33492.125
2924.69136	33402.725
2927.16644	33379.925
2929.64	33324.825
2932.11205	33318.925
2934.58258	33217.925
2937.05161	33294.425
2939.51912	33299.125
2941.98513	33277.725
2944.44962	33229.225
2946.91261	33195.425
2949.37409	33269.325
2951.83407	33212.925
2954.29254	33206.025
2956.74951	33193.225
2959.20498	33174.025
2961.65895	33128.625
2964.11142	33127.225
2966.56239	33076.125
2969.01186	33064.625
2971.45984	32983.825
2973.90632	33039.225
2976.35131	32924.125
2978.7948	32904.525
2981.23681	32827.225
2983.67732	32823.325
2986.11635	32733.825
2988.55388	32708.225
2990.98993	32603.325
2993.4245	32554.025
2995.85758	32517.025
2998.28917	32416.325
3000.71928	32353.525
3003.14791	32271.125
3005.57506	32311.725
3008.00073	32126.825
3010.42493	32130.425
3012.84764	32002.525
3015.26888	32034.025
3017.68865	31944.025
3020.10694	31939.325
3022.52376	31902.425
3024.9391	31818.125
3027.35298	31816.825
3029.76539	31839.725
3032.17632	31771.025
3034.5858	31718.825
3036.9938	31622.325
3039.40034	31604.025
3041.80542	31590.425
3044.20903	31558.025
3046.61118	31515.725
3049.01187	31374.025
3051.4111	31309.025
3053.80888	31240.725
3056.20519	31224.625
3058.60005	31135.325
3060.99345	31162.525
3063.3854	31017.825
3065.7759	30906.525
3068.16494	30837.325
3070.55254	30797.225
3072.93868	30698.225
3075.32338	30558.125
3077.70662	30505.125
3080.08842	30398.225
3082.46878	30391.725
3084.84769	30377.925
3087.22515	30336.625
3089.60118	30319.225
3091.97576	30289.925
3094.3489	30234.225
3096.72061	30210.825
3099.09087	30253.925
3101.4597	30214.325
3103.82709	30229.625
3106.19305	30190.725
3108.55757	30203.725
3110.92066	30134.025
3113.28232	30090.725
3115.64255	30001.225
3118.00134	29934.425
3120.35871	29833.325
3122.71466	29746.425
3125.06917	29698.325
