Data from AgNPs_FTO_APTES_UA_20uM_CRN_500uM_R6G_10uM_NaF_0.1M_Addition_RamanShift__3__18-35-34-957.txt Node

Date: Thu Feb 17 18:35:34 GMT 2022
User: TCL
Spectrometer: QEP01345
Trigger mode: 4
Integration Time (sec): 1.000000E1
Scans to average: 7
Electric dark correction enabled: true
Nonlinearity correction enabled: false
Boxcar width: 0
XAxis mode: Raman Shifts
Number of Pixels in Spectrum: 1044
>>>>>Begin Spectral Data<<<<<
46.04893	-0.66071
50.45542	-2.66071
54.85868	0.48214
59.25871	-1.51786
63.6555	88.48214
68.04907	97.19643
72.43941	99.19643
76.82654	107.91071
81.21044	114.19643
85.59113	109.19643
89.96862	117.48214
94.34289	119.19643
98.71396	125.48214
103.08183	124.48214
107.4465	135.05357
111.80798	131.48214
116.16626	135.48214
120.52136	137.48214
124.87327	151.33929
129.222	150.76786
133.56755	161.33929
137.90993	179.76786
142.24913	184.91071
146.58517	210.91071
150.91804	249.48214
155.24774	288.91071
159.57429	360.05357
163.89768	468.48214
168.21792	624.76786
172.53501	856.05357
176.84895	1204.19643
181.15975	1691.76786
185.46741	2404.19643
189.77193	3330.33929
194.07331	4479.19643
198.37157	5821.76786
202.6667	7228.91071
206.9587	8592.48214
211.24758	9987.33929
215.53334	11376.05357
219.81599	12817.76786
224.09553	14406.48214
228.37195	16187.76786
232.64527	18187.33929
236.91549	20238.76786
241.18261	22261.33929
245.44663	24060.625
249.70755	25626.76786
253.96539	26975.76786
258.22014	28108.76786
262.4718	29033.625
266.72039	29682.48214
270.96589	30034.48214
275.20832	29909.48214
279.44768	29589.05357
283.68397	29146.19643
287.91719	28804.76786
292.14735	28569.48214
296.37445	28602.48214
300.59849	28910.19643
304.81948	29330.05357
309.03742	29789.19643
313.25231	29957.91071
317.46415	29704.76786
321.67296	29103.48214
325.87872	28467.91071
330.08145	28169.48214
334.28114	28110.33929
338.47781	28310.19643
342.67145	28663.33929
346.86207	29226.76786
351.04966	29993.625
355.23424	30783.76786
359.4158	31320.19643
363.59435	31711.91071
367.76989	31897.19643
371.94243	31893.33929
376.11196	31974.91071
380.27849	32055.19643
384.44203	32228.19643
388.60257	32299.48214
392.76012	32523.91071
396.91468	32710.48214
401.06626	33165.48214
405.21485	33440.19643
409.36047	33257.33929
413.50311	32636.625
417.64277	32078.76786
421.77947	31809.33929
425.9132	31777.19643
430.04396	31928.48214
434.17176	32175.05357
438.2966	32589.91071
442.41849	33267.91071
446.53742	34272.76786
450.6534	35253.48214
454.76644	35825.19643
458.87653	35784.19643
462.98368	35401.33929
467.08789	34886.05357
471.18916	34239.48214
475.2875	33571.48214
479.38291	32966.19643
483.4754	32490.625
487.56496	32146.76786
491.6516	32025.91071
495.73531	31975.33929
499.81612	31935.91071
503.89401	32183.91071
507.96899	32341.625
512.04106	32408.91071
516.11023	32481.19643
520.1765	32555.76786
524.23987	32736.91071
528.30034	32797.05357
532.35792	32775.625
536.41261	32511.05357
540.46441	32061.05357
544.51333	31927.05357
548.55936	31999.91071
552.60252	32466.76786
556.64279	33139.625
560.6802	33610.48214
564.71473	33627.05357
568.7464	33764.76786
572.7752	34137.48214
576.80114	34170.91071
580.82422	34364.91071
584.84444	35032.48214
588.86181	36358.05357
592.87633	38238.48214
596.888	39366.48214
600.89682	38792.33929
604.9028	38860.33929
608.90594	42011.05357
612.90624	46752.76786
616.90371	45235.19643
620.89834	37597.19643
624.89015	33815.19643
628.87913	33250.19643
632.86528	33401.91071
636.84862	33494.19643
640.82913	33191.48214
644.80683	32468.91071
648.78172	32000.48214
652.75379	31945.76786
656.72306	32447.91071
660.68952	33054.625
664.65319	32870.05357
668.61405	32173.05357
672.57211	31985.19643
676.52738	32232.19643
680.47986	32194.48214
684.42955	31965.76786
688.37646	31767.19643
692.32058	31821.19643
696.26192	32107.33929
700.20048	32530.19643
704.13626	32742.33929
708.06928	32649.48214
711.99952	32452.19643
715.927	32397.48214
719.85171	32523.625
723.77365	32512.48214
727.69284	32309.19643
731.60928	32051.33929
735.52295	32042.625
739.43388	32117.625
743.34206	32216.33929
747.24749	32265.48214
751.15017	32408.33929
755.05012	32726.33929
758.94733	33412.48214
762.8418	35040.91071
766.73354	37872.05357
770.62254	40680.05357
774.50882	41687.05357
778.39237	40337.33929
782.27321	37659.05357
786.15132	35010.91071
790.02671	33302.76786
793.89938	32531.48214
797.76935	32203.33929
801.6366	32033.48214
805.50115	31893.19643
809.36299	31735.05357
813.22213	31593.48214
817.07857	31497.91071
820.93231	31432.91071
824.78336	31421.19643
828.63172	31451.625
832.47738	31453.19643
836.32036	31534.33929
840.16066	31602.05357
843.99827	31649.33929
847.8332	31646.91071
851.66546	31571.33929
855.49504	31668.05357
859.32195	31594.48214
863.1462	31565.625
866.96777	31561.33929
870.78668	31557.625
874.60293	31630.33929
878.41652	31670.76786
882.22745	31746.19643
886.03573	31881.05357
889.84136	31820.05357
893.64433	31707.625
897.44466	31610.625
901.24235	31552.625
905.0374	31503.19643
908.8298	31318.33929
912.61957	31303.91071
916.40671	31363.48214
920.19121	31577.05357
923.97308	31863.625
927.75233	32066.19643
931.52895	32097.625
935.30295	31838.05357
939.07433	31399.19643
942.84309	31023.05357
946.60924	30808.48214
950.37278	30752.91071
954.13371	30573.05357
957.89203	30548.91071
961.64774	30464.19643
965.40086	30434.19643
969.15137	30448.625
972.89929	30391.48214
976.64461	30353.05357
980.38733	30488.33929
984.12747	30541.625
987.86502	30783.05357
991.59999	31008.76786
995.33237	31418.625
999.06217	31995.76786
1002.78939	32675.33929
1006.51404	33099.48214
1010.23611	33498.625
1013.95561	33798.48214
1017.67255	33947.33929
1021.38692	33747.91071
1025.09872	33311.625
1028.80796	33077.625
1032.51465	33392.05357
1036.21877	33854.19643
1039.92035	33966.76786
1043.61937	33822.91071
1047.31584	33528.33929
1051.00976	33094.05357
1054.70114	32815.91071
1058.38998	32665.05357
1062.07627	32622.91071
1065.76003	32747.91071
1069.44126	32892.76786
1073.11995	33204.05357
1076.79611	33598.33929
1080.46974	33915.05357
1084.14085	34293.91071
1087.80943	34629.625
1091.47549	34793.19643
1095.13903	34618.19643
1098.80005	34102.48214
1102.45857	33658.91071
1106.11456	33454.05357
1109.76805	33508.91071
1113.41903	33768.76786
1117.06751	34126.19643
1120.71348	34705.05357
1124.35696	35203.19643
1127.99793	35687.625
1131.63641	35757.33929
1135.2724	35306.05357
1138.90589	34767.625
1142.5369	34477.625
1146.16542	34292.48214
1149.79145	34181.76786
1153.415	34193.19643
1157.03607	34326.76786
1160.65467	34786.48214
1164.27079	35720.19643
1167.88443	37129.48214
1171.49561	39067.05357
1175.10432	41794.91071
1178.71056	45219.91071
1182.31434	48456.625
1185.91565	49829.33929
1189.51451	49201.48214
1193.11091	47401.91071
1196.70485	45390.19643
1200.29634	43614.05357
1203.88538	42008.625
1207.47197	40543.48214
1211.05612	39245.33929
1214.63782	38413.19643
1218.21708	38086.05357
1221.79391	38208.76786
1225.36829	38448.76786
1228.94024	38499.48214
1232.50976	38047.33929
1236.07685	37390.76786
1239.6415	36929.19643
1243.20374	36819.625
1246.76355	36973.91071
1250.32093	37303.76786
1253.8759	37799.91071
1257.42845	38594.19643
1260.97859	39448.19643
1264.52631	40295.33929
1268.07163	41310.33929
1271.61453	42233.625
1275.15503	43074.625
1278.69312	43725.76786
1282.22882	44421.33929
1285.76211	45278.76786
1289.29301	46446.48214
1292.82151	47878.19643
1296.34761	49687.19643
1299.87133	51954.91071
1303.39266	55025.05357
1306.9116	58800.625
1310.42815	62773.19643
1313.94233	65063.625
1317.45412	64237.625
1320.96354	61310.91071
1324.47058	57992.19643
1327.97525	54866.91071
1331.47754	52752.625
1334.97747	51512.76786
1338.47502	51121.48214
1341.97022	51331.48214
1345.46305	52039.05357
1348.95352	53539.05357
1352.44163	55899.19643
1355.92738	59232.48214
1359.41078	63859.05357
1362.89183	67798.91071
1366.37053	66678.91071
1369.84688	59891.76786
1373.32088	52290.48214
1376.79254	47454.05357
1380.26186	45295.625
1383.72883	44477.19643
1387.19347	43899.33929
1390.65578	42852.48214
1394.11575	42246.48214
1397.57339	42217.33929
1401.0287	42453.76786
1404.48168	42523.48214
1407.93234	42434.91071
1411.38068	42235.625
1414.82669	41953.76786
1418.27039	41511.05357
1421.71177	40984.05357
1425.15083	40215.19643
1428.58758	39813.48214
1432.02203	40040.33929
1435.45416	40735.19643
1438.88399	41340.625
1442.31151	41550.19643
1445.73673	41626.625
1449.15965	41535.19643
1452.58027	41395.33929
1455.9986	41014.33929
1459.41463	40947.19643
1462.82837	41273.48214
1466.23982	41997.33929
1469.64898	42879.76786
1473.05586	43552.05357
1476.46045	44012.33929
1479.86276	44272.91071
1483.26279	44423.19643
1486.66054	44771.91071
1490.05602	45395.05357
1493.44922	46368.05357
1496.84016	47675.91071
1500.22882	49634.48214
1503.61521	52354.05357
1506.99934	55383.48214
1510.38121	57877.625
1513.76081	58040.48214
1517.13816	55545.91071
1520.51324	51575.05357
1523.88607	48209.91071
1527.25665	46229.625
1530.62498	45343.91071
1533.99105	44838.76786
1537.35488	44515.91071
1540.71647	43947.48214
1544.07581	43327.05357
1547.4329	42641.91071
1550.78776	42066.19643
1554.14038	41571.76786
1557.49077	41394.33929
1560.83892	41466.33929
1564.18484	41811.625
1567.52853	42340.76786
1570.86999	42898.19643
1574.20922	43407.48214
1577.54624	43538.91071
1580.88103	42767.625
1584.2136	41830.625
1587.54395	41750.76786
1590.87208	42752.33929
1594.19801	44996.33929
1597.52172	47709.05357
1600.84321	49270.91071
1604.16251	48532.05357
1607.47959	46028.19643
1610.79447	42951.76786
1614.10715	39957.33929
1617.41763	37655.33929
1620.7259	36180.19643
1624.03199	35374.33929
1627.33587	35324.05357
1630.63757	35997.48214
1633.93707	37477.33929
1637.23439	40001.76786
1640.52951	43992.05357
1643.82246	49147.76786
1647.11321	53855.33929
1650.40179	55399.33929
1653.68819	52292.625
1656.97241	45998.05357
1660.25446	40154.19643
1663.53433	36162.48214
1666.81203	33753.33929
1670.08756	32400.625
1673.36092	31508.91071
1676.63211	30898.76786
1679.90115	30476.91071
1683.16801	30078.76786
1686.43272	29844.48214
1689.69527	29653.91071
1692.95567	29501.91071
1696.2139	29355.76786
1699.46999	29309.91071
1702.72392	29238.05357
1705.97571	29218.625
1709.22535	29191.48214
1712.47284	29182.76786
1715.71819	29215.76786
1718.96139	29083.05357
1722.20246	29026.05357
1725.44139	28951.76786
1728.67818	28791.05357
1731.91284	28706.48214
1735.14537	28608.33929
1738.37576	28542.625
1741.60403	28365.05357
1744.83017	28281.05357
1748.05418	28290.91071
1751.27607	28246.05357
1754.49584	28210.19643
1757.71349	28140.625
1760.92903	28174.19643
1764.14244	28146.33929
1767.35375	28030.91071
1770.56294	28015.33929
1773.77002	27993.625
1776.97499	27922.33929
1780.17785	27910.76786
1783.37861	27845.625
1786.57727	27815.625
1789.77382	27706.33929
1792.96828	27688.625
1796.16064	27640.19643
1799.3509	27598.33929
1802.53907	27505.91071
1805.72514	27464.19643
1808.90913	27450.05357
1812.09102	27386.91071
1815.27083	27300.19643
1818.44856	27326.19643
1821.6242	27310.48214
1824.79776	27288.625
1827.96924	27241.625
1831.13864	27168.48214
1834.30597	27185.19643
1837.47122	27147.05357
1840.6344	27183.05357
1843.7955	27145.19643
1846.95454	27097.05357
1850.11151	27059.91071
1853.26642	27025.625
1856.41926	27023.625
1859.57004	27051.625
1862.71876	27016.91071
1865.86542	26984.19643
1869.01003	26959.05357
1872.15258	26957.625
1875.29308	26965.05357
1878.43152	26958.91071
1881.56792	26926.05357
1884.70227	26880.76786
1887.83457	26905.19643
1890.96482	26801.48214
1894.09304	26759.33929
1897.21921	26741.76786
1900.34335	26770.19643
1903.46544	26774.05357
1906.58551	26753.91071
1909.70353	26735.76786
1912.81953	26620.625
1915.93349	26599.05357
1919.04543	26559.91071
1922.15534	26560.76786
1925.26322	26476.19643
1928.36908	26452.48214
1931.47292	26423.76786
1934.57473	26337.19643
1937.67453	26334.05357
1940.77232	26257.05357
1943.86808	26174.19643
1946.96184	26116.625
1950.05358	26044.48214
1953.14331	26001.33929
1956.23103	25924.05357
1959.31675	25839.91071
1962.40046	25871.48214
1965.48217	25703.05357
1968.56188	25658.33929
1971.63959	25634.48214
1974.7153	25615.76786
1977.78901	25504.91071
1980.86073	25391.48214
1983.93046	25281.76786
1986.99819	25234.48214
1990.06394	25193.76786
1993.1277	25123.33929
1996.18947	25046.625
1999.24925	24950.48214
2002.30706	24861.625
2005.36288	24786.33929
2008.41672	24727.33929
2011.46859	24678.76786
2014.51848	24534.05357
2017.56639	24554.625
2020.61233	24465.625
2023.6563	24400.48214
2026.6983	24403.05357
2029.73833	24331.33929
2032.7764	24253.05357
2035.8125	24208.76786
2038.84664	24186.48214
2041.87881	24187.05357
2044.90903	24089.33929
2047.93729	24035.91071
2050.96359	24081.76786
2053.98794	24053.05357
2057.01034	24024.05357
2060.03078	24022.625
2063.04927	24000.625
2066.06582	23992.05357
2069.08042	24011.19643
2072.09307	23910.48214
2075.10378	23929.33929
2078.11255	23938.76786
2081.11938	23903.05357
2084.12426	23900.05357
2087.12722	23895.91071
2090.12824	23916.91071
2093.12732	23909.76786
2096.12447	23930.91071
2099.11969	23903.05357
2102.11299	23942.91071
2105.10435	23946.19643
2108.09379	23943.05357
2111.08131	23976.91071
2114.0669	24012.76786
2117.05057	24018.76786
2120.03233	24041.625
2123.01216	24078.625
2125.99008	24137.33929
2128.96609	24074.48214
2131.94018	24149.19643
2134.91236	24164.05357
2137.88263	24203.19643
2140.851	24206.05357
2143.81746	24182.91071
2146.78201	24165.91071
2149.74466	24210.05357
2152.7054	24215.91071
2155.66425	24194.91071
2158.6212	24200.91071
2161.57625	24152.33929
2164.52941	24153.05357
2167.48067	24163.76786
2170.43004	24159.625
2173.37752	24196.625
2176.32311	24205.05357
2179.26681	24182.48214
2182.20863	24190.19643
2185.14856	24223.19643
2188.08661	24145.19643
2191.02278	24137.33929
2193.95707	24191.91071
2196.88948	24136.19643
2199.82001	24151.19643
2202.74867	24134.19643
2205.67545	24126.48214
2208.60037	24135.625
2211.52341	24024.33929
2214.44458	24026.91071
2217.36388	23993.05357
2220.28132	24000.48214
2223.1969	23894.625
2226.11061	23912.05357
2229.02246	23847.33929
2231.93245	23769.05357
2234.84058	23712.625
2237.74686	23727.76786
2240.65128	23711.76786
2243.55385	23718.91071
2246.45456	23686.19643
2249.35343	23597.05357
2252.25044	23633.625
2255.14561	23588.76786
2258.03893	23566.91071
2260.93041	23545.625
2263.82004	23484.05357
2266.70783	23462.05357
2269.59378	23392.91071
2272.4779	23369.19643
2275.36017	23280.76786
2278.24061	23238.33929
2281.11922	23183.05357
2283.996	23157.91071
2286.87094	23154.91071
2289.74405	23109.625
2292.61534	23108.625
2295.4848	23056.48214
2298.35243	23105.48214
2301.21824	23102.19643
2304.08223	23110.19643
2306.94439	23087.05357
2309.80474	23025.05357
2312.66327	23075.19643
2315.51999	23060.76786
2318.37489	23047.05357
2321.22797	23009.91071
2324.07925	22952.91071
2326.92871	22914.33929
2329.77637	22881.91071
2332.62222	22838.19643
2335.46626	22870.76786
2338.3085	22865.48214
2341.14893	22838.05357
2343.98756	22841.91071
2346.8244	22848.05357
2349.65943	22834.625
2352.49267	22764.76786
2355.32411	22784.76786
2358.15376	22806.76786
2360.98161	22741.33929
2363.80768	22780.91071
2366.63195	22721.91071
2369.45444	22675.76786
2372.27514	22660.19643
2375.09405	22631.625
2377.91118	22583.05357
2380.72652	22567.33929
2383.54009	22480.33929
2386.35187	22467.19643
2389.16188	22402.05357
2391.97011	22363.91071
2394.77657	22329.05357
2397.58125	22314.33929
2400.38416	22339.76786
2403.18529	22302.05357
2405.98466	22220.19643
2408.78226	22166.05357
2411.57809	22173.91071
2414.37216	22160.05357
2417.16446	22147.05357
2419.955	22093.05357
2422.74378	22085.76786
2425.5308	22075.05357
2428.31606	22056.33929
2431.09956	22046.05357
2433.88131	22058.91071
2436.6613	22014.33929
2439.43954	22005.33929
2442.21603	22028.33929
2444.99077	22046.05357
2447.76377	22064.48214
2450.53501	21992.76786
2453.30451	21973.48214
2456.07226	21957.33929
2458.83827	21942.76786
2461.60254	21940.625
2464.36507	21923.33929
2467.12586	21886.91071
2469.88492	21878.625
2472.64224	21875.33929
2475.39782	21838.76786
2478.15167	21883.19643
2480.90379	21919.625
2483.65417	21924.48214
2486.40283	21902.625
2489.14976	21900.76786
2491.89497	21956.91071
2494.63845	21927.19643
2497.3802	21909.33929
2500.12024	21915.625
2502.85855	21850.91071
2505.59514	21813.33929
2508.33002	21786.48214
2511.06318	21746.91071
2513.79462	21742.33929
2516.52435	21728.76786
2519.25237	21681.91071
2521.97867	21660.76786
2524.70327	21623.76786
2527.42616	21621.33929
2530.14734	21621.91071
2532.86681	21601.76786
2535.58458	21603.76786
2538.30065	21551.19643
2541.01501	21560.05357
2543.72768	21511.76786
2546.43864	21513.48214
2549.14791	21472.19643
2551.85548	21489.91071
2554.56136	21420.33929
2557.26554	21391.625
2559.96803	21417.625
2562.66883	21361.625
2565.36794	21286.76786
2568.06536	21286.33929
2570.7611	21248.76786
2573.45514	21251.33929
2576.14751	21209.91071
2578.83819	21164.05357
2581.52719	21148.19643
2584.21451	21152.33929
2586.90015	21165.48214
2589.58411	21106.19643
2592.2664	21013.48214
2594.94701	21055.33929
2597.62594	21020.76786
2600.30321	20971.33929
2602.9788	20940.76786
2605.65273	20906.625
2608.32498	20955.625
2610.99557	20958.48214
2613.66449	20941.33929
2616.33175	20890.48214
2618.99734	20933.625
2621.66128	20895.91071
2624.32355	20827.76786
2626.98416	20817.76786
2629.64311	20819.48214
2632.30041	20765.05357
2634.95605	20717.91071
2637.61004	20650.91071
2640.26238	20669.625
2642.91306	20705.48214
2645.56209	20660.625
2648.20948	20694.19643
2650.85521	20629.76786
2653.4993	20657.76786
2656.14175	20690.76786
2658.78255	20692.76786
2661.42171	20723.05357
2664.05923	20707.625
2666.6951	20700.625
2669.32934	20710.625
2671.96194	20720.19643
2674.59291	20695.19643
2677.22224	20708.05357
2679.84993	20732.48214
2682.476	20677.48214
2685.10043	20673.05357
2687.72324	20661.76786
2690.34441	20637.91071
2692.96396	20638.48214
2695.58188	20683.48214
2698.19818	20628.76786
2700.81285	20637.05357
2703.4259	20636.19643
2706.03733	20635.33929
2708.64714	20677.76786
2711.25533	20682.625
2713.86191	20704.19643
2716.46687	20688.48214
2719.07021	20713.05357
2721.67194	20756.91071
2724.27206	20673.19643
2726.87057	20694.76786
2729.46747	20672.48214
2732.06276	20705.76786
2734.65644	20696.48214
2737.24852	20694.19643
2739.83899	20655.76786
2742.42786	20710.33929
2745.01513	20632.76786
2747.60079	20583.625
2750.18486	20548.91071
2752.76733	20567.91071
2755.3482	20545.91071
2757.92747	20547.48214
2760.50515	20543.19643
2763.08123	20529.48214
2765.65573	20442.33929
2768.22863	20465.625
2770.79994	20434.76786
2773.36967	20454.625
2775.9378	20462.76786
2778.50435	20413.05357
2781.06932	20377.625
2783.6327	20404.76786
2786.1945	20358.05357
2788.75471	20326.91071
2791.31335	20272.76786
2793.87041	20302.33929
2796.42589	20267.33929
2798.97979	20255.625
2801.53212	20180.48214
2804.08288	20159.05357
2806.63206	20095.05357
2809.17967	20073.91071
2811.72571	20042.625
2814.27018	20038.19643
2816.81308	19979.48214
2819.35442	19961.33929
2821.89419	19908.33929
2824.43239	19877.19643
2826.96904	19908.76786
2829.50412	19900.19643
2832.03763	19867.76786
2834.56959	19884.33929
2837.1	19843.05357
2839.62884	19833.76786
2842.15613	19824.625
2844.68186	19815.91071
2847.20604	19829.625
2849.72867	19822.91071
2852.24974	19761.19643
2854.76927	19771.19643
2857.28724	19767.625
2859.80367	19709.91071
2862.31855	19654.33929
2864.83189	19641.33929
2867.34368	19626.48214
2869.85393	19662.91071
2872.36264	19655.76786
2874.8698	19610.05357
2877.37543	19637.05357
2879.87952	19648.05357
2882.38207	19585.33929
2884.88308	19587.48214
2887.38256	19594.19643
2889.88051	19612.625
2892.37692	19615.48214
2894.8718	19645.625
2897.36515	19648.76786
2899.85698	19633.19643
2902.34727	19732.33929
2904.83604	19682.48214
2907.32328	19710.48214
2909.809	19697.05357
2912.29319	19762.48214
2914.77587	19765.48214
2917.25702	19773.33929
2919.73665	19749.91071
2922.21476	19721.625
2924.69136	19724.91071
2927.16644	19724.76786
2929.64	19685.625
2932.11205	19657.48214
2934.58258	19595.625
2937.05161	19643.91071
2939.51912	19640.91071
2941.98513	19631.48214
2944.44962	19551.76786
2946.91261	19555.91071
2949.37409	19588.76786
