Data from AgNPs_FTO_APTES_UA_20uM_CRN_500uM_R6G_10uM_NaF_0.1M_Addition_RamanShift__12__18-46-04-970.txt Node

Date: Thu Feb 17 18:46:04 GMT 2022
User: TCL
Spectrometer: QEP01345
Trigger mode: 4
Integration Time (sec): 1.000000E1
Scans to average: 7
Electric dark correction enabled: true
Nonlinearity correction enabled: false
Boxcar width: 0
XAxis mode: Raman Shifts
Number of Pixels in Spectrum: 1044
>>>>>Begin Spectral Data<<<<<
46.04893	-0.375
50.45542	-1.08929
54.85868	0.48214
59.25871	-1.66071
63.6555	69.19643
68.04907	60.19643
72.43941	65.33929
76.82654	73.76786
81.21044	76.91071
85.59113	78.625
89.96862	82.05357
94.34289	82.33929
98.71396	86.19643
103.08183	91.19643
107.4465	92.19643
111.80798	91.625
116.16626	92.76786
120.52136	93.33929
124.87327	100.33929
129.222	101.48214
133.56755	102.91071
137.90993	112.91071
142.24913	123.91071
146.58517	136.19643
150.91804	158.91071
155.24774	173.76786
159.57429	216.48214
163.89768	263.05357
168.21792	351.33929
172.53501	472.19643
176.84895	663.05357
181.15975	948.76786
185.46741	1329.91071
189.77193	1840.19643
194.07331	2490.05357
198.37157	3227.48214
202.6667	4016.91071
206.9587	4805.91071
211.24758	5573.76786
215.53334	6338.19643
219.81599	7123.48214
224.09553	7964.625
228.37195	8873.48214
232.64527	9921.05357
236.91549	11017.48214
241.18261	12147.05357
245.44663	13270.76786
249.70755	14302.19643
253.96539	15204.91071
258.22014	15946.48214
262.4718	16487.91071
266.72039	16849.91071
270.96589	17024.625
275.20832	17024.91071
279.44768	16862.76786
283.68397	16662.91071
287.91719	16403.19643
292.14735	16206.05357
296.37445	16088.48214
300.59849	15986.91071
304.81948	15991.05357
309.03742	15991.76786
313.25231	15927.91071
317.46415	15854.76786
321.67296	15711.91071
325.87872	15585.625
330.08145	15568.19643
334.28114	15551.76786
338.47781	15758.48214
342.67145	15891.05357
346.86207	16151.91071
351.04966	16342.33929
355.23424	16636.33929
359.4158	16889.91071
363.59435	17102.48214
367.76989	17238.19643
371.94243	17435.33929
376.11196	17565.19643
380.27849	17632.625
384.44203	17802.19643
388.60257	17922.48214
392.76012	18058.91071
396.91468	18231.625
401.06626	18449.48214
405.21485	18571.91071
409.36047	18648.19643
413.50311	18565.91071
417.64277	18470.91071
421.77947	18389.48214
425.9132	18457.05357
430.04396	18585.91071
434.17176	18682.76786
438.2966	18823.05357
442.41849	19047.48214
446.53742	19203.91071
450.6534	19481.48214
454.76644	19632.76786
458.87653	19761.91071
462.98368	19861.33929
467.08789	19829.48214
471.18916	19789.91071
475.2875	19708.48214
479.38291	19618.05357
483.4754	19540.76786
487.56496	19478.33929
491.6516	19473.76786
495.73531	19471.19643
499.81612	19478.48214
503.89401	19505.625
507.96899	19636.19643
512.04106	19708.76786
516.11023	19729.76786
520.1765	19767.33929
524.23987	19805.76786
528.30034	19754.625
532.35792	19784.48214
536.41261	19739.05357
540.46441	19700.48214
544.51333	19722.33929
548.55936	19785.76786
552.60252	19909.76786
556.64279	20040.91071
560.6802	20139.625
564.71473	20192.48214
568.7464	20214.05357
572.7752	20313.625
576.80114	20365.33929
580.82422	20486.91071
584.84444	20608.19643
588.86181	20680.48214
592.87633	20841.33929
596.888	20987.76786
600.89682	21189.625
604.9028	21629.91071
608.90594	22657.76786
612.90624	23909.91071
616.90371	23424.76786
620.89834	21607.33929
624.89015	20633.91071
628.87913	20487.48214
632.86528	20572.05357
636.84862	20705.05357
640.82913	20683.48214
644.80683	20515.33929
648.78172	20417.19643
652.75379	20436.05357
656.72306	20556.48214
660.68952	20781.19643
664.65319	20805.91071
668.61405	20717.76786
672.57211	20751.05357
676.52738	20898.625
680.47986	21002.76786
684.42955	20998.19643
688.37646	20981.625
692.32058	20955.19643
696.26192	21077.91071
700.20048	21149.05357
704.13626	21241.19643
708.06928	21144.19643
711.99952	21089.33929
715.927	21017.91071
719.85171	20969.33929
723.77365	20949.19643
727.69284	21003.48214
731.60928	20923.76786
735.52295	20862.48214
739.43388	20855.48214
743.34206	20869.76786
747.24749	20936.76786
751.15017	20972.625
755.05012	21100.33929
758.94733	21264.33929
762.8418	21689.19643
766.73354	22392.76786
770.62254	23150.76786
774.50882	23529.76786
778.39237	23191.48214
782.27321	22534.625
786.15132	21821.33929
790.02671	21345.19643
793.89938	21050.33929
797.76935	20986.76786
801.6366	20877.76786
805.50115	20829.05357
809.36299	20750.625
813.22213	20774.33929
817.07857	20771.48214
820.93231	20779.625
824.78336	20802.625
828.63172	20795.91071
832.47738	20804.91071
836.32036	20820.33929
840.16066	20821.91071
843.99827	20847.91071
847.8332	20848.91071
851.66546	20872.91071
855.49504	20925.19643
859.32195	20922.76786
863.1462	20944.33929
866.96777	20954.19643
870.78668	20975.625
874.60293	21026.05357
878.41652	21098.48214
882.22745	21104.33929
886.03573	21117.33929
889.84136	21110.05357
893.64433	21108.76786
897.44466	21078.625
901.24235	21106.48214
905.0374	21094.05357
908.8298	21066.76786
912.61957	21028.19643
916.40671	21034.19643
920.19121	21072.19643
923.97308	21107.19643
927.75233	21108.05357
931.52895	21086.91071
935.30295	21012.76786
939.07433	20887.91071
942.84309	20820.91071
946.60924	20757.48214
950.37278	20670.48214
954.13371	20617.48214
957.89203	20623.19643
961.64774	20624.05357
965.40086	20593.48214
969.15137	20554.48214
972.89929	20530.48214
976.64461	20514.33929
980.38733	20515.91071
984.12747	20576.05357
987.86502	20579.76786
991.59999	20655.48214
995.33237	20740.19643
999.06217	20778.625
1002.78939	20870.48214
1006.51404	20987.05357
1010.23611	21178.33929
1013.95561	21309.19643
1017.67255	21336.625
1021.38692	21319.625
1025.09872	21263.91071
1028.80796	21083.48214
1032.51465	21051.625
1036.21877	21032.91071
1039.92035	21065.33929
1043.61937	21154.19643
1047.31584	21191.91071
1051.00976	21233.625
1054.70114	21337.76786
1058.38998	21340.33929
1062.07627	21370.76786
1065.76003	21487.625
1069.44126	21540.76786
1073.11995	21703.48214
1076.79611	21851.48214
1080.46974	21892.91071
1084.14085	21953.76786
1087.80943	21991.19643
1091.47549	21987.48214
1095.13903	21998.05357
1098.80005	21904.76786
1102.45857	21819.48214
1106.11456	21746.05357
1109.76805	21657.05357
1113.41903	21627.05357
1117.06751	21669.76786
1120.71348	21806.19643
1124.35696	21905.19643
1127.99793	22002.19643
1131.63641	22107.19643
1135.2724	22008.91071
1138.90589	21936.19643
1142.5369	21856.19643
1146.16542	21805.19643
1149.79145	21756.48214
1153.415	21726.91071
1157.03607	21735.05357
1160.65467	21846.625
1164.27079	22038.33929
1167.88443	22303.19643
1171.49561	22756.19643
1175.10432	23303.48214
1178.71056	24010.19643
1182.31434	24750.33929
1185.91565	25225.19643
1189.51451	25404.05357
1193.11091	25351.91071
1196.70485	25111.91071
1200.29634	24792.19643
1203.88538	24386.33929
1207.47197	23911.625
1211.05612	23414.19643
1214.63782	23107.76786
1218.21708	22883.05357
1221.79391	22735.91071
1225.36829	22659.91071
1228.94024	22668.91071
1232.50976	22649.33929
1236.07685	22584.48214
1239.6415	22707.05357
1243.20374	22672.05357
1246.76355	22690.33929
1250.32093	22804.48214
1253.8759	22897.48214
1257.42845	23110.48214
1260.97859	23346.91071
1264.52631	23552.91071
1268.07163	23686.625
1271.61453	23879.91071
1275.15503	24011.05357
1278.69312	24120.48214
1282.22882	24207.91071
1285.76211	24292.48214
1289.29301	24463.91071
1292.82151	24678.48214
1296.34761	24920.33929
1299.87133	25321.19643
1303.39266	25758.05357
1306.9116	26345.625
1310.42815	26955.33929
1313.94233	27350.48214
1317.45412	27215.48214
1320.96354	26980.76786
1324.47058	26583.19643
1327.97525	26230.48214
1331.47754	25998.48214
1334.97747	25991.625
1338.47502	26163.05357
1341.97022	26517.76786
1345.46305	26983.48214
1348.95352	27536.33929
1352.44163	28080.05357
1355.92738	28508.76786
1359.41078	29048.76786
1362.89183	29467.76786
1366.37053	29161.91071
1369.84688	27778.48214
1373.32088	26176.05357
1376.79254	24969.48214
1380.26186	24261.48214
1383.72883	23815.33929
1387.19347	23594.05357
1390.65578	23290.48214
1394.11575	22969.91071
1397.57339	22749.19643
1401.0287	22651.33929
1404.48168	22621.76786
1407.93234	22599.91071
1411.38068	22597.19643
1414.82669	22590.33929
1418.27039	22475.05357
1421.71177	22332.625
1425.15083	22147.625
1428.58758	21993.48214
1432.02203	21922.48214
1435.45416	21943.05357
1438.88399	21974.76786
1442.31151	22030.625
1445.73673	22072.76786
1449.15965	22142.33929
1452.58027	22172.625
1455.9986	22228.05357
1459.41463	22237.48214
1462.82837	22354.91071
1466.23982	22623.625
1469.64898	22842.91071
1473.05586	23108.33929
1476.46045	23247.91071
1479.86276	23404.33929
1483.26279	23507.48214
1486.66054	23580.625
1490.05602	23777.19643
1493.44922	24108.19643
1496.84016	24512.625
1500.22882	25184.625
1503.61521	26010.48214
1506.99934	26813.91071
1510.38121	27286.625
1513.76081	27209.91071
1517.13816	26540.05357
1520.51324	25714.05357
1523.88607	24929.19643
1527.25665	24463.91071
1530.62498	24213.19643
1533.99105	24040.91071
1537.35488	23973.05357
1540.71647	23886.19643
1544.07581	23736.91071
1547.4329	23621.625
1550.78776	23484.48214
1554.14038	23376.19643
1557.49077	23339.33929
1560.83892	23282.91071
1564.18484	23360.19643
1567.52853	23453.91071
1570.86999	23590.19643
1574.20922	23727.91071
1577.54624	23722.33929
1580.88103	23478.48214
1584.2136	23140.48214
1587.54395	22968.48214
1590.87208	22980.76786
1594.19801	23283.76786
1597.52172	23754.33929
1600.84321	24008.76786
1604.16251	23932.91071
1607.47959	23679.33929
1610.79447	23264.05357
1614.10715	22729.76786
1617.41763	22171.48214
1620.7259	21750.33929
1624.03199	21355.05357
1627.33587	21189.48214
1630.63757	21152.625
1633.93707	21335.33929
1637.23439	21751.33929
1640.52951	22353.48214
1643.82246	23206.19643
1647.11321	24092.91071
1650.40179	24595.48214
1653.68819	24377.76786
1656.97241	23441.33929
1660.25446	22280.19643
1663.53433	21320.91071
1666.81203	20619.33929
1670.08756	20223.76786
1673.36092	19940.625
1676.63211	19739.33929
1679.90115	19582.76786
1683.16801	19442.33929
1686.43272	19357.05357
1689.69527	19234.48214
1692.95567	19199.48214
1696.2139	19120.48214
1699.46999	19117.05357
1702.72392	19065.48214
1705.97571	19092.76786
1709.22535	19077.33929
1712.47284	19052.48214
1715.71819	19041.33929
1718.96139	18983.33929
1722.20246	18944.76786
1725.44139	18890.33929
1728.67818	18890.05357
1731.91284	18797.33929
1735.14537	18771.19643
1738.37576	18760.91071
1741.60403	18639.33929
1744.83017	18579.48214
1748.05418	18592.48214
1751.27607	18552.625
1754.49584	18514.05357
1757.71349	18502.33929
1760.92903	18556.19643
1764.14244	18532.91071
1767.35375	18499.19643
1770.56294	18451.48214
1773.77002	18360.76786
1776.97499	18348.76786
1780.17785	18346.76786
1783.37861	18306.05357
1786.57727	18235.76786
1789.77382	18155.33929
1792.96828	18147.76786
1796.16064	18106.76786
1799.3509	18022.48214
1802.53907	18045.91071
1805.72514	18046.625
1808.90913	17963.05357
1812.09102	17940.91071
1815.27083	17889.05357
1818.44856	17849.76786
1821.6242	17838.625
1824.79776	17846.91071
1827.96924	17788.625
1831.13864	17758.19643
1834.30597	17780.05357
1837.47122	17702.05357
1840.6344	17752.76786
1843.7955	17742.33929
1846.95454	17679.76786
1850.11151	17655.76786
1853.26642	17660.76786
1856.41926	17635.33929
1859.57004	17621.625
1862.71876	17606.33929
1865.86542	17621.48214
1869.01003	17579.91071
1872.15258	17580.91071
1875.29308	17536.91071
1878.43152	17524.91071
1881.56792	17479.19643
1884.70227	17453.33929
1887.83457	17438.48214
1890.96482	17421.91071
1894.09304	17375.625
1897.21921	17373.33929
1900.34335	17356.76786
1903.46544	17337.91071
1906.58551	17319.625
1909.70353	17275.76786
1912.81953	17237.05357
1915.93349	17254.91071
1919.04543	17214.76786
1922.15534	17147.48214
1925.26322	17133.33929
1928.36908	17098.33929
1931.47292	17116.625
1934.57473	17053.91071
1937.67453	17034.05357
1940.77232	16991.76786
1943.86808	16935.19643
1946.96184	16899.33929
1950.05358	16843.625
1953.14331	16788.05357
1956.23103	16760.05357
1959.31675	16721.19643
1962.40046	16643.33929
1965.48217	16613.05357
1968.56188	16574.76786
1971.63959	16493.05357
1974.7153	16443.19643
1977.78901	16428.19643
1980.86073	16340.76786
1983.93046	16321.33929
1986.99819	16289.05357
1990.06394	16221.48214
1993.1277	16179.91071
1996.18947	16117.19643
1999.24925	16101.91071
2002.30706	15991.33929
2005.36288	15954.48214
2008.41672	15886.625
2011.46859	15878.48214
2014.51848	15805.19643
2017.56639	15779.91071
2020.61233	15739.19643
2023.6563	15678.625
2026.6983	15646.91071
2029.73833	15577.625
2032.7764	15588.48214
2035.8125	15506.91071
2038.84664	15457.19643
2041.87881	15441.625
2044.90903	15401.33929
2047.93729	15365.91071
2050.96359	15387.33929
2053.98794	15376.05357
2057.01034	15360.76786
2060.03078	15342.48214
2063.04927	15307.19643
2066.06582	15311.19643
2069.08042	15301.33929
2072.09307	15264.76786
2075.10378	15265.91071
2078.11255	15255.91071
2081.11938	15261.33929
2084.12426	15226.19643
2087.12722	15205.76786
2090.12824	15256.05357
2093.12732	15231.91071
2096.12447	15248.625
2099.11969	15236.19643
2102.11299	15219.05357
2105.10435	15229.625
2108.09379	15220.33929
2111.08131	15218.76786
2114.0669	15240.05357
2117.05057	15237.05357
2120.03233	15269.625
2123.01216	15303.48214
2125.99008	15319.91071
2128.96609	15338.91071
2131.94018	15345.05357
2134.91236	15345.33929
2137.88263	15313.625
2140.851	15336.76786
2143.81746	15338.05357
2146.78201	15345.33929
2149.74466	15356.19643
2152.7054	15375.48214
2155.66425	15331.19643
2158.6212	15323.48214
2161.57625	15318.19643
2164.52941	15291.76786
2167.48067	15259.91071
2170.43004	15273.76786
2173.37752	15301.19643
2176.32311	15292.76786
2179.26681	15279.625
2182.20863	15259.48214
2185.14856	15291.76786
2188.08661	15252.91071
2191.02278	15241.48214
2193.95707	15256.91071
2196.88948	15221.33929
2199.82001	15177.05357
2202.74867	15178.91071
2205.67545	15154.05357
2208.60037	15155.91071
2211.52341	15120.33929
2214.44458	15093.48214
2217.36388	15053.33929
2220.28132	15047.19643
2223.1969	15000.05357
2226.11061	14956.33929
2229.02246	14939.91071
2231.93245	14887.19643
2234.84058	14841.19643
2237.74686	14807.76786
2240.65128	14833.05357
2243.55385	14836.625
2246.45456	14817.05357
2249.35343	14805.91071
2252.25044	14768.76786
2255.14561	14756.76786
2258.03893	14745.76786
2260.93041	14713.33929
2263.82004	14674.91071
2266.70783	14644.76786
2269.59378	14599.76786
2272.4779	14546.19643
2275.36017	14505.33929
2278.24061	14444.91071
2281.11922	14400.76786
2283.996	14430.625
2286.87094	14433.19643
2289.74405	14384.625
2292.61534	14334.91071
2295.4848	14336.19643
2298.35243	14352.91071
2301.21824	14329.625
2304.08223	14287.19643
2306.94439	14281.19643
2309.80474	14237.05357
2312.66327	14213.48214
2315.51999	14238.48214
2318.37489	14198.625
2321.22797	14174.48214
2324.07925	14185.19643
2326.92871	14148.05357
2329.77637	14095.33929
2332.62222	14064.91071
2335.46626	14069.48214
2338.3085	14022.19643
2341.14893	14005.33929
2343.98756	14001.625
2346.8244	13968.48214
2349.65943	13925.48214
2352.49267	13949.91071
2355.32411	13930.33929
2358.15376	13948.76786
2360.98161	13903.76786
2363.80768	13896.33929
2366.63195	13890.05357
2369.45444	13837.05357
2372.27514	13841.33929
2375.09405	13830.76786
2377.91118	13778.48214
2380.72652	13769.33929
2383.54009	13708.76786
2386.35187	13732.19643
2389.16188	13678.48214
2391.97011	13642.76786
2394.77657	13625.48214
2397.58125	13619.625
2400.38416	13564.33929
2403.18529	13573.19643
2405.98466	13529.05357
2408.78226	13514.91071
2411.57809	13482.625
2414.37216	13495.625
2417.16446	13461.48214
2419.955	13454.19643
2422.74378	13419.625
2425.5308	13415.05357
2428.31606	13411.48214
2431.09956	13357.33929
2433.88131	13364.19643
2436.6613	13331.48214
2439.43954	13353.625
2442.21603	13313.625
2444.99077	13296.76786
2447.76377	13277.91071
2450.53501	13257.19643
2453.30451	13244.48214
2456.07226	13213.05357
2458.83827	13199.76786
2461.60254	13222.48214
2464.36507	13187.05357
2467.12586	13165.76786
2469.88492	13108.76786
2472.64224	13091.05357
2475.39782	13103.48214
2478.15167	13113.19643
2480.90379	13114.05357
2483.65417	13106.76786
2486.40283	13086.33929
2489.14976	13094.91071
2491.89497	13072.33929
2494.63845	13103.05357
2497.3802	13070.05357
2500.12024	13045.625
2502.85855	13012.05357
2505.59514	12987.625
2508.33002	12952.76786
2511.06318	12919.625
2513.79462	12916.76786
2516.52435	12937.33929
2519.25237	12897.19643
2521.97867	12879.05357
2524.70327	12880.33929
2527.42616	12824.91071
2530.14734	12849.91071
2532.86681	12798.91071
2535.58458	12800.625
2538.30065	12773.33929
2541.01501	12742.19643
2543.72768	12716.19643
2546.43864	12690.48214
2549.14791	12688.19643
2551.85548	12667.05357
2554.56136	12632.48214
2557.26554	12597.625
2559.96803	12585.33929
2562.66883	12536.48214
2565.36794	12549.625
2568.06536	12495.76786
2570.7611	12483.91071
2573.45514	12432.33929
2576.14751	12392.48214
2578.83819	12368.33929
2581.52719	12358.05357
2584.21451	12358.91071
2586.90015	12309.05357
2589.58411	12315.48214
2592.2664	12297.05357
2594.94701	12258.91071
2597.62594	12219.91071
2600.30321	12166.625
2602.9788	12155.76786
2605.65273	12113.625
2608.32498	12138.48214
2610.99557	12125.48214
2613.66449	12114.625
2616.33175	12086.76786
2618.99734	12080.48214
2621.66128	12026.76786
2624.32355	12010.48214
2626.98416	12017.48214
2629.64311	11941.33929
2632.30041	11960.48214
2634.95605	11919.48214
2637.61004	11896.48214
2640.26238	11856.625
2642.91306	11901.33929
2645.56209	11878.19643
2648.20948	11886.19643
2650.85521	11863.91071
2653.4993	11885.33929
2656.14175	11838.05357
2658.78255	11854.19643
2661.42171	11872.05357
2664.05923	11874.76786
2666.6951	11803.33929
2669.32934	11832.76786
2671.96194	11827.48214
2674.59291	11824.05357
2677.22224	11803.76786
2679.84993	11820.33929
2682.476	11795.76786
2685.10043	11792.19643
2687.72324	11776.625
2690.34441	11782.76786
2692.96396	11763.625
2695.58188	11787.76786
2698.19818	11773.19643
2700.81285	11758.91071
2703.4259	11756.91071
2706.03733	11740.625
2708.64714	11760.625
2711.25533	11742.19643
2713.86191	11750.05357
2716.46687	11749.91071
2719.07021	11736.625
2721.67194	11740.625
2724.27206	11748.76786
2726.87057	11722.625
2729.46747	11709.76786
2732.06276	11728.625
2734.65644	11700.33929
2737.24852	11687.33929
2739.83899	11664.33929
2742.42786	11690.91071
2745.01513	11633.91071
2747.60079	11615.76786
2750.18486	11625.76786
2752.76733	11580.91071
2755.3482	11570.91071
2757.92747	11587.48214
2760.50515	11546.19643
2763.08123	11533.76786
2765.65573	11508.19643
2768.22863	11496.19643
2770.79994	11476.48214
2773.36967	11472.48214
2775.9378	11426.48214
2778.50435	11434.625
2781.06932	11425.05357
2783.6327	11383.05357
2786.1945	11365.33929
2788.75471	11359.625
2791.31335	11328.76786
2793.87041	11288.76786
2796.42589	11286.33929
2798.97979	11260.76786
2801.53212	11195.48214
2804.08288	11173.19643
2806.63206	11149.91071
2809.17967	11136.91071
2811.72571	11118.76786
2814.27018	11083.625
2816.81308	11035.76786
2819.35442	11024.19643
2821.89419	10998.05357
2824.43239	10990.19643
2826.96904	11001.05357
2829.50412	10967.33929
2832.03763	10955.19643
2834.56959	10956.05357
2837.1	10931.76786
2839.62884	10928.05357
2842.15613	10907.05357
2844.68186	10914.05357
2847.20604	10889.625
2849.72867	11013.33929
2852.24974	10913.48214
2854.76927	10853.05357
2857.28724	10831.76786
2859.80367	10813.19643
2862.31855	10777.48214
2864.83189	10741.91071
2867.34368	10764.48214
2869.85393	10758.05357
2872.36264	10738.48214
2874.8698	10725.91071
2877.37543	10697.76786
2879.87952	10708.76786
2882.38207	10686.625
2884.88308	10689.76786
2887.38256	10669.05357
2889.88051	10683.76786
2892.37692	10682.05357
2894.8718	10682.48214
2897.36515	10678.19643
2899.85698	10690.91071
2902.34727	10691.76786
2904.83604	10685.19643
2907.32328	10703.05357
2909.809	10693.48214
2912.29319	10736.19643
2914.77587	10713.48214
2917.25702	10713.76786
2919.73665	10698.05357
2922.21476	10700.05357
2924.69136	10677.625
2927.16644	10689.625
2929.64	10659.19643
2932.11205	10646.48214
2934.58258	10620.05357
2937.05161	10642.48214
2939.51912	10614.91071
2941.98513	10635.91071
2944.44962	10632.33929
2946.91261	10583.33929
2949.37409	10609.76786
