Data from AgNPs_FTO_APTES_UA_20uM_CRN_5uM_R6G_10uM_NaF_0.1M_Addition_RamanShift__10__13-43-32-144.txt Node

Date: Thu Feb 17 13:43:32 GMT 2022
User: TCL
Spectrometer: QEP01345
Trigger mode: 4
Integration Time (sec): 7.000000E0
Scans to average: 10
Electric dark correction enabled: true
Nonlinearity correction enabled: false
Boxcar width: 0
XAxis mode: Raman Shifts
Number of Pixels in Spectrum: 1044
>>>>>Begin Spectral Data<<<<<
46.04893	0.6125
50.45542	-0.4875
54.85868	-5.0875
59.25871	-1.1875
63.6555	131.7125
68.04907	135.9125
72.43941	139.3125
76.82654	144.6125
81.21044	148.5125
85.59113	152.2125
89.96862	157.4125
94.34289	160.8125
98.71396	167.9125
103.08183	168.1125
107.4465	180.3125
111.80798	180.6125
116.16626	187.8125
120.52136	197.3125
124.87327	204.4125
129.222	222.2125
133.56755	237.4125
137.90993	248.5125
142.24913	278.2125
146.58517	318.1125
150.91804	377.9125
155.24774	449.8125
159.57429	568.0125
163.89768	734.2125
168.21792	976.5125
172.53501	1347.0125
176.84895	1890.5125
181.15975	2685.9125
185.46741	3769.4125
189.77193	5223.5125
194.07331	7055.8125
198.37157	9119.3125
202.6667	11316.4125
206.9587	13498.5125
211.24758	15608.9125
215.53334	17685.5125
219.81599	19878.7125
224.09553	22264.6125
228.37195	24925.0125
232.64527	27810.3125
236.91549	30971.9125
241.18261	34172.4125
245.44663	37294.9125
249.70755	40194.2125
253.96539	42740.6125
258.22014	44883.6125
262.4718	46624.0125
266.72039	47818.2125
270.96589	48468.9125
275.20832	48652.7125
279.44768	48420.1125
283.68397	48162.6125
287.91719	47782.5125
292.14735	47553.3125
296.37445	47482.1125
300.59849	47472.8125
304.81948	47592.4125
309.03742	47581.1125
313.25231	47387.5125
317.46415	46940.5125
321.67296	46325.9125
325.87872	45891.3125
330.08145	45700.4125
334.28114	45815.9125
338.47781	46179.1125
342.67145	46621.5125
346.86207	47262.4125
351.04966	47930.0125
355.23424	48532.1125
359.4158	49094.9125
363.59435	49540.6125
367.76989	49924.3125
371.94243	50201.6125
376.11196	50486.1125
380.27849	50756.9125
384.44203	51131.3125
388.60257	51457.2125
392.76012	51965.9125
396.91468	52633.1125
401.06626	53301.4125
405.21485	53863.6125
409.36047	53908.7125
413.50311	53575.3125
417.64277	53391.4125
421.77947	53553.7125
425.9132	53789.1125
430.04396	54146.9125
434.17176	54510.1125
438.2966	54830.2125
442.41849	55402.1125
446.53742	56228.7125
450.6534	57280.7125
454.76644	58073.1125
458.87653	58546.9125
462.98368	58614.9125
467.08789	58507.0125
471.18916	58172.0125
475.2875	57858.5125
479.38291	57610.8125
483.4754	57456.7125
487.56496	57204.6125
491.6516	56884.0125
495.73531	56461.1125
499.81612	56063.7125
503.89401	56244.6125
507.96899	56522.7125
512.04106	56570.4125
516.11023	56523.6125
520.1765	56324.7125
524.23987	56162.4125
528.30034	55991.9125
532.35792	55705.4125
536.41261	55478.1125
540.46441	55268.9125
544.51333	55373.1125
548.55936	55726.9125
552.60252	56469.5125
556.64279	57302.6125
560.6802	57991.0125
564.71473	58476.5125
568.7464	59254.6125
572.7752	60550.9125
576.80114	62179.3125
580.82422	63692.4125
584.84444	64822.9125
588.86181	65837.4125
592.87633	66741.6125
596.888	66666.1125
600.89682	65451.9125
604.9028	65320.2125
608.90594	67173.5125
612.90624	68992.5125
616.90371	65986.3125
620.89834	60619.1125
624.89015	58349.5125
628.87913	58327.5125
632.86528	58899.6125
636.84862	58996.2125
640.82913	58500.2125
644.80683	57695.1125
648.78172	57049.7125
652.75379	56950.4125
656.72306	57334.9125
660.68952	57988.5125
664.65319	57921.3125
668.61405	57580.0125
672.57211	57588.5125
676.52738	57843.1125
680.47986	57886.4125
684.42955	57719.6125
688.37646	57579.9125
692.32058	57883.6125
696.26192	58304.9125
700.20048	58829.7125
704.13626	59334.1125
708.06928	59554.4125
711.99952	59471.0125
715.927	59415.7125
719.85171	59294.0125
723.77365	59166.5125
727.69284	58808.4125
731.60928	58399.1125
735.52295	58197.8125
739.43388	58199.7125
743.34206	58364.9125
747.24749	58636.7125
751.15017	58987.2125
755.05012	59584.4125
758.94733	60579.0125
762.8418	62227.8125
766.73354	64662.0125
770.62254	67042.8125
774.50882	67186.3125
778.39237	65338.3125
782.27321	62923.6125
786.15132	61011.1125
790.02671	59768.0125
793.89938	59075.3125
797.76935	58753.4125
801.6366	58515.6125
805.50115	58366.8125
809.36299	58337.9125
813.22213	58178.2125
817.07857	58177.4125
820.93231	58297.9125
824.78336	58218.7125
828.63172	58136.9125
832.47738	58081.3125
836.32036	58088.0125
840.16066	58111.5125
843.99827	58210.0125
847.8332	58350.7125
851.66546	58461.1125
855.49504	58510.7125
859.32195	58641.8125
863.1462	58624.1125
866.96777	58717.1125
870.78668	58782.9125
874.60293	58830.4125
878.41652	58901.0125
882.22745	59019.1125
886.03573	59093.9125
889.84136	59114.6125
893.64433	58978.4125
897.44466	58845.4125
901.24235	58753.7125
905.0374	58744.4125
908.8298	58730.7125
912.61957	58794.9125
916.40671	59181.4125
920.19121	59662.1125
923.97308	59963.8125
927.75233	59891.7125
931.52895	59442.3125
935.30295	58961.6125
939.07433	58476.2125
942.84309	58067.2125
946.60924	57884.6125
950.37278	57809.2125
954.13371	57853.3125
957.89203	57906.6125
961.64774	57905.9125
965.40086	57849.5125
969.15137	57826.9125
972.89929	57680.5125
976.64461	57607.8125
980.38733	57526.5125
984.12747	57565.7125
987.86502	57791.7125
991.59999	58048.4125
995.33237	58286.7125
999.06217	58719.3125
1002.78939	59395.7125
1006.51404	60175.5125
1010.23611	60880.0125
1013.95561	61386.5125
1017.67255	61511.4125
1021.38692	61231.8125
1025.09872	60771.5125
1028.80796	60112.0125
1032.51465	59838.2125
1036.21877	59867.7125
1039.92035	60015.9125
1043.61937	60248.7125
1047.31584	60319.1125
1051.00976	60480.2125
1054.70114	60790.6125
1058.38998	61156.7125
1062.07627	61549.5125
1065.76003	62210.2125
1069.44126	62916.1125
1073.11995	63651.5125
1076.79611	64327.1125
1080.46974	64655.4125
1084.14085	64787.2125
1087.80943	65139.6125
1091.47549	65532.7125
1095.13903	65664.9125
1098.80005	65239.2125
1102.45857	64477.4125
1106.11456	63704.5125
1109.76805	63136.7125
1113.41903	63043.2125
1117.06751	63021.5125
1120.71348	63281.1125
1124.35696	63721.3125
1127.99793	63978.9125
1131.63641	64143.9125
1135.2724	64139.6125
1138.90589	64097.5125
1142.5369	64141.6125
1146.16542	64447.1125
1149.79145	64770.7125
1153.415	65140.2125
1157.03607	65535.4125
1160.65467	66239.7125
1164.27079	67556.3125
1167.88443	69171.8125
1171.49561	71219.2125
1175.10432	73657.1125
1178.71056	76564.1125
1182.31434	79466.2125
1185.91565	81115.5125
1189.51451	81677.5125
1193.11091	81385.1125
1196.70485	80263.7125
1200.29634	78746.1125
1203.88538	77418.2125
1207.47197	76700.9125
1211.05612	76140.3125
1214.63782	75400.0125
1218.21708	74098.0125
1221.79391	72688.9125
1225.36829	71716.7125
1228.94024	71107.1125
1232.50976	70645.4125
1236.07685	70137.2125
1239.6415	70009.4125
1243.20374	70034.6125
1246.76355	70408.0125
1250.32093	70999.8125
1253.8759	71773.7125
1257.42845	73013.9125
1260.97859	74349.0125
1264.52631	75676.6125
1268.07163	76863.7125
1271.61453	77992.9125
1275.15503	78959.6125
1278.69312	80140.6125
1282.22882	81287.4125
1285.76211	82792.8125
1289.29301	84560.4125
1292.82151	86684.0125
1296.34761	89195.6125
1299.87133	92075.4125
1303.39266	94922.7125
1306.9116	97508.1125
1310.42815	99616.1125
1313.94233	100547.6125
1317.45412	100294.2125
1320.96354	99500.3125
1324.47058	98923.9125
1327.97525	98643.3125
1331.47754	98447.4125
1334.97747	98515.5125
1338.47502	98756.2125
1341.97022	99392.0125
1345.46305	100104.1125
1348.95352	100381.2125
1352.44163	99881.2125
1355.92738	99473.2125
1359.41078	99640.8125
1362.89183	99766.6125
1366.37053	98262.5125
1369.84688	93857.3125
1373.32088	88284.4125
1376.79254	84215.1125
1380.26186	82471.3125
1383.72883	82106.8125
1387.19347	82115.9125
1390.65578	81716.7125
1394.11575	81302.6125
1397.57339	81108.2125
1401.0287	81135.0125
1404.48168	81213.0125
1407.93234	80829.1125
1411.38068	79809.6125
1414.82669	78445.5125
1418.27039	76703.3125
1421.71177	75066.6125
1425.15083	73765.3125
1428.58758	73154.3125
1432.02203	73417.6125
1435.45416	74268.8125
1438.88399	75576.2125
1442.31151	76603.3125
1445.73673	77318.6125
1449.15965	77842.3125
1452.58027	78295.5125
1455.9986	78646.2125
1459.41463	79172.5125
1462.82837	80108.4125
1466.23982	81064.5125
1469.64898	81980.1125
1473.05586	82687.4125
1476.46045	82900.0125
1479.86276	82816.8125
1483.26279	82474.8125
1486.66054	82267.7125
1490.05602	82567.1125
1493.44922	83267.9125
1496.84016	84178.4125
1500.22882	85636.3125
1503.61521	87468.3125
1506.99934	89446.9125
1510.38121	90571.6125
1513.76081	90363.1125
1517.13816	89078.4125
1520.51324	87761.7125
1523.88607	86947.1125
1527.25665	86834.9125
1530.62498	86917.2125
1533.99105	86781.1125
1537.35488	85929.4125
1540.71647	84646.7125
1544.07581	83271.1125
1547.4329	81942.7125
1550.78776	80698.2125
1554.14038	79822.0125
1557.49077	79240.7125
1560.83892	78797.9125
1564.18484	78635.3125
1567.52853	78742.3125
1570.86999	79097.5125
1574.20922	79726.5125
1577.54624	80252.0125
1580.88103	80057.6125
1584.2136	80176.5125
1587.54395	81081.5125
1590.87208	82976.0125
1594.19801	85564.0125
1597.52172	88086.7125
1600.84321	88781.5125
1604.16251	86751.0125
1607.47959	83590.7125
1610.79447	80051.7125
1614.10715	76425.0125
1617.41763	73017.8125
1620.7259	70409.6125
1624.03199	68858.6125
1627.33587	68389.1125
1630.63757	69147.3125
1633.93707	71293.3125
1637.23439	75178.8125
1640.52951	81094.5125
1643.82246	88117.0125
1647.11321	93840.2125
1650.40179	95230.2125
1653.68819	91357.1125
1656.97241	83964.9125
1660.25446	76278.7125
1663.53433	70298.3125
1666.81203	66276.8125
1670.08756	63702.9125
1673.36092	61989.7125
1676.63211	60904.5125
1679.90115	60141.0125
1683.16801	59393.5125
1686.43272	59026.6125
1689.69527	58672.1125
1692.95567	58420.7125
1696.2139	58284.7125
1699.46999	58209.1125
1702.72392	58033.9125
1705.97571	57963.2125
1709.22535	57893.5125
1712.47284	57853.8125
1715.71819	57871.4125
1718.96139	57765.1125
1722.20246	57645.0125
1725.44139	57504.6125
1728.67818	57241.2125
1731.91284	57055.4125
1735.14537	56862.3125
1738.37576	56676.9125
1741.60403	56577.5125
1744.83017	56352.0125
1748.05418	56160.7125
1751.27607	56152.8125
1754.49584	56113.2125
1757.71349	56208.8125
1760.92903	56078.0125
1764.14244	56017.7125
1767.35375	55902.8125
1770.56294	55855.2125
1773.77002	55856.1125
1776.97499	55823.2125
1780.17785	55716.4125
1783.37861	55659.3125
1786.57727	55547.6125
1789.77382	55503.2125
1792.96828	55498.0125
1796.16064	55402.4125
1799.3509	55314.8125
1802.53907	55183.5125
1805.72514	55149.1125
1808.90913	55016.7125
1812.09102	54839.5125
1815.27083	54806.6125
1818.44856	54693.0125
1821.6242	54664.9125
1824.79776	54656.8125
1827.96924	54609.3125
1831.13864	54572.0125
1834.30597	54509.8125
1837.47122	54464.7125
1840.6344	54449.5125
1843.7955	54419.0125
1846.95454	54438.4125
1850.11151	54418.8125
1853.26642	54334.8125
1856.41926	54316.9125
1859.57004	54248.2125
1862.71876	54170.4125
1865.86542	54133.9125
1869.01003	54031.2125
1872.15258	53997.2125
1875.29308	53920.7125
1878.43152	53789.6125
1881.56792	53806.9125
1884.70227	53786.5125
1887.83457	53726.1125
1890.96482	53714.8125
1894.09304	53656.6125
1897.21921	53597.1125
1900.34335	53462.6125
1903.46544	53401.5125
1906.58551	53369.7125
1909.70353	53330.3125
1912.81953	53301.9125
1915.93349	53198.3125
1919.04543	53078.9125
1922.15534	53042.5125
1925.26322	52975.0125
1928.36908	52854.6125
1931.47292	52812.4125
1934.57473	52680.5125
1937.67453	52556.0125
1940.77232	52433.4125
1943.86808	52352.7125
1946.96184	52243.9125
1950.05358	52068.3125
1953.14331	51909.7125
1956.23103	51828.3125
1959.31675	51675.8125
1962.40046	51488.1125
1965.48217	51334.8125
1968.56188	51230.1125
1971.63959	51025.8125
1974.7153	50935.8125
1977.78901	50764.9125
1980.86073	50670.4125
1983.93046	50513.3125
1986.99819	50344.7125
1990.06394	50214.9125
1993.1277	50147.5125
1996.18947	50028.4125
1999.24925	49868.2125
2002.30706	49769.6125
2005.36288	49573.8125
2008.41672	49400.3125
2011.46859	49279.7125
2014.51848	49156.8125
2017.56639	48981.3125
2020.61233	48845.7125
2023.6563	48743.3125
2026.6983	48579.6125
2029.73833	48516.9125
2032.7764	48443.5125
2035.8125	48331.2125
2038.84664	48219.8125
2041.87881	48148.4125
2044.90903	48130.9125
2047.93729	48017.8125
2050.96359	47979.8125
2053.98794	47878.5125
2057.01034	47871.9125
2060.03078	47889.0125
2063.04927	47822.0125
2066.06582	47823.2125
2069.08042	47716.6125
2072.09307	47747.9125
2075.10378	47653.2125
2078.11255	47624.8125
2081.11938	47646.3125
2084.12426	47577.8125
2087.12722	47588.4125
2090.12824	47576.2125
2093.12732	47609.6125
2096.12447	47574.3125
2099.11969	47517.2125
2102.11299	47521.6125
2105.10435	47614.0125
2108.09379	47633.9125
2111.08131	47645.8125
2114.0669	47619.3125
2117.05057	47623.6125
2120.03233	47739.7125
2123.01216	47786.7125
2125.99008	47866.7125
2128.96609	47943.2125
2131.94018	47992.6125
2134.91236	47986.1125
2137.88263	48001.7125
2140.851	48031.9125
2143.81746	48069.6125
2146.78201	48050.8125
2149.74466	48047.4125
2152.7054	48093.7125
2155.66425	48054.7125
2158.6212	48063.8125
2161.57625	47983.5125
2164.52941	47997.0125
2167.48067	47965.7125
2170.43004	47931.8125
2173.37752	47938.1125
2176.32311	47996.9125
2179.26681	47963.7125
2182.20863	47944.1125
2185.14856	47971.1125
2188.08661	48037.6125
2191.02278	47901.5125
2193.95707	47774.4125
2196.88948	47776.1125
2199.82001	47807.0125
2202.74867	47672.0125
2205.67545	47667.8125
2208.60037	47585.5125
2211.52341	47552.2125
2214.44458	47488.3125
2217.36388	47408.9125
2220.28132	47402.9125
2223.1969	47249.8125
2226.11061	47157.0125
2229.02246	47005.4125
2231.93245	46971.7125
2234.84058	46864.0125
2237.74686	46803.1125
2240.65128	46817.8125
2243.55385	46741.9125
2246.45456	46690.7125
2249.35343	46644.6125
2252.25044	46616.4125
2255.14561	46449.4125
2258.03893	46452.5125
2260.93041	46336.9125
2263.82004	46220.9125
2266.70783	46122.4125
2269.59378	46001.6125
2272.4779	45929.3125
2275.36017	45873.7125
2278.24061	45777.5125
2281.11922	45699.2125
2283.996	45587.7125
2286.87094	45585.2125
2289.74405	45574.1125
2292.61534	45468.1125
2295.4848	45347.2125
2298.35243	45340.1125
2301.21824	45292.3125
2304.08223	45247.8125
2306.94439	45203.6125
2309.80474	45301.6125
2312.66327	45220.7125
2315.51999	45118.6125
2318.37489	45040.9125
2321.22797	45014.2125
2324.07925	44999.6125
2326.92871	44835.1125
2329.77637	44734.0125
2332.62222	44694.5125
2335.46626	44620.9125
2338.3085	44623.3125
2341.14893	44557.6125
2343.98756	44490.2125
2346.8244	44481.4125
2349.65943	44508.8125
2352.49267	44447.6125
2355.32411	44399.7125
2358.15376	44365.3125
2360.98161	44367.2125
2363.80768	44311.5125
2366.63195	44336.2125
2369.45444	44320.8125
2372.27514	44207.2125
2375.09405	44191.1125
2377.91118	44167.1125
2380.72652	44009.8125
2383.54009	43924.4125
2386.35187	43861.4125
2389.16188	43653.3125
2391.97011	43646.7125
2394.77657	43583.3125
2397.58125	43458.6125
2400.38416	43372.1125
2403.18529	43351.4125
2405.98466	43354.2125
2408.78226	43258.9125
2411.57809	43198.5125
2414.37216	43157.6125
2417.16446	43119.2125
2419.955	43036.9125
2422.74378	43067.2125
2425.5308	43005.5125
2428.31606	43014.6125
2431.09956	42926.8125
2433.88131	42912.4125
2436.6613	42910.2125
2439.43954	42865.6125
2442.21603	42808.9125
2444.99077	42761.0125
2447.76377	42717.7125
2450.53501	42680.5125
2453.30451	42668.0125
2456.07226	42622.8125
2458.83827	42562.9125
2461.60254	42498.7125
2464.36507	42464.5125
2467.12586	42517.1125
2469.88492	42431.0125
2472.64224	42412.6125
2475.39782	42319.2125
2478.15167	42408.3125
2480.90379	42401.5125
2483.65417	42401.4125
2486.40283	42385.4125
2489.14976	42338.0125
2491.89497	42240.3125
2494.63845	42280.4125
2497.3802	42217.7125
2500.12024	42214.9125
2502.85855	42119.0125
2505.59514	42097.5125
2508.33002	41979.5125
2511.06318	41939.4125
2513.79462	41949.9125
2516.52435	41911.5125
2519.25237	41857.5125
2521.97867	41821.0125
2524.70327	41869.3125
2527.42616	41785.6125
2530.14734	41746.5125
2532.86681	41651.8125
2535.58458	41589.1125
2538.30065	41574.6125
2541.01501	41512.8125
2543.72768	41511.9125
2546.43864	41534.1125
2549.14791	41422.4125
2551.85548	41357.3125
2554.56136	41147.5125
2557.26554	41090.8125
2559.96803	41015.7125
2562.66883	40956.0125
2565.36794	40958.3125
2568.06536	40889.8125
2570.7611	40780.9125
2573.45514	40690.6125
2576.14751	40668.2125
2578.83819	40555.3125
2581.52719	40574.6125
2584.21451	40466.3125
2586.90015	40399.3125
2589.58411	40295.1125
2592.2664	40314.3125
2594.94701	40229.6125
2597.62594	40242.4125
2600.30321	40191.7125
2602.9788	40123.8125
2605.65273	40087.8125
2608.32498	40042.2125
2610.99557	39961.6125
2613.66449	39971.1125
2616.33175	39876.0125
2618.99734	39794.3125
2621.66128	39748.3125
2624.32355	39689.6125
2626.98416	39625.4125
2629.64311	39568.9125
2632.30041	39576.8125
2634.95605	39504.1125
2637.61004	39452.7125
2640.26238	39457.8125
2642.91306	39408.1125
2645.56209	39298.7125
2648.20948	39328.7125
2650.85521	39284.5125
2653.4993	39312.7125
2656.14175	39282.9125
2658.78255	39321.4125
2661.42171	39354.0125
2664.05923	39335.2125
2666.6951	39320.9125
2669.32934	39276.5125
2671.96194	39255.9125
2674.59291	39329.4125
2677.22224	39380.1125
2679.84993	39384.5125
2682.476	39275.4125
2685.10043	39220.6125
2687.72324	39184.7125
2690.34441	39252.7125
2692.96396	39232.9125
2695.58188	39252.8125
2698.19818	39178.4125
2700.81285	39175.3125
2703.4259	39140.7125
2706.03733	39221.6125
2708.64714	39144.5125
2711.25533	39188.1125
2713.86191	39179.8125
2716.46687	39274.0125
2719.07021	39221.2125
2721.67194	39234.6125
2724.27206	39172.2125
2726.87057	39136.8125
2729.46747	39211.3125
2732.06276	39161.1125
2734.65644	39149.9125
2737.24852	39204.1125
2739.83899	39139.6125
2742.42786	39174.8125
2745.01513	39108.2125
2747.60079	39075.0125
2750.18486	38996.6125
2752.76733	38988.4125
2755.3482	38859.1125
2757.92747	38823.1125
2760.50515	38738.4125
2763.08123	38702.4125
2765.65573	38703.0125
2768.22863	38657.3125
2770.79994	38559.3125
2773.36967	38652.2125
2775.9378	38647.5125
2778.50435	38581.0125
2781.06932	38491.2125
2783.6327	38483.0125
2786.1945	38379.7125
2788.75471	38348.0125
2791.31335	38234.6125
2793.87041	38194.3125
2796.42589	38093.5125
2798.97979	38027.4125
2801.53212	37941.3125
2804.08288	37875.2125
2806.63206	37805.2125
2809.17967	37719.3125
2811.72571	37617.2125
2814.27018	37446.9125
2816.81308	37327.4125
2819.35442	37275.2125
2821.89419	37246.8125
2824.43239	37255.8125
2826.96904	37195.7125
2829.50412	37133.6125
2832.03763	37040.8125
2834.56959	36991.2125
2837.1	36925.9125
2839.62884	36888.6125
2842.15613	36771.7125
2844.68186	36784.4125
2847.20604	36751.2125
2849.72867	36738.3125
2852.24974	36680.9125
2854.76927	36600.4125
2857.28724	36572.2125
2859.80367	36553.1125
2862.31855	36546.4125
2864.83189	36441.6125
2867.34368	36349.5125
2869.85393	36364.3125
2872.36264	36300.8125
2874.8698	36253.8125
2877.37543	36190.7125
2879.87952	36158.3125
2882.38207	36139.7125
2884.88308	36071.8125
2887.38256	36132.0125
2889.88051	36073.9125
2892.37692	36072.9125
2894.8718	36125.0125
2897.36515	36130.4125
2899.85698	36146.3125
2902.34727	36153.7125
2904.83604	36096.4125
2907.32328	36162.7125
2909.809	36152.9125
2912.29319	36179.1125
2914.77587	36146.9125
2917.25702	36171.8125
2919.73665	36085.6125
2922.21476	36093.6125
2924.69136	36031.7125
2927.16644	36005.7125
2929.64	35920.8125
2932.11205	35932.2125
2934.58258	35828.0125
2937.05161	35926.1125
2939.51912	35895.4125
2941.98513	35927.4125
2944.44962	35837.6125
2946.91261	35807.3125
2949.37409	35833.9125
2951.83407	35724.4125
2954.29254	35705.7125
2956.74951	35725.7125
2959.20498	35705.6125
2961.65895	35711.0125
2964.11142	35672.5125
2966.56239	35695.6125
2969.01186	35627.0125
2971.45984	35538.8125
2973.90632	35494.6125
2976.35131	35452.3125
2978.7948	35417.2125
2981.23681	35337.1125
2983.67732	35277.6125
2986.11635	35232.6125
2988.55388	35122.3125
2990.98993	35109.1125
2993.4245	35024.4125
2995.85758	34947.0125
2998.28917	34807.9125
3000.71928	34783.1125
3003.14791	34650.0125
3005.57506	34696.1125
3008.00073	34537.1125
3010.42493	34519.2125
3012.84764	34399.1125
3015.26888	34434.7125
3017.68865	34314.6125
3020.10694	34292.2125
3022.52376	34180.5125
