Data from AgNPs_FTO_APTES_UA_20uM_CRN_2uM_R6G_10uM_NaF_0.1M_Addition_RamanShift__8__12-49-52-074.txt Node

Date: Thu Feb 17 12:49:52 GMT 2022
User: TCL
Spectrometer: QEP01345
Trigger mode: 4
Integration Time (sec): 7.000000E0
Scans to average: 10
Electric dark correction enabled: true
Nonlinearity correction enabled: false
Boxcar width: 0
XAxis mode: Raman Shifts
Number of Pixels in Spectrum: 1044
>>>>>Begin Spectral Data<<<<<
46.04893	-0.7625
50.45542	-0.5625
54.85868	-3.2625
59.25871	-0.4625
63.6555	119.2375
68.04907	121.7375
72.43941	127.0375
76.82654	129.3375
81.21044	131.2375
85.59113	137.3375
89.96862	138.0375
94.34289	141.9375
98.71396	148.5375
103.08183	152.4375
107.4465	157.6375
111.80798	158.9375
116.16626	167.0375
120.52136	176.1375
124.87327	180.8375
129.222	197.4375
133.56755	203.9375
137.90993	227.9375
142.24913	251.1375
146.58517	284.0375
150.91804	336.5375
155.24774	400.6375
159.57429	508.6375
163.89768	655.1375
168.21792	879.3375
172.53501	1203.9375
176.84895	1707.1375
181.15975	2387.5375
185.46741	3376.0375
189.77193	4690.4375
194.07331	6272.7375
198.37157	8088.8375
202.6667	10019.8375
206.9587	11925.5375
211.24758	13815.9375
215.53334	15641.7375
219.81599	17579.0375
224.09553	19731.7375
228.37195	22103.7375
232.64527	24761.3375
236.91549	27553.2375
241.18261	30364.7375
245.44663	33061.8375
249.70755	35528.7375
253.96539	37544.5375
258.22014	39388.4375
262.4718	40766.9375
266.72039	41796.9375
270.96589	42384.8375
275.20832	42416.6375
279.44768	42233.5375
283.68397	41908.5375
287.91719	41522.9375
292.14735	41337.3375
296.37445	41293.9375
300.59849	41366.8375
304.81948	41538.6375
309.03742	41667.8375
313.25231	41505.6375
317.46415	41096.3375
321.67296	40510.7375
325.87872	39959.0375
330.08145	39745.2375
334.28114	39757.5375
338.47781	40073.7375
342.67145	40528.9375
346.86207	41125.7375
351.04966	41780.1375
355.23424	42391.9375
359.4158	42885.8375
363.59435	43364.3375
367.76989	43685.1375
371.94243	43969.3375
376.11196	44173.6375
380.27849	44386.1375
384.44203	44688.7375
388.60257	44989.8375
392.76012	45428.3375
396.91468	46073.3375
401.06626	46648.8375
405.21485	47078.1375
409.36047	47031.6375
413.50311	46682.9375
417.64277	46505.8375
421.77947	46651.8375
425.9132	46948.2375
430.04396	47207.8375
434.17176	47399.9375
438.2966	47727.6375
442.41849	48331.9375
446.53742	49423.5375
450.6534	50608.9375
454.76644	51493.6375
458.87653	51896.0375
462.98368	51775.3375
467.08789	51381.3375
471.18916	50778.2375
475.2875	50208.3375
479.38291	49797.8375
483.4754	49499.3375
487.56496	49156.0375
491.6516	48741.3375
495.73531	48172.9375
499.81612	47854.6375
503.89401	48026.0375
507.96899	48291.8375
512.04106	48307.1375
516.11023	48126.7375
520.1765	47825.5375
524.23987	47645.3375
528.30034	47396.2375
532.35792	47182.3375
536.41261	46764.2375
540.46441	46495.0375
544.51333	46460.2375
548.55936	46837.5375
552.60252	47699.7375
556.64279	48700.3375
560.6802	49439.2375
564.71473	49938.4375
568.7464	50736.1375
572.7752	52150.3375
576.80114	53832.3375
580.82422	55459.8375
584.84444	56968.1375
588.86181	58965.2375
592.87633	60747.8375
596.888	60436.5375
600.89682	58175.6375
604.9028	57230.5375
608.90594	59228.5375
612.90624	61369.3375
616.90371	58143.7375
620.89834	51763.4375
624.89015	49112.0375
628.87913	48912.0375
632.86528	49310.4375
636.84862	49339.0375
640.82913	48713.7375
644.80683	47809.6375
648.78172	47157.2375
652.75379	47173.2375
656.72306	47608.0375
660.68952	48220.9375
664.65319	48091.2375
668.61405	47546.2375
672.57211	47480.0375
676.52738	47747.9375
680.47986	47746.0375
684.42955	47501.0375
688.37646	47427.1375
692.32058	47650.4375
696.26192	48166.5375
700.20048	48827.6375
704.13626	49306.8375
708.06928	49449.7375
711.99952	49308.2375
715.927	49219.7375
719.85171	49325.1375
723.77365	49084.0375
727.69284	48564.0375
731.60928	48076.2375
735.52295	47882.9375
739.43388	47903.5375
743.34206	48054.9375
747.24749	48302.9375
751.15017	48727.2375
755.05012	49400.2375
758.94733	50535.2375
762.8418	52347.7375
766.73354	55025.4375
770.62254	57433.5375
774.50882	57595.7375
778.39237	55498.8375
782.27321	52888.1375
786.15132	50649.1375
790.02671	49326.4375
793.89938	48559.3375
797.76935	48186.2375
801.6366	48057.1375
805.50115	47955.2375
809.36299	47864.9375
813.22213	47619.6375
817.07857	47556.6375
820.93231	47479.8375
824.78336	47337.0375
828.63172	47196.3375
832.47738	47066.2375
836.32036	47200.7375
840.16066	47177.5375
843.99827	47269.1375
847.8332	47412.7375
851.66546	47501.3375
855.49504	47600.4375
859.32195	47639.4375
863.1462	47572.0375
866.96777	47552.0375
870.78668	47530.3375
874.60293	47581.4375
878.41652	47620.7375
882.22745	47765.6375
886.03573	47886.3375
889.84136	47909.2375
893.64433	47718.7375
897.44466	47580.7375
901.24235	47411.8375
905.0374	47375.4375
908.8298	47322.1375
912.61957	47416.1375
916.40671	47809.5375
920.19121	48379.3375
923.97308	48884.2375
927.75233	48807.2375
931.52895	48300.7375
935.30295	47668.7375
939.07433	47161.6375
942.84309	46741.9375
946.60924	46628.3375
950.37278	46570.3375
954.13371	46648.4375
957.89203	46668.0375
961.64774	46654.8375
965.40086	46626.6375
969.15137	46657.3375
972.89929	46454.6375
976.64461	46473.7375
980.38733	46379.9375
984.12747	46484.2375
987.86502	46713.1375
991.59999	47017.6375
995.33237	47384.6375
999.06217	48039.1375
1002.78939	48787.0375
1006.51404	49741.3375
1010.23611	50557.4375
1013.95561	51123.8375
1017.67255	51233.2375
1021.38692	50840.2375
1025.09872	50092.5375
1028.80796	49586.5375
1032.51465	49446.5375
1036.21877	49561.6375
1039.92035	49725.9375
1043.61937	49758.5375
1047.31584	49728.7375
1051.00976	49643.6375
1054.70114	49770.9375
1058.38998	50038.0375
1062.07627	50444.5375
1065.76003	50988.3375
1069.44126	51624.0375
1073.11995	52452.1375
1076.79611	53140.5375
1080.46974	53466.0375
1084.14085	53792.0375
1087.80943	54241.5375
1091.47549	54648.7375
1095.13903	54760.4375
1098.80005	54189.7375
1102.45857	53256.1375
1106.11456	52464.0375
1109.76805	52018.1375
1113.41903	51975.3375
1117.06751	52120.5375
1120.71348	52446.8375
1124.35696	52760.2375
1127.99793	53171.1375
1131.63641	53322.5375
1135.2724	53305.5375
1138.90589	53327.4375
1142.5369	53477.3375
1146.16542	53817.7375
1149.79145	54244.0375
1153.415	54681.7375
1157.03607	55207.7375
1160.65467	56289.2375
1164.27079	58065.4375
1167.88443	60328.4375
1171.49561	62795.0375
1175.10432	65816.0375
1178.71056	69504.3375
1182.31434	72955.6375
1185.91565	74707.6375
1189.51451	74744.0375
1193.11091	73691.8375
1196.70485	71997.3375
1200.29634	70052.0375
1203.88538	68708.7375
1207.47197	68072.5375
1211.05612	67632.0375
1214.63782	66703.5375
1218.21708	65305.9375
1221.79391	63841.5375
1225.36829	62815.6375
1228.94024	62135.2375
1232.50976	61504.6375
1236.07685	60732.6375
1239.6415	60236.2375
1243.20374	60220.0375
1246.76355	60610.6375
1250.32093	61393.9375
1253.8759	62360.1375
1257.42845	63730.7375
1260.97859	65288.6375
1264.52631	66922.5375
1268.07163	68497.2375
1271.61453	70030.8375
1275.15503	71512.8375
1278.69312	72952.3375
1282.22882	74600.7375
1285.76211	76714.0375
1289.29301	79152.4375
1292.82151	82044.1375
1296.34761	85642.2375
1299.87133	89648.3375
1303.39266	93737.4375
1306.9116	97415.3375
1310.42815	100160.8375
1313.94233	101469.7375
1317.45412	100832.3375
1320.96354	99460.2375
1324.47058	98405.4375
1327.97525	97580.3375
1331.47754	97051.3375
1334.97747	96644.1375
1338.47502	96125.4375
1341.97022	95844.2375
1345.46305	95343.4375
1348.95352	94895.3375
1352.44163	94401.1375
1355.92738	94965.0375
1359.41078	96850.0375
1362.89183	98402.4375
1366.37053	97013.0375
1369.84688	91227.4375
1373.32088	83799.2375
1376.79254	78383.8375
1380.26186	76331.1375
1383.72883	76458.2375
1387.19347	76755.7375
1390.65578	76308.4375
1394.11575	75963.6375
1397.57339	76187.8375
1401.0287	76886.4375
1404.48168	77392.6375
1407.93234	77198.8375
1411.38068	76069.7375
1414.82669	74033.3375
1418.27039	71753.3375
1421.71177	69568.9375
1425.15083	67822.6375
1428.58758	67163.5375
1432.02203	67728.4375
1435.45416	69260.2375
1438.88399	71070.0375
1442.31151	72384.1375
1445.73673	73163.9375
1449.15965	73427.0375
1452.58027	73564.7375
1455.9986	73482.5375
1459.41463	73945.2375
1462.82837	74853.1375
1466.23982	75901.8375
1469.64898	77000.5375
1473.05586	77756.9375
1476.46045	77894.8375
1479.86276	77670.0375
1483.26279	77082.0375
1486.66054	76741.2375
1490.05602	76987.5375
1493.44922	77715.0375
1496.84016	78526.4375
1500.22882	79761.7375
1503.61521	81549.9375
1506.99934	83368.9375
1510.38121	84491.7375
1513.76081	84390.8375
1517.13816	82933.7375
1520.51324	81336.6375
1523.88607	80630.7375
1527.25665	80791.3375
1530.62498	81144.3375
1533.99105	81154.1375
1537.35488	80274.4375
1540.71647	78692.9375
1544.07581	76804.1375
1547.4329	75009.2375
1550.78776	73418.6375
1554.14038	72276.6375
1557.49077	71525.7375
1560.83892	71124.5375
1564.18484	70911.2375
1567.52853	70882.8375
1570.86999	71383.7375
1574.20922	72275.0375
1577.54624	73154.3375
1580.88103	73463.5375
1584.2136	73983.5375
1587.54395	75823.4375
1590.87208	79054.0375
1594.19801	82994.5375
1597.52172	86582.7375
1600.84321	87299.0375
1604.16251	84170.8375
1607.47959	78892.5375
1610.79447	73450.0375
1614.10715	68507.3375
1617.41763	64237.0375
1620.7259	61336.1375
1624.03199	59857.3375
1627.33587	59745.7375
1630.63757	61101.7375
1633.93707	64200.4375
1637.23439	69541.9375
1640.52951	77502.3375
1643.82246	86848.9375
1647.11321	93790.6375
1650.40179	94528.4375
1653.68819	88141.6375
1656.97241	78014.3375
1660.25446	68321.3375
1663.53433	61219.0375
1666.81203	56623.5375
1670.08756	53764.3375
1673.36092	51986.4375
1676.63211	50792.0375
1679.90115	49906.0375
1683.16801	49285.5375
1686.43272	48791.6375
1689.69527	48434.7375
1692.95567	48152.3375
1696.2139	47944.0375
1699.46999	47859.4375
1702.72392	47771.6375
1705.97571	47642.7375
1709.22535	47615.7375
1712.47284	47542.1375
1715.71819	47518.0375
1718.96139	47402.1375
1722.20246	47308.2375
1725.44139	47144.1375
1728.67818	46914.5375
1731.91284	46751.5375
1735.14537	46464.0375
1738.37576	46394.8375
1741.60403	46221.8375
1744.83017	46099.4375
1748.05418	45918.4375
1751.27607	45899.7375
1754.49584	45843.4375
1757.71349	45846.0375
1760.92903	45815.6375
1764.14244	45732.6375
1767.35375	45717.2375
1770.56294	45646.8375
1773.77002	45618.0375
1776.97499	45585.8375
1780.17785	45543.7375
1783.37861	45480.6375
1786.57727	45371.5375
1789.77382	45260.9375
1792.96828	45303.2375
1796.16064	45225.7375
1799.3509	45189.5375
1802.53907	45121.3375
1805.72514	45034.0375
1808.90913	44932.4375
1812.09102	44797.3375
1815.27083	44742.6375
1818.44856	44668.9375
1821.6242	44658.0375
1824.79776	44657.8375
1827.96924	44658.7375
1831.13864	44654.5375
1834.30597	44611.5375
1837.47122	44576.7375
1840.6344	44551.2375
1843.7955	44599.5375
1846.95454	44553.0375
1850.11151	44506.1375
1853.26642	44546.4375
1856.41926	44510.9375
1859.57004	44537.2375
1862.71876	44378.4375
1865.86542	44313.7375
1869.01003	44344.0375
1872.15258	44265.3375
1875.29308	44205.0375
1878.43152	44117.5375
1881.56792	44142.3375
1884.70227	44192.9375
1887.83457	44134.8375
1890.96482	44136.5375
1894.09304	44053.5375
1897.21921	43996.0375
1900.34335	43893.7375
1903.46544	43880.5375
1906.58551	43870.7375
1909.70353	43843.1375
1912.81953	43836.9375
1915.93349	43738.7375
1919.04543	43622.1375
1922.15534	43602.9375
1925.26322	43508.1375
1928.36908	43486.5375
1931.47292	43387.3375
1934.57473	43318.1375
1937.67453	43273.1375
1940.77232	43178.0375
1943.86808	43017.1375
1946.96184	42947.3375
1950.05358	42824.6375
1953.14331	42740.3375
1956.23103	42616.1375
1959.31675	42511.3375
1962.40046	42346.8375
1965.48217	42173.2375
1968.56188	42126.4375
1971.63959	42031.2375
1974.7153	41941.5375
1977.78901	41821.0375
1980.86073	41665.4375
1983.93046	41635.5375
1986.99819	41474.1375
1990.06394	41424.7375
1993.1277	41335.4375
1996.18947	41207.8375
1999.24925	41107.1375
2002.30706	40983.2375
2005.36288	40843.3375
2008.41672	40713.5375
2011.46859	40624.3375
2014.51848	40535.1375
2017.56639	40435.0375
2020.61233	40335.4375
2023.6563	40260.8375
2026.6983	40141.7375
2029.73833	40095.4375
2032.7764	39975.9375
2035.8125	39943.9375
2038.84664	39870.2375
2041.87881	39844.6375
2044.90903	39754.0375
2047.93729	39722.5375
2050.96359	39612.3375
2053.98794	39648.4375
2057.01034	39625.0375
2060.03078	39573.6375
2063.04927	39587.9375
2066.06582	39593.9375
2069.08042	39516.0375
2072.09307	39527.7375
2075.10378	39477.9375
2078.11255	39459.2375
2081.11938	39473.3375
2084.12426	39485.0375
2087.12722	39451.8375
2090.12824	39483.8375
2093.12732	39446.3375
2096.12447	39480.3375
2099.11969	39420.2375
2102.11299	39435.5375
2105.10435	39484.2375
2108.09379	39490.1375
2111.08131	39533.1375
2114.0669	39519.8375
2117.05057	39576.2375
2120.03233	39594.7375
2123.01216	39619.2375
2125.99008	39668.4375
2128.96609	39710.2375
2131.94018	39768.6375
2134.91236	39850.7375
2137.88263	39879.2375
2140.851	39916.4375
2143.81746	39907.4375
2146.78201	39903.7375
2149.74466	39971.5375
2152.7054	39949.0375
2155.66425	40022.6375
2158.6212	39997.0375
2161.57625	39942.0375
2164.52941	39932.6375
2167.48067	39911.4375
2170.43004	39959.6375
2173.37752	39938.1375
2176.32311	39946.2375
2179.26681	40018.1375
2182.20863	39996.1375
2185.14856	39966.2375
2188.08661	39989.0375
2191.02278	39973.9375
2193.95707	39893.2375
2196.88948	39905.0375
2199.82001	39896.6375
2202.74867	39819.5375
2205.67545	39790.3375
2208.60037	39712.5375
2211.52341	39676.8375
2214.44458	39638.6375
2217.36388	39672.3375
2220.28132	39614.9375
2223.1969	39512.5375
2226.11061	39402.5375
2229.02246	39303.4375
2231.93245	39243.5375
2234.84058	39206.5375
2237.74686	39234.6375
2240.65128	39230.0375
2243.55385	39109.5375
2246.45456	39054.4375
2249.35343	39062.2375
2252.25044	38971.3375
2255.14561	38894.9375
2258.03893	38857.3375
2260.93041	38777.8375
2263.82004	38675.3375
2266.70783	38629.2375
2269.59378	38505.3375
2272.4779	38437.6375
2275.36017	38418.5375
2278.24061	38365.4375
2281.11922	38242.3375
2283.996	38190.3375
2286.87094	38146.9375
2289.74405	38165.0375
2292.61534	38165.4375
2295.4848	38074.6375
2298.35243	38123.0375
2301.21824	38070.5375
2304.08223	38013.7375
2306.94439	38016.0375
2309.80474	38009.2375
2312.66327	37997.8375
2315.51999	37957.3375
2318.37489	37871.4375
2321.22797	37821.7375
2324.07925	37894.2375
2326.92871	37735.7375
2329.77637	37695.3375
2332.62222	37635.1375
2335.46626	37647.2375
2338.3085	37582.8375
2341.14893	37603.6375
2343.98756	37597.0375
2346.8244	37534.1375
2349.65943	37610.8375
2352.49267	37588.9375
2355.32411	37596.2375
2358.15376	37552.2375
2360.98161	37550.5375
2363.80768	37488.5375
2366.63195	37437.9375
2369.45444	37449.3375
2372.27514	37482.1375
2375.09405	37396.0375
2377.91118	37333.5375
2380.72652	37244.1375
2383.54009	37176.2375
2386.35187	37099.3375
2389.16188	37007.0375
2391.97011	36923.5375
2394.77657	36894.2375
2397.58125	36869.3375
2400.38416	36824.4375
2403.18529	36744.5375
2405.98466	36738.0375
2408.78226	36699.1375
2411.57809	36653.9375
2414.37216	36649.2375
2417.16446	36579.8375
2419.955	36582.2375
2422.74378	36537.4375
2425.5308	36543.6375
2428.31606	36537.0375
2431.09956	36517.6375
2433.88131	36438.4375
2436.6613	36502.3375
2439.43954	36476.4375
2442.21603	36450.9375
2444.99077	36440.5375
2447.76377	36412.6375
2450.53501	36345.2375
2453.30451	36363.1375
2456.07226	36323.3375
2458.83827	36336.5375
2461.60254	36301.0375
2464.36507	36281.8375
2467.12586	36302.9375
2469.88492	36265.2375
2472.64224	36251.2375
2475.39782	36250.3375
2478.15167	36226.4375
2480.90379	36272.2375
2483.65417	36314.4375
2486.40283	36285.6375
2489.14976	36262.6375
2491.89497	36222.2375
2494.63845	36237.1375
2497.3802	36235.5375
2500.12024	36198.9375
2502.85855	36208.5375
2505.59514	36168.1375
2508.33002	36130.4375
2511.06318	36096.2375
2513.79462	36065.8375
2516.52435	36092.7375
2519.25237	36069.5375
2521.97867	36046.0375
2524.70327	36024.5375
2527.42616	35941.0375
2530.14734	35958.1375
2532.86681	35906.5375
2535.58458	35872.2375
2538.30065	35885.3375
2541.01501	35841.7375
2543.72768	35856.5375
2546.43864	35829.4375
2549.14791	35758.6375
2551.85548	35725.1375
2554.56136	35644.1375
2557.26554	35574.9375
2559.96803	35513.9375
2562.66883	35511.4375
2565.36794	35486.1375
2568.06536	35439.5375
2570.7611	35359.4375
2573.45514	35339.9375
2576.14751	35303.9375
2578.83819	35236.9375
2581.52719	35232.5375
2584.21451	35200.7375
2586.90015	35163.5375
2589.58411	35018.3375
2592.2664	35114.6375
2594.94701	35075.9375
2597.62594	35016.2375
2600.30321	35069.1375
2602.9788	35006.4375
2605.65273	34988.6375
2608.32498	35021.4375
2610.99557	35000.3375
2613.66449	34977.4375
2616.33175	34919.2375
2618.99734	34872.0375
2621.66128	34812.0375
2624.32355	34794.2375
2626.98416	34735.8375
2629.64311	34693.2375
2632.30041	34667.4375
2634.95605	34598.2375
2637.61004	34605.8375
2640.26238	34567.7375
2642.91306	34580.4375
2645.56209	34538.5375
2648.20948	34612.3375
2650.85521	34603.8375
2653.4993	34616.2375
2656.14175	34638.3375
2658.78255	34574.4375
2661.42171	34652.8375
2664.05923	34709.0375
2666.6951	34675.8375
2669.32934	34680.2375
2671.96194	34671.5375
2674.59291	34720.0375
2677.22224	34741.5375
2679.84993	34726.0375
2682.476	34661.2375
2685.10043	34681.6375
2687.72324	34619.7375
2690.34441	34591.7375
2692.96396	34655.6375
2695.58188	34675.8375
2698.19818	34608.7375
2700.81285	34623.7375
2703.4259	34611.1375
2706.03733	34687.8375
2708.64714	34634.4375
2711.25533	34669.1375
2713.86191	34705.6375
2716.46687	34774.5375
2719.07021	34768.9375
2721.67194	34780.8375
2724.27206	34714.0375
2726.87057	34804.3375
2729.46747	34795.7375
2732.06276	34794.7375
2734.65644	34786.3375
2737.24852	34841.5375
2739.83899	34756.4375
2742.42786	34816.0375
2745.01513	34748.0375
2747.60079	34729.9375
2750.18486	34687.0375
2752.76733	34709.3375
2755.3482	34618.3375
2757.92747	34636.3375
2760.50515	34544.8375
2763.08123	34494.1375
2765.65573	34546.0375
2768.22863	34524.6375
2770.79994	34465.2375
2773.36967	34496.9375
2775.9378	34513.7375
2778.50435	34505.6375
2781.06932	34396.2375
2783.6327	34407.7375
2786.1945	34380.7375
2788.75471	34323.1375
2791.31335	34275.6375
2793.87041	34261.5375
2796.42589	34157.0375
2798.97979	34155.7375
2801.53212	33979.7375
2804.08288	33980.7375
2806.63206	33887.5375
2809.17967	33910.6375
2811.72571	33789.3375
2814.27018	33683.9375
2816.81308	33573.3375
2819.35442	33455.5375
2821.89419	33417.3375
2824.43239	33456.3375
2826.96904	33394.9375
2829.50412	33409.4375
2832.03763	33309.7375
2834.56959	33304.3375
2837.1	33260.7375
2839.62884	33262.1375
2842.15613	33176.6375
2844.68186	33247.4375
2847.20604	33143.9375
2849.72867	33126.9375
2852.24974	33061.2375
2854.76927	33051.6375
2857.28724	32989.2375
2859.80367	33012.8375
2862.31855	32953.4375
2864.83189	32896.3375
2867.34368	32853.7375
2869.85393	32824.5375
2872.36264	32778.8375
2874.8698	32707.7375
2877.37543	32738.2375
2879.87952	32692.1375
2882.38207	32702.5375
2884.88308	32677.8375
2887.38256	32682.9375
2889.88051	32675.3375
2892.37692	32748.4375
2894.8718	32700.5375
2897.36515	32725.7375
2899.85698	32730.9375
2902.34727	32813.2375
2904.83604	32777.6375
2907.32328	32817.6375
2909.809	32832.0375
2912.29319	32840.1375
2914.77587	32854.0375
2917.25702	32861.4375
2919.73665	32772.1375
2922.21476	32815.0375
2924.69136	32797.7375
2927.16644	32830.6375
2929.64	32730.8375
2932.11205	32706.8375
2934.58258	32635.6375
2937.05161	32730.5375
2939.51912	32722.7375
2941.98513	32659.6375
2944.44962	32579.3375
2946.91261	32519.6375
2949.37409	32567.9375
2951.83407	32528.3375
2954.29254	32541.1375
2956.74951	32536.6375
2959.20498	32528.8375
2961.65895	32467.9375
2964.11142	32497.2375
2966.56239	32450.1375
2969.01186	32457.6375
2971.45984	32352.5375
2973.90632	32317.4375
2976.35131	32282.4375
2978.7948	32256.0375
2981.23681	32185.6375
2983.67732	32152.1375
2986.11635	32074.5375
2988.55388	32011.3375
2990.98993	31961.7375
2993.4245	31914.4375
2995.85758	31823.7375
2998.28917	31646.8375
3000.71928	31645.1375
3003.14791	31567.6375
3005.57506	31556.1375
3008.00073	31454.1375
3010.42493	31428.6375
3012.84764	31384.5375
3015.26888	31384.8375
3017.68865	31236.6375
3020.10694	31217.6375
3022.52376	31153.8375
