Data from AgNPs_FTO_APTES_UA_20uM_CRN_0uM_R6G_10uM_NaF_0.1M_Addition_RamanShift__38__11-34-01-975.txt Node

Date: Thu Feb 17 11:34:01 GMT 2022
User: TCL
Spectrometer: QEP01345
Trigger mode: 4
Integration Time (sec): 7.000000E0
Scans to average: 10
Electric dark correction enabled: true
Nonlinearity correction enabled: false
Boxcar width: 0
XAxis mode: Raman Shifts
Number of Pixels in Spectrum: 1044
>>>>>Begin Spectral Data<<<<<
46.04893	-0.325
50.45542	-0.925
54.85868	-3.625
59.25871	-0.625
63.6555	118.675
68.04907	111.475
72.43941	118.975
76.82654	119.375
81.21044	121.975
85.59113	126.875
89.96862	130.975
94.34289	141.775
98.71396	141.875
103.08183	144.575
107.4465	148.175
111.80798	153.075
116.16626	157.275
120.52136	165.475
124.87327	172.075
129.222	184.875
133.56755	191.775
137.90993	204.975
142.24913	227.475
146.58517	261.775
150.91804	312.175
155.24774	371.775
159.57429	458.375
163.89768	599.075
168.21792	795.575
172.53501	1094.775
176.84895	1528.275
181.15975	2172.575
185.46741	3059.275
189.77193	4230.175
194.07331	5655.875
198.37157	7291.775
202.6667	9008.775
206.9587	10716.275
211.24758	12429.275
215.53334	14074.875
219.81599	15807.475
224.09553	17702.375
228.37195	19855.775
232.64527	22189.975
236.91549	24679.875
241.18261	27205.475
245.44663	29639.075
249.70755	31761.175
253.96539	33639.975
258.22014	35220.075
262.4718	36388.875
266.72039	37264.175
270.96589	37633.875
275.20832	37570.875
279.44768	37328.375
283.68397	36917.875
287.91719	36504.575
292.14735	36224.175
296.37445	36047.675
300.59849	36024.075
304.81948	36134.575
309.03742	36283.675
313.25231	36374.875
317.46415	36307.875
321.67296	36070.675
325.87872	35905.175
330.08145	35792.775
334.28114	35794.075
338.47781	36048.575
342.67145	36512.875
346.86207	37067.575
351.04966	37765.375
355.23424	38339.775
359.4158	38824.575
363.59435	39202.275
367.76989	39383.675
371.94243	39527.875
376.11196	39655.975
380.27849	39801.375
384.44203	40094.875
388.60257	40387.975
392.76012	40880.775
396.91468	41410.475
401.06626	41887.975
405.21485	42295.175
409.36047	42240.675
413.50311	42053.875
417.64277	42174.375
421.77947	42523.275
425.9132	42884.875
430.04396	43266.375
434.17176	43536.275
438.2966	43825.275
442.41849	44472.275
446.53742	45642.775
450.6534	46831.175
454.76644	47557.575
458.87653	47611.575
462.98368	47260.075
467.08789	46613.175
471.18916	45808.875
475.2875	44934.775
479.38291	44236.275
483.4754	43764.875
487.56496	43425.975
491.6516	43131.875
495.73531	43001.275
499.81612	42923.275
503.89401	43283.975
507.96899	43485.275
512.04106	43516.275
516.11023	43306.875
520.1765	42989.875
524.23987	42899.775
528.30034	42822.975
532.35792	42702.675
536.41261	42305.075
540.46441	41833.275
544.51333	41664.075
548.55936	41856.675
552.60252	42445.775
556.64279	43478.475
560.6802	44303.975
564.71473	44742.775
568.7464	45161.675
572.7752	46333.375
576.80114	48008.475
580.82422	49997.775
584.84444	52701.275
588.86181	56649.775
592.87633	61116.175
596.888	61956.875
600.89682	57985.275
604.9028	54010.075
608.90594	53646.175
612.90624	54570.975
616.90371	51719.375
620.89834	46593.675
624.89015	44447.875
628.87913	44305.975
632.86528	44618.375
636.84862	44509.575
640.82913	43661.875
644.80683	42808.275
648.78172	42346.875
652.75379	42419.075
656.72306	42852.775
660.68952	43361.075
664.65319	43181.875
668.61405	42677.175
672.57211	42703.875
676.52738	43012.875
680.47986	43038.575
684.42955	42796.775
688.37646	42582.175
692.32058	42919.475
696.26192	43552.975
700.20048	44202.875
704.13626	44527.875
708.06928	44594.675
711.99952	44527.475
715.927	44623.875
719.85171	44745.875
723.77365	44571.975
727.69284	43933.975
731.60928	43336.375
735.52295	43224.575
739.43388	43319.975
743.34206	43492.175
747.24749	43822.575
751.15017	44226.975
755.05012	44870.375
758.94733	45771.175
762.8418	47214.575
766.73354	49379.675
770.62254	51205.075
774.50882	51254.275
778.39237	49599.675
782.27321	47574.275
786.15132	45841.875
790.02671	44748.675
793.89938	44094.475
797.76935	43791.175
801.6366	43656.575
805.50115	43592.775
809.36299	43495.975
813.22213	43251.375
817.07857	43067.575
820.93231	42958.775
824.78336	42767.275
828.63172	42665.775
832.47738	42601.475
836.32036	42621.675
840.16066	42717.575
843.99827	42756.175
847.8332	42893.275
851.66546	42988.175
855.49504	43146.675
859.32195	43203.375
863.1462	43131.375
866.96777	43088.275
870.78668	43064.975
874.60293	43141.275
878.41652	43180.375
882.22745	43353.575
886.03573	43486.975
889.84136	43517.175
893.64433	43298.275
897.44466	43158.275
901.24235	43066.275
905.0374	43006.375
908.8298	42905.175
912.61957	42955.675
916.40671	43212.175
920.19121	43719.675
923.97308	44244.375
927.75233	44432.675
931.52895	43994.175
935.30295	43332.675
939.07433	42761.675
942.84309	42355.775
946.60924	42218.675
950.37278	42203.475
954.13371	42232.375
957.89203	42255.575
961.64774	42224.475
965.40086	42228.375
969.15137	42266.975
972.89929	42152.575
976.64461	42117.775
980.38733	42061.975
984.12747	42134.975
987.86502	42290.075
991.59999	42551.475
995.33237	42846.775
999.06217	43478.275
1002.78939	44308.875
1006.51404	45233.675
1010.23611	46164.775
1013.95561	46771.575
1017.67255	46948.975
1021.38692	46383.175
1025.09872	45494.175
1028.80796	44734.275
1032.51465	44511.075
1036.21877	44570.375
1039.92035	44681.275
1043.61937	44712.375
1047.31584	44682.275
1051.00976	44674.875
1054.70114	44811.175
1058.38998	44954.675
1062.07627	45242.675
1065.76003	45747.975
1069.44126	46309.675
1073.11995	47105.375
1076.79611	47844.775
1080.46974	48173.675
1084.14085	48507.375
1087.80943	49019.475
1091.47549	49335.775
1095.13903	49265.775
1098.80005	48551.875
1102.45857	47665.075
1106.11456	46966.675
1109.76805	46703.275
1113.41903	46733.975
1117.06751	46864.975
1120.71348	47195.275
1124.35696	47502.375
1127.99793	47811.375
1131.63641	48047.675
1135.2724	48019.275
1138.90589	48048.975
1142.5369	48204.375
1146.16542	48701.675
1149.79145	49081.975
1153.415	49486.975
1157.03607	49963.575
1160.65467	50919.975
1164.27079	52694.275
1167.88443	54896.075
1171.49561	57224.775
1175.10432	59952.075
1178.71056	63452.975
1182.31434	66688.175
1185.91565	67951.775
1189.51451	67000.875
1193.11091	65333.875
1196.70485	63598.775
1200.29634	61942.575
1203.88538	60848.475
1207.47197	60676.375
1211.05612	60557.275
1214.63782	59937.975
1218.21708	58736.575
1221.79391	57596.875
1225.36829	56982.075
1228.94024	56654.575
1232.50976	56037.775
1236.07685	54985.275
1239.6415	54174.875
1243.20374	53839.575
1246.76355	54033.375
1250.32093	54616.575
1253.8759	55589.175
1257.42845	56794.875
1260.97859	58162.275
1264.52631	59717.975
1268.07163	61367.575
1271.61453	62923.175
1275.15503	64400.675
1278.69312	66024.975
1282.22882	67879.175
1285.76211	70310.575
1289.29301	73081.175
1292.82151	76052.375
1296.34761	79584.475
1299.87133	83786.775
1303.39266	88134.775
1306.9116	91947.675
1310.42815	94884.275
1313.94233	96174.075
1317.45412	94982.575
1320.96354	92252.175
1324.47058	90057.775
1327.97525	88539.975
1331.47754	87489.875
1334.97747	86540.575
1338.47502	85382.575
1341.97022	84287.775
1345.46305	83144.675
1348.95352	82356.475
1352.44163	82596.975
1355.92738	84664.275
1359.41078	88236.675
1362.89183	91278.475
1366.37053	91001.075
1369.84688	85554.675
1373.32088	77231.375
1376.79254	71276.875
1380.26186	69135.675
1383.72883	69158.375
1387.19347	69225.575
1390.65578	68406.475
1394.11575	68109.475
1397.57339	68832.275
1401.0287	70053.375
1404.48168	71030.875
1407.93234	71193.875
1411.38068	70108.975
1414.82669	68391.375
1418.27039	66353.275
1421.71177	64295.575
1425.15083	62670.475
1428.58758	62132.475
1432.02203	62953.075
1435.45416	64601.875
1438.88399	66321.475
1442.31151	67247.975
1445.73673	67577.275
1449.15965	67541.975
1452.58027	67183.475
1455.9986	66676.575
1459.41463	66962.375
1462.82837	67909.075
1466.23982	69288.675
1469.64898	70584.375
1473.05586	71461.875
1476.46045	72000.475
1479.86276	71943.975
1483.26279	71534.375
1486.66054	71395.275
1490.05602	71789.575
1493.44922	72536.375
1496.84016	72828.475
1500.22882	73035.475
1503.61521	73229.675
1506.99934	73503.475
1510.38121	73644.475
1513.76081	73146.375
1517.13816	72137.375
1520.51324	71266.675
1523.88607	71139.175
1527.25665	71915.475
1530.62498	72633.575
1533.99105	72493.575
1537.35488	71420.275
1540.71647	69777.075
1544.07581	67914.075
1547.4329	66070.975
1550.78776	64477.175
1554.14038	63407.375
1557.49077	62783.975
1560.83892	62375.475
1564.18484	62281.275
1567.52853	62259.775
1570.86999	62710.175
1574.20922	63611.975
1577.54624	64411.475
1580.88103	64724.275
1584.2136	65430.975
1587.54395	67882.175
1590.87208	71878.275
1594.19801	76856.075
1597.52172	81309.875
1600.84321	82710.675
1604.16251	79323.075
1607.47959	73055.975
1610.79447	66463.175
1614.10715	60992.375
1617.41763	56873.375
1620.7259	54308.575
1624.03199	53170.275
1627.33587	53346.075
1630.63757	54777.075
1633.93707	58128.375
1637.23439	63771.675
1640.52951	72628.375
1643.82246	83328.475
1647.11321	91745.575
1650.40179	92149.575
1653.68819	84051.075
1656.97241	72229.075
1660.25446	61996.775
1663.53433	54999.675
1666.81203	50814.475
1670.08756	48391.275
1673.36092	46899.375
1676.63211	45807.375
1679.90115	45083.875
1683.16801	44478.275
1686.43272	44077.675
1689.69527	43802.775
1692.95567	43525.875
1696.2139	43409.075
1699.46999	43340.175
1702.72392	43166.575
1705.97571	43084.275
1709.22535	43005.475
1712.47284	42987.675
1715.71819	43025.875
1718.96139	42938.475
1722.20246	42907.275
1725.44139	42679.975
1728.67818	42507.375
1731.91284	42309.875
1735.14537	42126.475
1738.37576	41937.475
1741.60403	41836.975
1744.83017	41723.175
1748.05418	41613.675
1751.27607	41557.475
1754.49584	41499.975
1757.71349	41479.175
1760.92903	41461.675
1764.14244	41438.675
1767.35375	41425.775
1770.56294	41343.375
1773.77002	41361.175
1776.97499	41329.375
1780.17785	41261.175
1783.37861	41198.775
1786.57727	41080.275
1789.77382	41061.875
1792.96828	41036.475
1796.16064	40992.275
1799.3509	40928.875
1802.53907	40855.075
1805.72514	40727.075
1808.90913	40668.475
1812.09102	40583.075
1815.27083	40535.675
1818.44856	40494.175
1821.6242	40466.575
1824.79776	40383.875
1827.96924	40378.775
1831.13864	40419.775
1834.30597	40372.775
1837.47122	40324.775
1840.6344	40251.975
1843.7955	40312.375
1846.95454	40300.275
1850.11151	40315.575
1853.26642	40295.175
1856.41926	40304.175
1859.57004	40259.275
1862.71876	40230.475
1865.86542	40195.875
1869.01003	40128.575
1872.15258	40084.875
1875.29308	40052.075
1878.43152	40050.675
1881.56792	40030.575
1884.70227	39988.475
1887.83457	39996.675
1890.96482	40007.775
1894.09304	39927.375
1897.21921	39844.275
1900.34335	39813.475
1903.46544	39767.375
1906.58551	39802.375
1909.70353	39703.675
1912.81953	39716.075
1915.93349	39637.275
1919.04543	39465.475
1922.15534	39460.775
1925.26322	39383.675
1928.36908	39353.175
1931.47292	39320.975
1934.57473	39186.475
1937.67453	39122.475
1940.77232	39058.875
1943.86808	38924.675
1946.96184	38818.075
1950.05358	38724.175
1953.14331	38622.775
1956.23103	38559.975
1959.31675	38455.675
1962.40046	38347.375
1965.48217	38164.675
1968.56188	38107.275
1971.63959	37999.875
1974.7153	37922.175
1977.78901	37734.775
1980.86073	37616.075
1983.93046	37588.375
1986.99819	37462.075
1990.06394	37381.175
1993.1277	37340.075
1996.18947	37192.375
1999.24925	37128.275
2002.30706	37040.575
2005.36288	36897.875
2008.41672	36804.075
2011.46859	36745.875
2014.51848	36625.875
2017.56639	36556.975
2020.61233	36425.175
2023.6563	36353.075
2026.6983	36263.875
2029.73833	36178.075
2032.7764	36112.175
2035.8125	36064.675
2038.84664	35989.175
2041.87881	35961.375
2044.90903	35888.975
2047.93729	35810.075
2050.96359	35817.275
2053.98794	35781.375
2057.01034	35790.775
2060.03078	35802.475
2063.04927	35787.975
2066.06582	35775.375
2069.08042	35775.975
2072.09307	35710.775
2075.10378	35668.675
2078.11255	35595.875
2081.11938	35604.975
2084.12426	35598.975
2087.12722	35574.375
2090.12824	35532.975
2093.12732	35663.175
2096.12447	35630.775
2099.11969	35581.575
2102.11299	35612.975
2105.10435	35608.975
2108.09379	35685.075
2111.08131	35701.475
2114.0669	35637.375
2117.05057	35648.875
2120.03233	35632.575
2123.01216	35693.175
2125.99008	35752.675
2128.96609	35825.575
2131.94018	35840.075
2134.91236	35886.675
2137.88263	35951.275
2140.851	35967.775
2143.81746	35982.675
2146.78201	35958.075
2149.74466	36059.175
2152.7054	36020.175
2155.66425	36013.575
2158.6212	36027.275
2161.57625	36004.575
2164.52941	36012.175
2167.48067	35974.975
2170.43004	35909.175
2173.37752	35978.675
2176.32311	35991.875
2179.26681	36007.175
2182.20863	36017.675
2185.14856	36033.875
2188.08661	36058.475
2191.02278	36024.175
2193.95707	35990.275
2196.88948	35923.275
2199.82001	35925.775
2202.74867	35882.675
2205.67545	35820.575
2208.60037	35802.575
2211.52341	35752.575
2214.44458	35716.375
2217.36388	35701.675
2220.28132	35624.775
2223.1969	35529.775
2226.11061	35482.075
2229.02246	35441.475
2231.93245	35356.175
2234.84058	35333.875
2237.74686	35371.775
2240.65128	35368.075
2243.55385	35277.075
2246.45456	35240.875
2249.35343	35111.575
2252.25044	35050.075
2255.14561	35054.875
2258.03893	35005.775
2260.93041	34874.275
2263.82004	34808.075
2266.70783	34725.575
2269.59378	34660.775
2272.4779	34570.275
2275.36017	34505.575
2278.24061	34530.575
2281.11922	34438.775
2283.996	34356.175
2286.87094	34345.075
2289.74405	34275.975
2292.61534	34261.475
2295.4848	34267.775
2298.35243	34289.475
2301.21824	34230.275
2304.08223	34233.775
2306.94439	34174.775
2309.80474	34218.775
2312.66327	34172.075
2315.51999	34132.675
2318.37489	34063.575
2321.22797	33997.675
2324.07925	33990.875
2326.92871	33931.575
2329.77637	33894.075
2332.62222	33903.175
2335.46626	33866.575
2338.3085	33791.475
2341.14893	33814.175
2343.98756	33750.175
2346.8244	33742.375
2349.65943	33735.475
2352.49267	33752.775
2355.32411	33732.475
2358.15376	33694.575
2360.98161	33732.975
2363.80768	33695.575
2366.63195	33656.375
2369.45444	33637.775
2372.27514	33583.475
2375.09405	33602.675
2377.91118	33518.675
2380.72652	33444.675
2383.54009	33366.575
2386.35187	33298.975
2389.16188	33175.075
2391.97011	33130.275
2394.77657	33146.375
2397.58125	33073.075
2400.38416	33065.075
2403.18529	32981.975
2405.98466	32956.875
2408.78226	32909.875
2411.57809	32907.975
2414.37216	32841.375
2417.16446	32853.575
2419.955	32854.875
2422.74378	32759.475
2425.5308	32768.875
2428.31606	32791.775
2431.09956	32836.275
2433.88131	32765.875
2436.6613	32800.675
2439.43954	32760.875
2442.21603	32693.475
2444.99077	32683.075
2447.76377	32659.875
2450.53501	32602.075
2453.30451	32700.275
2456.07226	32653.075
2458.83827	32622.475
2461.60254	32613.175
2464.36507	32552.375
2467.12586	32522.975
2469.88492	32573.075
2472.64224	32538.775
2475.39782	32526.975
2478.15167	32559.375
2480.90379	32559.775
2483.65417	32559.675
2486.40283	32546.475
2489.14976	32540.275
2491.89497	32474.975
2494.63845	32535.575
2497.3802	32513.575
2500.12024	32489.375
2502.85855	32442.775
2505.59514	32428.475
2508.33002	32416.075
2511.06318	32360.475
2513.79462	32323.975
2516.52435	32335.275
2519.25237	32279.275
2521.97867	32279.575
2524.70327	32289.475
2527.42616	32201.175
2530.14734	32206.175
2532.86681	32114.275
2535.58458	32124.075
2538.30065	32162.375
2541.01501	32153.475
2543.72768	32129.175
2546.43864	32100.075
2549.14791	32055.475
2551.85548	31990.375
2554.56136	31938.675
2557.26554	31892.975
2559.96803	31861.175
2562.66883	31813.475
2565.36794	31777.675
2568.06536	31797.375
2570.7611	31769.075
2573.45514	31717.675
2576.14751	31637.975
2578.83819	31616.675
2581.52719	31612.975
2584.21451	31562.975
2586.90015	31529.675
2589.58411	31473.975
2592.2664	31500.575
2594.94701	31482.275
2597.62594	31472.475
2600.30321	31393.375
2602.9788	31414.975
2605.65273	31352.875
2608.32498	31388.075
2610.99557	31373.875
2613.66449	31378.075
2616.33175	31285.075
2618.99734	31261.775
2621.66128	31230.975
2624.32355	31206.875
2626.98416	31197.675
2629.64311	31129.975
2632.30041	31145.275
2634.95605	31094.675
2637.61004	31044.575
2640.26238	31032.775
2642.91306	31055.575
2645.56209	30992.575
2648.20948	31017.875
2650.85521	31007.675
2653.4993	31047.675
2656.14175	31078.975
2658.78255	31119.375
2661.42171	31075.575
2664.05923	31133.275
2666.6951	31117.275
2669.32934	31112.775
2671.96194	31097.675
2674.59291	31118.075
2677.22224	31129.475
2679.84993	31137.375
2682.476	31141.675
2685.10043	31138.975
2687.72324	31094.075
2690.34441	31093.575
2692.96396	31051.075
2695.58188	31123.975
2698.19818	31075.075
2700.81285	31062.575
2703.4259	31086.675
2706.03733	31112.675
2708.64714	31097.475
2711.25533	31106.275
2713.86191	31188.475
2716.46687	31239.575
2719.07021	31230.275
2721.67194	31231.675
2724.27206	31180.475
2726.87057	31246.675
2729.46747	31263.775
2732.06276	31232.975
2734.65644	31261.175
2737.24852	31254.375
2739.83899	31221.375
2742.42786	31237.275
2745.01513	31232.775
2747.60079	31220.475
2750.18486	31194.175
2752.76733	31213.675
2755.3482	31153.875
2757.92747	31095.075
2760.50515	31030.875
2763.08123	31054.175
2765.65573	31035.975
2768.22863	30999.475
2770.79994	30907.475
2773.36967	30950.875
2775.9378	30970.475
2778.50435	30956.675
2781.06932	30924.875
2783.6327	30904.475
2786.1945	30913.275
2788.75471	30878.875
2791.31335	30780.875
2793.87041	30690.075
2796.42589	30668.475
2798.97979	30670.575
2801.53212	30586.675
2804.08288	30506.575
2806.63206	30506.675
2809.17967	30379.475
2811.72571	30369.175
2814.27018	30233.075
2816.81308	30155.675
2819.35442	30148.575
2821.89419	30066.875
2824.43239	30090.075
2826.96904	30026.675
2829.50412	30024.775
2832.03763	29948.075
2834.56959	29924.775
2837.1	29908.575
2839.62884	29870.475
2842.15613	29833.375
2844.68186	29850.575
2847.20604	29816.175
2849.72867	29813.375
2852.24974	29746.875
2854.76927	29702.475
2857.28724	29680.275
2859.80367	29653.875
2862.31855	29616.075
2864.83189	29589.075
2867.34368	29585.775
2869.85393	29553.175
2872.36264	29408.475
2874.8698	29388.875
2877.37543	29402.275
2879.87952	29392.975
2882.38207	29418.875
2884.88308	29393.675
2887.38256	29429.375
2889.88051	29403.075
2892.37692	29423.575
2894.8718	29462.875
2897.36515	29483.275
2899.85698	29447.575
2902.34727	29489.775
2904.83604	29480.375
2907.32328	29543.975
2909.809	29518.175
2912.29319	29527.875
2914.77587	29563.375
2917.25702	29534.575
2919.73665	29480.275
2922.21476	29497.375
2924.69136	29501.875
2927.16644	29479.475
2929.64	29462.575
2932.11205	29405.675
2934.58258	29358.375
2937.05161	29402.375
2939.51912	29376.975
2941.98513	29365.375
2944.44962	29340.375
2946.91261	29256.575
2949.37409	29336.175
2951.83407	29291.075
2954.29254	29318.575
2956.74951	29315.975
2959.20498	29313.875
2961.65895	29265.875
2964.11142	29284.075
2966.56239	29214.275
2969.01186	29231.475
2971.45984	29108.875
2973.90632	29088.075
2976.35131	29006.975
2978.7948	28978.275
2981.23681	28884.375
2983.67732	28867.475
2986.11635	28825.375
2988.55388	28733.175
2990.98993	28684.375
2993.4245	28591.875
2995.85758	28526.675
2998.28917	28460.575
3000.71928	28424.875
3003.14791	28316.475
3005.57506	28307.375
3008.00073	28245.375
3010.42493	28285.875
3012.84764	28213.875
3015.26888	28207.375
3017.68865	28107.475
3020.10694	28098.675
3022.52376	28001.975
3024.9391	27965.175
3027.35298	27945.375
3029.76539	27884.075
3032.17632	27870.575
3034.5858	27828.975
3036.9938	27793.475
3039.40034	27778.375
3041.80542	27786.975
3044.20903	27750.575
3046.61118	27677.075
3049.01187	27616.575
3051.4111	27620.475
3053.80888	27551.975
3056.20519	27520.975
3058.60005	27442.675
3060.99345	27431.775
3063.3854	27311.275
3065.7759	27210.975
3068.16494	27146.875
3070.55254	27048.575
3072.93868	27017.275
3075.32338	26909.575
3077.70662	26889.375
3080.08842	26825.975
3082.46878	26744.475
3084.84769	26657.675
3087.22515	26679.675
3089.60118	26651.775
3091.97576	26643.575
3094.3489	26667.575
3096.72061	26635.975
3099.09087	26628.675
3101.4597	26634.875
3103.82709	26621.975
3106.19305	26550.175
3108.55757	26545.875
3110.92066	26516.375
3113.28232	26497.775
3115.64255	26428.675
3118.00134	26324.475
3120.35871	26232.575
3122.71466	26144.475
3125.06917	26105.475
