Data from AgNPs_FTO_APTES_UA_20uM_CRN_1000uM_R6G_10uM_NaF_0.1M_Addition_RamanShift__24__19-39-45-038.txt Node

Date: Thu Feb 17 19:39:45 GMT 2022
User: TCL
Spectrometer: QEP01345
Trigger mode: 4
Integration Time (sec): 1.000000E1
Scans to average: 7
Electric dark correction enabled: true
Nonlinearity correction enabled: false
Boxcar width: 0
XAxis mode: Raman Shifts
Number of Pixels in Spectrum: 1044
>>>>>Begin Spectral Data<<<<<
46.04893	0.48214
50.45542	-1.08929
54.85868	1.19643
59.25871	-2.08929
63.6555	66.05357
68.04907	66.05357
72.43941	63.19643
76.82654	72.19643
81.21044	72.91071
85.59113	76.625
89.96862	82.76786
94.34289	80.19643
98.71396	88.76786
103.08183	86.91071
107.4465	94.19643
111.80798	91.19643
116.16626	90.625
120.52136	93.76786
124.87327	104.33929
129.222	107.625
133.56755	109.91071
137.90993	123.05357
142.24913	128.48214
146.58517	147.91071
150.91804	170.91071
155.24774	199.05357
159.57429	246.91071
163.89768	315.76786
168.21792	423.76786
172.53501	580.48214
176.84895	807.76786
181.15975	1136.625
185.46741	1612.48214
189.77193	2225.48214
194.07331	3007.625
198.37157	3908.19643
202.6667	4857.625
206.9587	5822.05357
211.24758	6795.76786
215.53334	7802.05357
219.81599	8875.91071
224.09553	10060.33929
228.37195	11445.625
232.64527	12865.05357
236.91549	14398.48214
241.18261	15756.33929
245.44663	16946.91071
249.70755	17915.33929
253.96539	18767.625
258.22014	19419.48214
262.4718	19976.48214
266.72039	20285.625
270.96589	20342.05357
275.20832	20137.48214
279.44768	19766.91071
283.68397	19328.48214
287.91719	18973.91071
292.14735	18884.91071
296.37445	19065.91071
300.59849	19552.91071
304.81948	20203.76786
309.03742	20731.48214
313.25231	20772.05357
317.46415	20139.48214
321.67296	19067.33929
325.87872	18176.33929
330.08145	17758.33929
334.28114	17817.05357
338.47781	18045.05357
342.67145	18424.76786
346.86207	18961.76786
351.04966	19820.48214
355.23424	20807.48214
359.4158	21649.19643
363.59435	22150.76786
367.76989	22334.05357
371.94243	22374.625
376.11196	22303.19643
380.27849	22203.625
384.44203	22137.48214
388.60257	21913.33929
392.76012	21768.625
396.91468	21867.91071
401.06626	22186.76786
405.21485	22482.625
409.36047	22163.76786
413.50311	21424.19643
417.64277	20613.19643
421.77947	20151.48214
425.9132	19910.48214
430.04396	19963.625
434.17176	20060.625
438.2966	20311.05357
442.41849	20796.33929
446.53742	21254.48214
450.6534	21815.48214
454.76644	22171.76786
458.87653	22263.48214
462.98368	22080.625
467.08789	21773.33929
471.18916	21439.19643
475.2875	21009.76786
479.38291	20662.91071
483.4754	20426.48214
487.56496	20254.19643
491.6516	20085.33929
495.73531	20050.48214
499.81612	20091.625
503.89401	20257.91071
507.96899	20397.33929
512.04106	20614.33929
516.11023	20883.91071
520.1765	21093.05357
524.23987	21174.48214
528.30034	21073.05357
532.35792	20900.91071
536.41261	20689.91071
540.46441	20469.33929
544.51333	20279.19643
548.55936	20279.76786
552.60252	20486.19643
556.64279	20828.91071
560.6802	21042.05357
564.71473	21325.625
568.7464	21802.33929
572.7752	22017.76786
576.80114	21533.19643
580.82422	21020.76786
584.84444	20832.625
588.86181	21060.91071
592.87633	21534.19643
596.888	21852.33929
600.89682	22234.33929
604.9028	23824.33929
608.90594	28358.91071
612.90624	34358.33929
616.90371	33390.48214
620.89834	25760.19643
624.89015	21873.76786
628.87913	21200.48214
632.86528	21350.05357
636.84862	21586.91071
640.82913	21414.625
644.80683	20711.19643
648.78172	20152.625
652.75379	20122.05357
656.72306	20570.33929
660.68952	21245.48214
664.65319	21106.19643
668.61405	20539.91071
672.57211	20281.05357
676.52738	20416.05357
680.47986	20499.19643
684.42955	20281.48214
688.37646	20120.48214
692.32058	20044.33929
696.26192	20088.76786
700.20048	20261.05357
704.13626	20398.05357
708.06928	20252.91071
711.99952	20042.91071
715.927	19961.91071
719.85171	19939.625
723.77365	20044.48214
727.69284	20009.625
731.60928	19956.91071
735.52295	19903.625
739.43388	19935.48214
743.34206	19970.48214
747.24749	19984.48214
751.15017	20010.33929
755.05012	20189.33929
758.94733	20702.76786
762.8418	22221.19643
766.73354	24850.48214
770.62254	27565.48214
774.50882	28935.19643
778.39237	28144.19643
782.27321	25375.33929
786.15132	22528.76786
790.02671	20777.48214
793.89938	19930.48214
797.76935	19609.33929
801.6366	19487.91071
805.50115	19467.91071
809.36299	19388.48214
813.22213	19353.48214
817.07857	19273.19643
820.93231	19225.76786
824.78336	19198.91071
828.63172	19228.76786
832.47738	19239.76786
836.32036	19198.91071
840.16066	19162.91071
843.99827	19144.48214
847.8332	19128.33929
851.66546	19125.625
855.49504	19170.05357
859.32195	19261.91071
863.1462	19252.33929
866.96777	19291.48214
870.78668	19281.76786
874.60293	19204.33929
878.41652	19200.19643
882.22745	19297.19643
886.03573	19276.625
889.84136	19314.05357
893.64433	19279.625
897.44466	19161.76786
901.24235	19080.33929
905.0374	18953.625
908.8298	18785.19643
912.61957	18711.625
916.40671	18718.48214
920.19121	18837.625
923.97308	19017.48214
927.75233	19172.76786
931.52895	19403.05357
935.30295	19330.33929
939.07433	18990.91071
942.84309	18640.19643
946.60924	18430.48214
950.37278	18278.48214
954.13371	18134.76786
957.89203	18105.76786
961.64774	18027.19643
965.40086	17987.33929
969.15137	17918.91071
972.89929	17841.76786
976.64461	17848.48214
980.38733	17835.33929
984.12747	17877.33929
987.86502	17999.05357
991.59999	18093.76786
995.33237	18324.48214
999.06217	18562.19643
1002.78939	18985.76786
1006.51404	19314.19643
1010.23611	19552.05357
1013.95561	19678.33929
1017.67255	19700.33929
1021.38692	19599.33929
1025.09872	19442.48214
1028.80796	19347.91071
1032.51465	19524.48214
1036.21877	19720.625
1039.92035	19759.91071
1043.61937	19744.48214
1047.31584	19587.91071
1051.00976	19359.91071
1054.70114	19186.33929
1058.38998	19088.625
1062.07627	19060.48214
1065.76003	19100.91071
1069.44126	19071.625
1073.11995	19173.19643
1076.79611	19394.48214
1080.46974	19591.625
1084.14085	19948.48214
1087.80943	20253.76786
1091.47549	20382.05357
1095.13903	20191.48214
1098.80005	19762.19643
1102.45857	19459.625
1106.11456	19396.33929
1109.76805	19575.76786
1113.41903	19950.625
1117.06751	20484.05357
1120.71348	21170.19643
1124.35696	21941.76786
1127.99793	22517.48214
1131.63641	22426.33929
1135.2724	21711.91071
1138.90589	20913.19643
1142.5369	20413.91071
1146.16542	20064.48214
1149.79145	19767.33929
1153.415	19667.91071
1157.03607	19693.76786
1160.65467	19976.48214
1164.27079	20454.48214
1167.88443	21239.48214
1171.49561	22353.76786
1175.10432	24043.19643
1178.71056	26471.76786
1182.31434	28695.19643
1185.91565	29508.33929
1189.51451	28796.48214
1193.11091	27263.48214
1196.70485	25686.48214
1200.29634	24626.625
1203.88538	23822.76786
1207.47197	22861.19643
1211.05612	21991.91071
1214.63782	21380.48214
1218.21708	21177.91071
1221.79391	21198.33929
1225.36829	21156.91071
1228.94024	21090.19643
1232.50976	20855.91071
1236.07685	20720.91071
1239.6415	20766.48214
1243.20374	20828.05357
1246.76355	20912.33929
1250.32093	21140.625
1253.8759	21518.76786
1257.42845	21961.19643
1260.97859	22457.625
1264.52631	22903.625
1268.07163	23409.19643
1271.61453	23926.91071
1275.15503	24318.05357
1278.69312	24613.05357
1282.22882	24911.625
1285.76211	25291.19643
1289.29301	25906.76786
1292.82151	26580.625
1296.34761	27445.33929
1299.87133	28767.05357
1303.39266	30860.625
1306.9116	34010.19643
1310.42815	37121.91071
1313.94233	38313.76786
1317.45412	36655.91071
1320.96354	33953.91071
1324.47058	31416.33929
1327.97525	29426.48214
1331.47754	28260.76786
1334.97747	27771.625
1338.47502	28043.05357
1341.97022	28843.625
1345.46305	29992.91071
1348.95352	31567.48214
1352.44163	33642.76786
1355.92738	36573.05357
1359.41078	40989.48214
1362.89183	44890.05357
1366.37053	43469.48214
1369.84688	37063.33929
1373.32088	31264.05357
1376.79254	27750.625
1380.26186	25911.76786
1383.72883	24792.05357
1387.19347	24018.91071
1390.65578	23378.19643
1394.11575	22846.33929
1397.57339	22682.91071
1401.0287	22805.91071
1404.48168	23002.19643
1407.93234	23265.48214
1411.38068	23502.19643
1414.82669	23633.91071
1418.27039	23521.76786
1421.71177	23313.33929
1425.15083	22913.625
1428.58758	22703.625
1432.02203	22821.33929
1435.45416	22992.48214
1438.88399	23105.19643
1442.31151	23039.625
1445.73673	23088.76786
1449.15965	23176.48214
1452.58027	23173.33929
1455.9986	23025.33929
1459.41463	22937.05357
1462.82837	23156.625
1466.23982	23568.48214
1469.64898	24032.05357
1473.05586	24426.33929
1476.46045	24557.76786
1479.86276	24790.33929
1483.26279	24987.05357
1486.66054	25362.33929
1490.05602	25859.625
1493.44922	26667.76786
1496.84016	27910.19643
1500.22882	29997.76786
1503.61521	33270.625
1506.99934	37241.76786
1510.38121	40271.48214
1513.76081	40325.48214
1517.13816	37327.33929
1520.51324	32865.05357
1523.88607	29090.48214
1527.25665	26737.76786
1530.62498	25449.05357
1533.99105	24739.19643
1537.35488	24380.625
1540.71647	24175.625
1544.07581	24086.05357
1547.4329	24183.48214
1550.78776	24144.48214
1554.14038	24222.33929
1557.49077	24344.625
1560.83892	24617.76786
1564.18484	25113.91071
1567.52853	25690.19643
1570.86999	26125.19643
1574.20922	26382.05357
1577.54624	26208.76786
1580.88103	25250.625
1584.2136	24027.33929
1587.54395	23370.91071
1590.87208	23627.05357
1594.19801	24706.48214
1597.52172	26147.48214
1600.84321	26902.19643
1604.16251	26386.05357
1607.47959	25158.91071
1610.79447	23695.91071
1614.10715	22211.91071
1617.41763	21115.91071
1620.7259	20331.48214
1624.03199	19991.625
1627.33587	19982.05357
1630.63757	20341.05357
1633.93707	21131.48214
1637.23439	22395.19643
1640.52951	24301.48214
1643.82246	26973.625
1647.11321	29820.625
1650.40179	31567.76786
1653.68819	30265.625
1656.97241	26687.33929
1660.25446	23114.33929
1663.53433	20699.76786
1666.81203	19306.76786
1670.08756	18404.76786
1673.36092	17884.625
1676.63211	17512.33929
1679.90115	17198.33929
1683.16801	16996.19643
1686.43272	16860.19643
1689.69527	16694.48214
1692.95567	16599.76786
1696.2139	16509.76786
1699.46999	16508.05357
1702.72392	16435.76786
1705.97571	16445.05357
1709.22535	16378.33929
1712.47284	16375.91071
1715.71819	16362.33929
1718.96139	16266.19643
1722.20246	16211.33929
1725.44139	16132.625
1728.67818	16069.33929
1731.91284	15972.05357
1735.14537	15947.48214
1738.37576	15905.05357
1741.60403	15854.76786
1744.83017	15825.625
1748.05418	15812.19643
1751.27607	15774.05357
1754.49584	15740.33929
1757.71349	15678.33929
1760.92903	15705.48214
1764.14244	15647.91071
1767.35375	15565.05357
1770.56294	15510.33929
1773.77002	15464.19643
1776.97499	15405.33929
1780.17785	15387.48214
1783.37861	15348.19643
1786.57727	15314.05357
1789.77382	15245.76786
1792.96828	15224.05357
1796.16064	15195.91071
1799.3509	15196.48214
1802.53907	15124.91071
1805.72514	15095.91071
1808.90913	15081.19643
1812.09102	15036.48214
1815.27083	14985.05357
1818.44856	14988.33929
1821.6242	14935.33929
1824.79776	14938.91071
1827.96924	14884.48214
1831.13864	14869.19643
1834.30597	14877.91071
1837.47122	14838.625
1840.6344	14819.76786
1843.7955	14831.05357
1846.95454	14811.48214
1850.11151	14766.76786
1853.26642	14758.19643
1856.41926	14771.05357
1859.57004	14785.19643
1862.71876	14758.76786
1865.86542	14737.76786
1869.01003	14731.05357
1872.15258	14753.625
1875.29308	14730.19643
1878.43152	14728.91071
1881.56792	14712.48214
1884.70227	14732.48214
1887.83457	14705.625
1890.96482	14688.48214
1894.09304	14666.48214
1897.21921	14664.33929
1900.34335	14651.05357
1903.46544	14635.33929
1906.58551	14599.625
1909.70353	14601.76786
1912.81953	14574.76786
1915.93349	14550.05357
1919.04543	14535.48214
1922.15534	14481.19643
1925.26322	14462.05357
1928.36908	14445.76786
1931.47292	14434.76786
1934.57473	14409.19643
1937.67453	14375.76786
1940.77232	14327.19643
1943.86808	14264.76786
1946.96184	14243.625
1950.05358	14200.48214
1953.14331	14174.76786
1956.23103	14153.05357
1959.31675	14106.91071
1962.40046	14075.76786
1965.48217	14065.19643
1968.56188	13988.48214
1971.63959	13976.76786
1974.7153	13939.91071
1977.78901	13935.19643
1980.86073	13888.91071
1983.93046	13785.76786
1986.99819	13731.33929
1990.06394	13698.33929
1993.1277	13650.19643
1996.18947	13594.625
1999.24925	13577.91071
2002.30706	13515.19643
2005.36288	13487.91071
2008.41672	13492.19643
2011.46859	13419.625
2014.51848	13352.625
2017.56639	13364.625
2020.61233	13289.33929
2023.6563	13274.76786
2026.6983	13212.05357
2029.73833	13223.19643
2032.7764	13184.91071
2035.8125	13163.19643
2038.84664	13104.05357
2041.87881	13111.05357
2044.90903	13082.33929
2047.93729	13057.76786
2050.96359	13074.625
2053.98794	13038.625
2057.01034	13039.76786
2060.03078	13054.91071
2063.04927	12993.48214
2066.06582	12984.91071
2069.08042	12961.625
2072.09307	12967.91071
2075.10378	12981.91071
2078.11255	12975.91071
2081.11938	12965.48214
2084.12426	12951.625
2087.12722	12918.91071
2090.12824	12942.48214
2093.12732	12950.33929
2096.12447	12977.76786
2099.11969	12928.33929
2102.11299	12936.48214
2105.10435	12922.33929
2108.09379	12946.05357
2111.08131	12976.91071
2114.0669	12965.91071
2117.05057	13005.33929
2120.03233	13004.91071
2123.01216	13030.05357
2125.99008	13025.76786
2128.96609	13061.33929
2131.94018	13087.05357
2134.91236	13044.19643
2137.88263	13039.76786
2140.851	13055.76786
2143.81746	13085.48214
2146.78201	13091.33929
2149.74466	13081.625
2152.7054	13088.91071
2155.66425	13061.625
2158.6212	13094.48214
2161.57625	13022.48214
2164.52941	13035.05357
2167.48067	13052.625
2170.43004	12993.05357
2173.37752	13052.19643
2176.32311	13050.625
2179.26681	13044.48214
2182.20863	13044.625
2185.14856	13062.625
2188.08661	13024.05357
2191.02278	13040.33929
2193.95707	13037.76786
2196.88948	12998.91071
2199.82001	12987.05357
2202.74867	12964.48214
2205.67545	12977.91071
2208.60037	12976.48214
2211.52341	12942.48214
2214.44458	12934.625
2217.36388	12933.91071
2220.28132	12914.91071
2223.1969	12900.76786
2226.11061	12873.48214
2229.02246	12824.19643
2231.93245	12774.33929
2234.84058	12744.33929
2237.74686	12721.05357
2240.65128	12759.76786
2243.55385	12758.625
2246.45456	12749.19643
2249.35343	12757.91071
2252.25044	12696.19643
2255.14561	12699.91071
2258.03893	12711.19643
2260.93041	12701.33929
2263.82004	12701.48214
2266.70783	12611.19643
2269.59378	12598.91071
2272.4779	12559.19643
2275.36017	12563.91071
2278.24061	12501.76786
2281.11922	12477.76786
2283.996	12457.76786
2286.87094	12485.19643
2289.74405	12456.19643
2292.61534	12401.625
2295.4848	12407.76786
2298.35243	12442.33929
2301.21824	12408.05357
2304.08223	12387.625
2306.94439	12389.48214
2309.80474	12361.76786
2312.66327	12389.76786
2315.51999	12387.33929
2318.37489	12336.05357
2321.22797	12344.76786
2324.07925	12343.33929
2326.92871	12297.625
2329.77637	12303.19643
2332.62222	12293.91071
2335.46626	12293.05357
2338.3085	12299.91071
2341.14893	12286.76786
2343.98756	12272.625
2346.8244	12316.48214
2349.65943	12264.91071
2352.49267	12257.05357
2355.32411	12285.625
2358.15376	12238.05357
2360.98161	12267.91071
2363.80768	12283.19643
2366.63195	12261.625
2369.45444	12210.625
2372.27514	12226.19643
2375.09405	12204.91071
2377.91118	12206.48214
2380.72652	12167.625
2383.54009	12112.33929
2386.35187	12092.48214
2389.16188	12051.76786
2391.97011	12033.48214
2394.77657	11995.76786
2397.58125	11984.33929
2400.38416	11995.33929
2403.18529	11975.48214
2405.98466	11968.625
2408.78226	11878.05357
2411.57809	11871.625
2414.37216	11891.625
2417.16446	11870.33929
2419.955	11849.91071
2422.74378	11834.33929
2425.5308	11853.33929
2428.31606	11832.48214
2431.09956	11846.19643
2433.88131	11827.625
2436.6613	11815.625
2439.43954	11817.19643
2442.21603	11791.625
2444.99077	11801.91071
2447.76377	11819.91071
2450.53501	11789.19643
2453.30451	11806.19643
2456.07226	11765.625
2458.83827	11776.33929
2461.60254	11755.91071
2464.36507	11741.625
2467.12586	11699.91071
2469.88492	11710.76786
2472.64224	11723.76786
2475.39782	11730.625
2478.15167	11734.76786
2480.90379	11740.33929
2483.65417	11762.19643
2486.40283	11769.76786
2489.14976	11785.05357
2491.89497	11774.19643
2494.63845	11801.19643
2497.3802	11768.91071
2500.12024	11783.76786
2502.85855	11728.05357
2505.59514	11712.91071
2508.33002	11703.76786
2511.06318	11657.625
2513.79462	11613.33929
2516.52435	11613.76786
2519.25237	11600.48214
2521.97867	11590.48214
2524.70327	11564.19643
2527.42616	11558.05357
2530.14734	11555.05357
2532.86681	11541.19643
2535.58458	11525.625
2538.30065	11520.91071
2541.01501	11521.91071
2543.72768	11517.625
2546.43864	11485.48214
2549.14791	11500.48214
2551.85548	11512.48214
2554.56136	11440.76786
2557.26554	11429.625
2559.96803	11414.91071
2562.66883	11413.05357
2565.36794	11371.76786
2568.06536	11366.48214
2570.7611	11377.05357
2573.45514	11346.76786
2576.14751	11310.48214
2578.83819	11314.05357
2581.52719	11302.91071
2584.21451	11285.33929
2586.90015	11280.76786
2589.58411	11278.48214
2592.2664	11267.625
2594.94701	11252.33929
2597.62594	11222.91071
2600.30321	11158.05357
2602.9788	11186.625
2605.65273	11176.05357
2608.32498	11145.625
2610.99557	11148.76786
2613.66449	11175.33929
2616.33175	11138.625
2618.99734	11170.33929
2621.66128	11144.625
2624.32355	11125.625
2626.98416	11099.05357
2629.64311	11106.625
2632.30041	11085.33929
2634.95605	11067.625
2637.61004	11037.625
2640.26238	11037.91071
2642.91306	11055.625
2645.56209	11057.625
2648.20948	11026.19643
2650.85521	11026.48214
2653.4993	11039.625
2656.14175	11041.19643
2658.78255	11068.33929
2661.42171	11076.625
2664.05923	11060.05357
2666.6951	11078.91071
2669.32934	11061.19643
2671.96194	11050.91071
2674.59291	11076.48214
2677.22224	11050.19643
2679.84993	11073.05357
2682.476	11049.91071
2685.10043	11064.19643
2687.72324	11040.19643
2690.34441	11052.33929
2692.96396	11018.91071
2695.58188	11055.33929
2698.19818	11066.33929
2700.81285	11028.91071
2703.4259	11014.19643
2706.03733	11029.33929
2708.64714	11044.33929
2711.25533	11039.48214
2713.86191	11064.19643
2716.46687	11055.19643
2719.07021	11030.625
2721.67194	11083.91071
2724.27206	11056.19643
2726.87057	11058.91071
2729.46747	11049.19643
2732.06276	11075.76786
2734.65644	11069.05357
2737.24852	11074.625
2739.83899	11045.76786
2742.42786	11030.625
2745.01513	11017.48214
2747.60079	10986.76786
2750.18486	10992.33929
2752.76733	10983.33929
2755.3482	10974.48214
2757.92747	11016.05357
2760.50515	10962.76786
2763.08123	10960.33929
2765.65573	10931.19643
2768.22863	10930.625
2770.79994	10905.33929
2773.36967	10945.48214
2775.9378	10904.76786
2778.50435	10939.19643
2781.06932	10885.625
2783.6327	10901.05357
2786.1945	10879.05357
2788.75471	10855.05357
2791.31335	10850.05357
2793.87041	10863.33929
2796.42589	10865.91071
2798.97979	10836.33929
2801.53212	10839.19643
2804.08288	10834.19643
2806.63206	10827.48214
2809.17967	10764.625
2811.72571	10754.48214
2814.27018	10754.05357
2816.81308	10749.91071
2819.35442	10746.05357
2821.89419	10753.91071
2824.43239	10740.19643
2826.96904	10726.48214
2829.50412	10736.76786
2832.03763	10702.05357
2834.56959	10722.33929
2837.1	10694.05357
2839.62884	10705.48214
2842.15613	10682.91071
2844.68186	10670.625
2847.20604	10674.91071
2849.72867	10643.625
2852.24974	10665.91071
2854.76927	10638.76786
2857.28724	10653.91071
2859.80367	10648.625
2862.31855	10643.33929
2864.83189	10625.76786
2867.34368	10606.91071
2869.85393	10641.05357
2872.36264	10621.33929
2874.8698	10657.33929
2877.37543	10662.05357
2879.87952	10648.48214
2882.38207	10665.33929
2884.88308	10657.625
2887.38256	10688.48214
2889.88051	10673.05357
2892.37692	10707.05357
2894.8718	10698.91071
2897.36515	10728.76786
2899.85698	10708.625
2902.34727	10743.76786
2904.83604	10734.33929
2907.32328	10776.33929
2909.809	10772.05357
2912.29319	10799.76786
2914.77587	10827.625
2917.25702	10824.91071
2919.73665	10812.91071
2922.21476	10821.48214
2924.69136	10778.76786
2927.16644	10794.625
2929.64	10797.91071
2932.11205	10800.91071
2934.58258	10747.19643
2937.05161	10771.76786
2939.51912	10731.19643
2941.98513	10762.91071
2944.44962	10752.91071
2946.91261	10716.05357
2949.37409	10701.33929
2951.83407	10701.05357
2954.29254	10689.625
2956.74951	10685.76786
