Data from AgNPs_FTO_APTES_UA_20uM_CRN_20uM_R6G_10uM_NaF_0.1M_Addition_RamanShift__7__14-58-12-242.txt Node

Date: Thu Feb 17 14:58:12 GMT 2022
User: TCL
Spectrometer: QEP01345
Trigger mode: 4
Integration Time (sec): 7.000000E0
Scans to average: 10
Electric dark correction enabled: true
Nonlinearity correction enabled: false
Boxcar width: 0
XAxis mode: Raman Shifts
Number of Pixels in Spectrum: 1044
>>>>>Begin Spectral Data<<<<<
46.04893	-0.775
50.45542	-0.575
54.85868	-2.775
59.25871	-1.075
63.6555	133.825
68.04907	137.325
72.43941	140.725
76.82654	143.125
81.21044	150.325
85.59113	156.225
89.96862	156.425
94.34289	162.725
98.71396	163.225
103.08183	172.425
107.4465	181.525
111.80798	179.425
116.16626	187.225
120.52136	195.525
124.87327	207.325
129.222	220.525
133.56755	236.125
137.90993	254.425
142.24913	277.425
146.58517	319.825
150.91804	380.625
155.24774	451.725
159.57429	564.925
163.89768	737.725
168.21792	985.725
172.53501	1362.425
176.84895	1914.925
181.15975	2700.925
185.46741	3810.025
189.77193	5298.825
194.07331	7117.525
198.37157	9192.625
202.6667	11378.025
206.9587	13556.025
211.24758	15682.625
215.53334	17787.225
219.81599	19985.725
224.09553	22385.725
228.37195	25090.725
232.64527	28025.425
236.91549	31163.425
241.18261	34497.325
245.44663	37562.725
249.70755	40454.625
253.96539	42960.225
258.22014	45147.225
262.4718	46849.125
266.72039	48011.925
270.96589	48695.625
275.20832	48819.025
279.44768	48603.525
283.68397	48243.425
287.91719	47892.125
292.14735	47593.725
296.37445	47523.225
300.59849	47580.025
304.81948	47671.625
309.03742	47699.425
313.25231	47470.425
317.46415	47055.025
321.67296	46446.625
325.87872	45890.825
330.08145	45681.225
334.28114	45806.025
338.47781	46154.425
342.67145	46685.725
346.86207	47303.425
351.04966	47997.025
355.23424	48698.625
359.4158	49238.825
363.59435	49768.425
367.76989	50133.725
371.94243	50504.825
376.11196	50799.325
380.27849	51075.625
384.44203	51377.725
388.60257	51808.425
392.76012	52352.525
396.91468	52886.925
401.06626	53503.825
405.21485	53931.225
409.36047	53975.225
413.50311	53617.325
417.64277	53402.325
421.77947	53420.925
425.9132	53662.125
430.04396	53947.725
434.17176	54331.425
438.2966	54692.025
442.41849	55338.625
446.53742	56420.425
450.6534	57578.525
454.76644	58545.025
458.87653	58978.025
462.98368	58859.425
467.08789	58535.125
471.18916	58005.525
475.2875	57432.025
479.38291	57025.225
483.4754	56697.625
487.56496	56312.625
491.6516	55859.525
495.73531	55497.225
499.81612	55215.425
503.89401	55491.325
507.96899	55744.425
512.04106	55839.125
516.11023	55789.625
520.1765	55564.825
524.23987	55478.325
528.30034	55298.425
532.35792	55104.325
536.41261	54778.825
540.46441	54537.825
544.51333	54619.625
548.55936	55041.325
552.60252	55775.225
556.64279	56664.125
560.6802	57315.025
564.71473	57642.225
568.7464	58173.425
572.7752	59209.225
576.80114	60488.725
580.82422	61806.825
584.84444	62963.325
588.86181	64454.025
592.87633	65645.025
596.888	65622.125
600.89682	64431.925
604.9028	64376.325
608.90594	66758.525
612.90624	69345.725
616.90371	66432.125
620.89834	60080.925
624.89015	57352.225
628.87913	57072.625
632.86528	57423.225
636.84862	57557.425
640.82913	57172.825
644.80683	56354.825
648.78172	55773.125
652.75379	55680.725
656.72306	56156.325
660.68952	56751.925
664.65319	56669.825
668.61405	56186.825
672.57211	56195.625
676.52738	56464.625
680.47986	56536.925
684.42955	56321.625
688.37646	56191.325
692.32058	56482.525
696.26192	57014.325
700.20048	57645.225
704.13626	57960.625
708.06928	58067.425
711.99952	57953.725
715.927	57893.325
719.85171	57848.925
723.77365	57734.025
727.69284	57378.525
731.60928	56876.925
735.52295	56744.025
739.43388	56765.025
743.34206	56879.625
747.24749	57100.425
751.15017	57391.525
755.05012	58059.225
758.94733	59068.325
762.8418	60820.525
766.73354	63502.025
770.62254	65935.725
774.50882	66409.425
778.39237	64624.425
782.27321	61888.825
786.15132	59662.825
790.02671	58190.225
793.89938	57424.425
797.76935	57066.725
801.6366	56917.725
805.50115	56816.925
809.36299	56672.525
813.22213	56518.225
817.07857	56420.325
820.93231	56483.225
824.78336	56431.825
828.63172	56381.725
832.47738	56345.825
836.32036	56351.325
840.16066	56345.025
843.99827	56514.925
847.8332	56620.525
851.66546	56675.525
855.49504	56937.725
859.32195	56938.125
863.1462	56933.225
866.96777	56901.625
870.78668	56869.425
874.60293	56922.725
878.41652	56982.425
882.22745	57117.025
886.03573	57235.825
889.84136	57212.025
893.64433	57043.525
897.44466	56839.925
901.24235	56803.225
905.0374	56720.325
908.8298	56709.825
912.61957	56758.025
916.40671	57155.925
920.19121	57727.625
923.97308	57984.925
927.75233	57839.625
931.52895	57407.725
935.30295	57010.925
939.07433	56471.925
942.84309	56163.325
946.60924	55904.025
950.37278	55850.225
954.13371	55998.125
957.89203	55884.625
961.64774	55866.325
965.40086	55816.325
969.15137	55803.225
972.89929	55711.025
976.64461	55654.425
980.38733	55702.725
984.12747	55795.425
987.86502	56018.325
991.59999	56331.425
995.33237	56635.425
999.06217	57167.925
1002.78939	57827.425
1006.51404	58551.925
1010.23611	59346.425
1013.95561	59864.125
1017.67255	59991.825
1021.38692	59731.525
1025.09872	59183.925
1028.80796	58628.725
1032.51465	58541.725
1036.21877	58748.725
1039.92035	58894.825
1043.61937	58967.525
1047.31584	58941.925
1051.00976	58994.125
1054.70114	59058.525
1058.38998	59330.725
1062.07627	59774.325
1065.76003	60253.125
1069.44126	60825.325
1073.11995	61561.425
1076.79611	62081.625
1080.46974	62427.525
1084.14085	62625.825
1087.80943	62899.525
1091.47549	63317.825
1095.13903	63408.525
1098.80005	63053.125
1102.45857	62273.525
1106.11456	61574.825
1109.76805	61231.225
1113.41903	61147.125
1117.06751	61333.825
1120.71348	61605.025
1124.35696	62025.125
1127.99793	62322.125
1131.63641	62462.925
1135.2724	62389.225
1138.90589	62249.825
1142.5369	62352.125
1146.16542	62526.725
1149.79145	62765.325
1153.415	62994.125
1157.03607	63403.925
1160.65467	64310.225
1164.27079	65841.925
1167.88443	67694.925
1171.49561	69953.625
1175.10432	72654.825
1178.71056	75975.425
1182.31434	79154.725
1185.91565	80905.225
1189.51451	80987.925
1193.11091	80277.925
1196.70485	78819.625
1200.29634	77134.625
1203.88538	75854.225
1207.47197	75059.325
1211.05612	74300.625
1214.63782	73237.725
1218.21708	71944.425
1221.79391	70743.925
1225.36829	69887.325
1228.94024	69470.025
1232.50976	68851.325
1236.07685	68173.825
1239.6415	67908.825
1243.20374	68000.125
1246.76355	68299.625
1250.32093	68989.725
1253.8759	69965.725
1257.42845	71190.325
1260.97859	72495.925
1264.52631	73795.425
1268.07163	75014.525
1271.61453	76289.925
1275.15503	77403.025
1278.69312	78672.225
1282.22882	79926.625
1285.76211	81382.125
1289.29301	83136.225
1292.82151	85418.125
1296.34761	88135.325
1299.87133	91499.025
1303.39266	94914.525
1306.9116	98124.325
1310.42815	100687.225
1313.94233	101995.225
1317.45412	101782.225
1320.96354	100720.525
1324.47058	99735.925
1327.97525	98849.825
1331.47754	98104.325
1334.97747	97756.425
1338.47502	97664.625
1341.97022	97996.925
1345.46305	98381.825
1348.95352	98471.125
1352.44163	98354.925
1355.92738	98866.725
1359.41078	100392.425
1362.89183	101628.625
1366.37053	99926.125
1369.84688	94491.325
1373.32088	87769.825
1376.79254	82980.525
1380.26186	80938.425
1383.72883	80810.725
1387.19347	81001.925
1390.65578	80560.225
1394.11575	79931.125
1397.57339	79768.925
1401.0287	80119.225
1404.48168	80574.525
1407.93234	80381.625
1411.38068	79534.625
1414.82669	78082.325
1418.27039	76249.025
1421.71177	74464.125
1425.15083	72986.925
1428.58758	72295.725
1432.02203	72658.125
1435.45416	73688.025
1438.88399	75113.325
1442.31151	76172.125
1445.73673	76874.925
1449.15965	77243.225
1452.58027	77364.925
1455.9986	77349.625
1459.41463	77688.825
1462.82837	78563.825
1466.23982	79642.825
1469.64898	80794.325
1473.05586	81662.025
1476.46045	82033.125
1479.86276	81759.625
1483.26279	81282.825
1486.66054	80989.025
1490.05602	81213.625
1493.44922	81930.625
1496.84016	82820.825
1500.22882	84162.525
1503.61521	86296.525
1506.99934	88491.925
1510.38121	89870.125
1513.76081	89813.725
1517.13816	88285.325
1520.51324	86411.725
1523.88607	85163.925
1527.25665	84854.025
1530.62498	84817.425
1533.99105	84615.125
1537.35488	83943.425
1540.71647	82833.625
1544.07581	81440.825
1547.4329	79970.325
1550.78776	78871.325
1554.14038	77803.925
1557.49077	77204.825
1560.83892	76897.225
1564.18484	76837.525
1567.52853	76911.825
1570.86999	77393.625
1574.20922	78242.525
1577.54624	78821.925
1580.88103	78747.125
1584.2136	78700.325
1587.54395	79814.625
1590.87208	82053.125
1594.19801	85115.425
1597.52172	88417.925
1600.84321	89315.225
1604.16251	87132.625
1607.47959	83215.425
1610.79447	79041.025
1614.10715	74846.025
1617.41763	71192.325
1620.7259	68520.125
1624.03199	66993.625
1627.33587	66749.825
1630.63757	67636.725
1633.93707	70056.425
1637.23439	74425.825
1640.52951	80707.525
1643.82246	88023.025
1647.11321	93830.225
1650.40179	94705.025
1653.68819	89884.325
1656.97241	81705.125
1660.25446	73800.425
1663.53433	67739.625
1666.81203	63855.025
1670.08756	61336.825
1673.36092	59847.825
1676.63211	58801.525
1679.90115	57943.025
1683.16801	57358.025
1686.43272	56857.525
1689.69527	56585.425
1692.95567	56348.225
1696.2139	56177.025
1699.46999	56055.925
1702.72392	55974.925
1705.97571	55914.625
1709.22535	55752.925
1712.47284	55728.325
1715.71819	55821.825
1718.96139	55716.825
1722.20246	55617.925
1725.44139	55369.825
1728.67818	55138.725
1731.91284	54933.625
1735.14537	54731.825
1738.37576	54599.425
1741.60403	54572.925
1744.83017	54401.725
1748.05418	54256.725
1751.27607	54166.325
1754.49584	54145.025
1757.71349	54222.025
1760.92903	54164.125
1764.14244	54065.925
1767.35375	54062.725
1770.56294	53914.625
1773.77002	53918.425
1776.97499	53792.225
1780.17785	53783.825
1783.37861	53677.425
1786.57727	53647.425
1789.77382	53579.925
1792.96828	53554.525
1796.16064	53434.325
1799.3509	53301.325
1802.53907	53226.725
1805.72514	53109.325
1808.90913	53012.525
1812.09102	53027.525
1815.27083	52963.825
1818.44856	52816.725
1821.6242	52801.525
1824.79776	52772.425
1827.96924	52736.025
1831.13864	52735.925
1834.30597	52718.225
1837.47122	52610.725
1840.6344	52565.625
1843.7955	52570.225
1846.95454	52625.825
1850.11151	52599.125
1853.26642	52484.125
1856.41926	52489.725
1859.57004	52389.125
1862.71876	52360.325
1865.86542	52301.025
1869.01003	52307.825
1872.15258	52273.225
1875.29308	52274.325
1878.43152	52130.825
1881.56792	52112.625
1884.70227	51990.525
1887.83457	51944.425
1890.96482	51898.525
1894.09304	51974.625
1897.21921	51908.425
1900.34335	51855.025
1903.46544	51820.925
1906.58551	51728.625
1909.70353	51659.825
1912.81953	51644.225
1915.93349	51470.725
1919.04543	51326.825
1922.15534	51294.725
1925.26322	51200.525
1928.36908	51133.925
1931.47292	51109.125
1934.57473	51041.825
1937.67453	50966.625
1940.77232	50868.525
1943.86808	50724.725
1946.96184	50674.825
1950.05358	50531.325
1953.14331	50406.425
1956.23103	50311.025
1959.31675	50127.325
1962.40046	49949.525
1965.48217	49842.325
1968.56188	49776.225
1971.63959	49643.725
1974.7153	49413.025
1977.78901	49215.825
1980.86073	49181.625
1983.93046	49034.925
1986.99819	48945.025
1990.06394	48797.125
1993.1277	48788.125
1996.18947	48538.325
1999.24925	48452.525
2002.30706	48305.725
2005.36288	48151.425
2008.41672	48044.025
2011.46859	47881.425
2014.51848	47821.025
2017.56639	47671.525
2020.61233	47534.925
2023.6563	47449.425
2026.6983	47354.425
2029.73833	47248.325
2032.7764	47177.925
2035.8125	47097.925
2038.84664	46953.225
2041.87881	46911.625
2044.90903	46755.025
2047.93729	46719.925
2050.96359	46726.025
2053.98794	46617.025
2057.01034	46660.625
2060.03078	46632.725
2063.04927	46619.825
2066.06582	46597.325
2069.08042	46512.225
2072.09307	46591.725
2075.10378	46487.025
2078.11255	46453.025
2081.11938	46519.125
2084.12426	46464.525
2087.12722	46444.625
2090.12824	46419.425
2093.12732	46462.225
2096.12447	46459.925
2099.11969	46511.625
2102.11299	46549.525
2105.10435	46578.025
2108.09379	46575.525
2111.08131	46644.725
2114.0669	46581.925
2117.05057	46732.725
2120.03233	46787.225
2123.01216	46840.825
2125.99008	46806.925
2128.96609	46842.325
2131.94018	46846.925
2134.91236	46848.725
2137.88263	46863.325
2140.851	46907.925
2143.81746	46984.525
2146.78201	46980.525
2149.74466	47030.425
2152.7054	47055.625
2155.66425	47013.225
2158.6212	47041.425
2161.57625	46989.725
2164.52941	46981.225
2167.48067	46965.725
2170.43004	46917.725
2173.37752	46944.025
2176.32311	47054.625
2179.26681	47071.925
2182.20863	47025.525
2185.14856	47117.025
2188.08661	46974.625
2191.02278	46953.725
2193.95707	46933.725
2196.88948	46916.525
2199.82001	46869.525
2202.74867	46839.325
2205.67545	46823.725
2208.60037	46810.325
2211.52341	46662.625
2214.44458	46602.525
2217.36388	46548.225
2220.28132	46446.425
2223.1969	46393.425
2226.11061	46393.825
2229.02246	46238.125
2231.93245	46169.525
2234.84058	46110.925
2237.74686	46055.925
2240.65128	46016.725
2243.55385	45912.425
2246.45456	45926.825
2249.35343	45876.725
2252.25044	45810.625
2255.14561	45722.225
2258.03893	45698.725
2260.93041	45616.625
2263.82004	45491.225
2266.70783	45452.725
2269.59378	45323.325
2272.4779	45189.925
2275.36017	45114.325
2278.24061	44979.025
2281.11922	44945.425
2283.996	44900.025
2286.87094	44854.725
2289.74405	44792.325
2292.61534	44744.225
2295.4848	44792.925
2298.35243	44732.625
2301.21824	44734.925
2304.08223	44660.325
2306.94439	44661.825
2309.80474	44652.125
2312.66327	44563.425
2315.51999	44542.825
2318.37489	44467.325
2321.22797	44483.425
2324.07925	44410.025
2326.92871	44275.625
2329.77637	44221.525
2332.62222	44153.725
2335.46626	44188.325
2338.3085	44135.525
2341.14893	44129.525
2343.98756	44093.025
2346.8244	44025.325
2349.65943	44000.425
2352.49267	44019.625
2355.32411	44029.225
2358.15376	43981.125
2360.98161	43933.525
2363.80768	43879.425
2366.63195	43842.825
2369.45444	43779.125
2372.27514	43739.925
2375.09405	43664.125
2377.91118	43640.525
2380.72652	43488.825
2383.54009	43446.225
2386.35187	43404.825
2389.16188	43303.425
2391.97011	43291.325
2394.77657	43182.725
2397.58125	43021.925
2400.38416	43017.925
2403.18529	43007.425
2405.98466	42887.225
2408.78226	42919.925
2411.57809	42820.025
2414.37216	42763.425
2417.16446	42760.025
2419.955	42730.125
2422.74378	42779.625
2425.5308	42657.225
2428.31606	42653.625
2431.09956	42629.025
2433.88131	42573.025
2436.6613	42671.125
2439.43954	42644.725
2442.21603	42555.925
2444.99077	42485.425
2447.76377	42494.025
2450.53501	42422.825
2453.30451	42428.225
2456.07226	42282.825
2458.83827	42319.725
2461.60254	42304.425
2464.36507	42207.225
2467.12586	42169.225
2469.88492	42179.125
2472.64224	42167.225
2475.39782	42169.325
2478.15167	42224.125
2480.90379	42211.725
2483.65417	42197.625
2486.40283	42182.325
2489.14976	42144.425
2491.89497	42103.725
2494.63845	42191.625
2497.3802	42064.725
2500.12024	42044.825
2502.85855	41981.525
2505.59514	41965.425
2508.33002	42003.325
2511.06318	41917.925
2513.79462	41816.325
2516.52435	41758.225
2519.25237	41768.925
2521.97867	41690.625
2524.70327	41750.925
2527.42616	41669.125
2530.14734	41634.525
2532.86681	41544.625
2535.58458	41529.225
2538.30065	41437.225
2541.01501	41496.325
2543.72768	41449.525
2546.43864	41412.925
2549.14791	41340.025
2551.85548	41226.725
2554.56136	41200.125
2557.26554	41163.925
2559.96803	41043.625
2562.66883	41081.325
2565.36794	40972.525
2568.06536	40974.925
2570.7611	40929.325
2573.45514	40795.425
2576.14751	40776.525
2578.83819	40711.325
2581.52719	40669.025
2584.21451	40572.225
2586.90015	40578.825
2589.58411	40448.725
2592.2664	40397.525
2594.94701	40321.925
2597.62594	40359.025
2600.30321	40264.425
2602.9788	40263.225
2605.65273	40196.625
2608.32498	40108.625
2610.99557	40108.625
2613.66449	40145.725
2616.33175	40113.525
2618.99734	40125.225
2621.66128	40015.625
2624.32355	39952.625
2626.98416	39898.825
2629.64311	39870.125
2632.30041	39799.225
2634.95605	39712.725
2637.61004	39737.225
2640.26238	39725.925
2642.91306	39707.725
2645.56209	39661.325
2648.20948	39677.125
2650.85521	39646.225
2653.4993	39639.425
2656.14175	39689.425
2658.78255	39741.725
2661.42171	39668.625
2664.05923	39698.325
2666.6951	39638.625
2669.32934	39691.325
2671.96194	39654.525
2674.59291	39650.425
2677.22224	39653.625
2679.84993	39647.025
2682.476	39610.925
2685.10043	39667.625
2687.72324	39631.425
2690.34441	39533.725
2692.96396	39529.625
2695.58188	39574.325
2698.19818	39528.225
2700.81285	39544.325
2703.4259	39553.125
2706.03733	39628.625
2708.64714	39569.325
2711.25533	39535.625
2713.86191	39562.525
2716.46687	39671.125
2719.07021	39722.225
2721.67194	39781.425
2724.27206	39688.725
2726.87057	39763.225
2729.46747	39811.925
2732.06276	39791.725
2734.65644	39729.625
2737.24852	39675.225
2739.83899	39579.425
2742.42786	39637.325
2745.01513	39593.525
2747.60079	39564.025
2750.18486	39483.425
2752.76733	39435.225
2755.3482	39346.225
2757.92747	39370.025
2760.50515	39293.925
2763.08123	39285.625
2765.65573	39258.625
2768.22863	39150.625
2770.79994	39099.625
2773.36967	39084.725
2775.9378	39074.525
2778.50435	39100.225
2781.06932	39078.625
2783.6327	38951.025
2786.1945	38933.225
2788.75471	38926.025
2791.31335	38787.325
2793.87041	38750.725
2796.42589	38684.325
2798.97979	38637.025
2801.53212	38491.325
2804.08288	38441.125
2806.63206	38324.925
2809.17967	38249.525
2811.72571	38137.325
2814.27018	38091.625
2816.81308	38013.725
2819.35442	37978.325
2821.89419	37955.925
2824.43239	37902.925
2826.96904	37883.625
2829.50412	37798.125
2832.03763	37685.825
2834.56959	37698.725
2837.1	37587.825
2839.62884	37609.625
2842.15613	37548.625
2844.68186	37550.825
2847.20604	37483.225
2849.72867	37413.125
2852.24974	37419.625
2854.76927	37350.725
2857.28724	37320.125
2859.80367	37293.325
2862.31855	37148.325
2864.83189	37169.325
2867.34368	37132.925
2869.85393	37109.225
2872.36264	37090.425
2874.8698	37017.625
2877.37543	37002.125
2879.87952	36955.925
2882.38207	36925.225
2884.88308	36884.125
2887.38256	36855.225
2889.88051	36854.925
2892.37692	36892.025
2894.8718	36937.825
2897.36515	36931.625
2899.85698	36858.025
2902.34727	36914.325
2904.83604	36908.025
2907.32328	37004.425
2909.809	36992.025
2912.29319	37053.825
2914.77587	37032.125
2917.25702	37019.225
2919.73665	36993.225
2922.21476	37023.625
2924.69136	36939.225
2927.16644	36905.425
2929.64	36859.525
2932.11205	36802.025
2934.58258	36714.125
2937.05161	36787.225
2939.51912	36721.825
2941.98513	36794.225
2944.44962	36719.525
2946.91261	36651.925
2949.37409	36685.925
2951.83407	36679.325
2954.29254	36674.325
2956.74951	36646.125
2959.20498	36676.925
2961.65895	36597.825
2964.11142	36635.525
2966.56239	36569.125
2969.01186	36606.425
2971.45984	36475.025
2973.90632	36445.225
2976.35131	36405.325
2978.7948	36353.825
2981.23681	36283.325
2983.67732	36240.725
2986.11635	36185.025
2988.55388	36136.825
2990.98993	36050.225
2993.4245	35901.625
2995.85758	35855.025
2998.28917	35777.525
3000.71928	35667.725
3003.14791	35629.625
3005.57506	35583.625
3008.00073	35479.325
3010.42493	35436.925
3012.84764	35363.325
3015.26888	35396.525
3017.68865	35311.025
3020.10694	35248.025
3022.52376	35161.625
3024.9391	35152.825
3027.35298	35106.525
3029.76539	35101.225
3032.17632	35073.825
3034.5858	34980.125
3036.9938	34963.425
3039.40034	34959.525
3041.80542	34964.525
3044.20903	34883.325
3046.61118	34811.525
3049.01187	34722.625
3051.4111	34663.225
3053.80888	34600.625
3056.20519	34523.425
3058.60005	34438.425
3060.99345	34422.325
3063.3854	34332.125
3065.7759	34224.525
3068.16494	34143.025
3070.55254	33993.525
3072.93868	33958.325
3075.32338	33915.525
3077.70662	33798.525
3080.08842	33724.125
3082.46878	33707.325
3084.84769	33634.725
3087.22515	33639.525
3089.60118	33584.625
3091.97576	33545.825
3094.3489	33539.325
3096.72061	33568.425
3099.09087	33569.225
3101.4597	33526.725
3103.82709	33591.025
3106.19305	33495.325
3108.55757	33488.425
3110.92066	33366.525
3113.28232	33319.725
3115.64255	33201.725
3118.00134	33135.025
3120.35871	33132.925
3122.71466	33028.525
3125.06917	32936.325
