Data from AgNPs_FTO_APTES_UA_20uM_CRN_10uM_R6G_10uM_NaF_0.1M_Addition_RamanShift__6__14-17-22-188.txt Node

Date: Thu Feb 17 14:17:22 GMT 2022
User: TCL
Spectrometer: QEP01345
Trigger mode: 4
Integration Time (sec): 7.000000E0
Scans to average: 10
Electric dark correction enabled: true
Nonlinearity correction enabled: false
Boxcar width: 0
XAxis mode: Raman Shifts
Number of Pixels in Spectrum: 1044
>>>>>Begin Spectral Data<<<<<
46.04893	-0
50.45542	-1.6
54.85868	-4.2
59.25871	-0.6
63.6555	124.2
68.04907	128.1
72.43941	129.1
76.82654	132.9
81.21044	138
85.59113	144.3
89.96862	149.6
94.34289	149.4
98.71396	156
103.08183	160.8
107.4465	167.4
111.80798	169.6
116.16626	176
120.52136	185.9
124.87327	194.8
129.222	206.8
133.56755	221.1
137.90993	234.7
142.24913	264.1
146.58517	301.1
150.91804	353.3
155.24774	421.8
159.57429	533.6
163.89768	693.6
168.21792	924.7
172.53501	1281
176.84895	1798.4
181.15975	2535.1
185.46741	3587.5
189.77193	4956.4
194.07331	6645.8
198.37157	8571.3
202.6667	10639.6
206.9587	12658.2
211.24758	14673.5
215.53334	16591.5
219.81599	18722.5
224.09553	20966.1
228.37195	23526.8
232.64527	26295.2
236.91549	29256.1
241.18261	32244.5
245.44663	35119.4
249.70755	37678.2
253.96539	39994.4
258.22014	41855.9
262.4718	43470.2
266.72039	44527.9
270.96589	45117.4
275.20832	45195.3
279.44768	44981.8
283.68397	44611.8
287.91719	44169.7
292.14735	43960.8
296.37445	43894.5
300.59849	43975.9
304.81948	44189.2
309.03742	44228.5
313.25231	44098.2
317.46415	43693.9
321.67296	43139.5
325.87872	42591
330.08145	42386.4
334.28114	42461.7
338.47781	42727.1
342.67145	43209.7
346.86207	43892.3
351.04966	44599.8
355.23424	45255.6
359.4158	45783.9
363.59435	46184
367.76989	46546.7
371.94243	46897.5
376.11196	47124.3
380.27849	47391.8
384.44203	47675.1
388.60257	48063.3
392.76012	48451.9
396.91468	49076.7
401.06626	49679.2
405.21485	50097.7
409.36047	50062.7
413.50311	49612.9
417.64277	49371.5
421.77947	49463.6
425.9132	49716.2
430.04396	50037
434.17176	50334
438.2966	50721.6
442.41849	51590.5
446.53742	52923
450.6534	54388.8
454.76644	55396.9
458.87653	55838.7
462.98368	55522.7
467.08789	54852
471.18916	54085.4
475.2875	53366.2
479.38291	52899.5
483.4754	52552.6
487.56496	52178.4
491.6516	51613.6
495.73531	51119.6
499.81612	50738.8
503.89401	50940.6
507.96899	51130.1
512.04106	51128.3
516.11023	50935.5
520.1765	50695.3
524.23987	50575.9
528.30034	50460.7
532.35792	50226
536.41261	49846.1
540.46441	49428.1
544.51333	49420.2
548.55936	49774.8
552.60252	50628.8
556.64279	51714.2
560.6802	52606
564.71473	53095.4
568.7464	53758.6
572.7752	55042
576.80114	56455.7
580.82422	57857.5
584.84444	59395.8
588.86181	61604.2
592.87633	63779
596.888	63773.1
600.89682	61485.6
604.9028	60561.4
608.90594	62604.8
612.90624	65029.2
616.90371	61745.2
620.89834	54979.9
624.89015	52025.3
628.87913	51716.2
632.86528	51967.8
636.84862	51889
640.82913	51243.3
644.80683	50439.4
648.78172	49849.4
652.75379	49841.4
656.72306	50348.7
660.68952	51024.1
664.65319	50810.9
668.61405	50204.4
672.57211	50158.8
676.52738	50461
680.47986	50457.1
684.42955	50211.7
688.37646	50048.3
692.32058	50351.8
696.26192	50964.1
700.20048	51615.7
704.13626	52058.2
708.06928	52030.1
711.99952	51921.6
715.927	51883.8
719.85171	52000
723.77365	51858
727.69284	51402.4
731.60928	50818.1
735.52295	50664.1
739.43388	50712.3
743.34206	51009.6
747.24749	51251.8
751.15017	51592.9
755.05012	52328.6
758.94733	53379.7
762.8418	55204.5
766.73354	57985
770.62254	60554.6
774.50882	60775.6
778.39237	58695.5
782.27321	55870.1
786.15132	53548
790.02671	52051.6
793.89938	51301.8
797.76935	50971.4
801.6366	50829.6
805.50115	50696.6
809.36299	50585.8
813.22213	50394.7
817.07857	50310.9
820.93231	50212.6
824.78336	50056.7
828.63172	50006.3
832.47738	49951.2
836.32036	49973.7
840.16066	50082
843.99827	50155.5
847.8332	50234.3
851.66546	50348
855.49504	50348.6
859.32195	50369.1
863.1462	50317.9
866.96777	50293.6
870.78668	50297.5
874.60293	50319.9
878.41652	50407.1
882.22745	50429.9
886.03573	50583.5
889.84136	50547.8
893.64433	50336.4
897.44466	50107.6
901.24235	50088.6
905.0374	50022
908.8298	49923.1
912.61957	50056
916.40671	50413.6
920.19121	50954.4
923.97308	51481
927.75233	51377.1
931.52895	50950.7
935.30295	50381.9
939.07433	49812.1
942.84309	49375.6
946.60924	49189.5
950.37278	49211.6
954.13371	49271.4
957.89203	49320.7
961.64774	49251.6
965.40086	49250.5
969.15137	49139
972.89929	49043.4
976.64461	49009.5
980.38733	48996.1
984.12747	49090
987.86502	49419.6
991.59999	49671.1
995.33237	50222.1
999.06217	50868.9
1002.78939	51848.9
1006.51404	52803
1010.23611	53561
1013.95561	54078.3
1017.67255	54189.4
1021.38692	53805.4
1025.09872	53011.4
1028.80796	52518.1
1032.51465	52617.1
1036.21877	52888
1039.92035	53033.6
1043.61937	53011.3
1047.31584	52766.1
1051.00976	52426.8
1054.70114	52430
1058.38998	52681.6
1062.07627	52990.5
1065.76003	53478.9
1069.44126	54103.6
1073.11995	54763.4
1076.79611	55313.3
1080.46974	55749.3
1084.14085	56123.9
1087.80943	56576.4
1091.47549	56903.7
1095.13903	56939.6
1098.80005	56403.4
1102.45857	55569.2
1106.11456	54860.3
1109.76805	54583.3
1113.41903	54633.4
1117.06751	54866
1120.71348	55169
1124.35696	55564.7
1127.99793	55875.7
1131.63641	56060.4
1135.2724	55943
1138.90589	55863.8
1142.5369	55962.2
1146.16542	56284.4
1149.79145	56690
1153.415	57183.3
1157.03607	57746.7
1160.65467	58900.5
1164.27079	60694
1167.88443	63116.6
1171.49561	65709
1175.10432	68963.8
1178.71056	73119.4
1182.31434	76959.5
1185.91565	78650.8
1189.51451	78086.3
1193.11091	76390.9
1196.70485	74363.5
1200.29634	72450.1
1203.88538	71144.5
1207.47197	70502.9
1211.05612	69854
1214.63782	68866.3
1218.21708	67683.7
1221.79391	66549.5
1225.36829	65733.9
1228.94024	65156.8
1232.50976	64209
1236.07685	63146
1239.6415	62533.1
1243.20374	62465.1
1246.76355	62878.5
1250.32093	63642.3
1253.8759	64672.9
1257.42845	66037.7
1260.97859	67496.8
1264.52631	68985.6
1268.07163	70592.5
1271.61453	72171
1275.15503	73701.9
1278.69312	75402.6
1282.22882	77015.3
1285.76211	79107.8
1289.29301	81769.7
1292.82151	84824.3
1296.34761	88591.4
1299.87133	93080.9
1303.39266	97739.3
1306.9116	102041
1310.42815	105479.3
1313.94233	107308.8
1317.45412	106880.5
1320.96354	105238.4
1324.47058	103539.4
1327.97525	102027.9
1331.47754	100612.9
1334.97747	99579.4
1338.47502	98777.2
1341.97022	97923.5
1345.46305	97087.9
1348.95352	96433.7
1352.44163	96141.3
1355.92738	97512.4
1359.41078	100369.3
1362.89183	102733.1
1366.37053	101409.3
1369.84688	94837
1373.32088	86538.4
1376.79254	80917.6
1380.26186	78865.1
1383.72883	79152.3
1387.19347	79625
1390.65578	79216.1
1394.11575	78944.1
1397.57339	79412.6
1401.0287	80237.8
1404.48168	80883.6
1407.93234	80708.7
1411.38068	79513.5
1414.82669	77565.5
1418.27039	75162.7
1421.71177	72622.7
1425.15083	70663.2
1428.58758	69846.6
1432.02203	70440.3
1435.45416	71960.5
1438.88399	73879.6
1442.31151	75242.2
1445.73673	75976.8
1449.15965	76257.5
1452.58027	76216.5
1455.9986	76111.2
1459.41463	76353.7
1462.82837	77215.5
1466.23982	78355.6
1469.64898	79633.3
1473.05586	80541.9
1476.46045	80821.5
1479.86276	80486
1483.26279	79776.9
1486.66054	79279
1490.05602	79498.5
1493.44922	80095.6
1496.84016	80758.2
1500.22882	81629.4
1503.61521	83223.7
1506.99934	85042.7
1510.38121	86374.4
1513.76081	86259.7
1517.13816	84773.4
1520.51324	82834.7
1523.88607	81766.2
1527.25665	81686.6
1530.62498	82258
1533.99105	82374.4
1537.35488	81610.2
1540.71647	80179.6
1544.07581	78391.1
1547.4329	76587.2
1550.78776	74934.1
1554.14038	73820.8
1557.49077	73150.8
1560.83892	72683.7
1564.18484	72452
1567.52853	72662.3
1570.86999	73279.9
1574.20922	74347.6
1577.54624	75182.3
1580.88103	75293.5
1584.2136	75860.9
1587.54395	77879.1
1590.87208	81381
1594.19801	85707.7
1597.52172	89954.7
1600.84321	91046.9
1604.16251	87668.6
1607.47959	82011.5
1610.79447	75882.1
1614.10715	70463.4
1617.41763	66140.5
1620.7259	63295.4
1624.03199	61887
1627.33587	61881.6
1630.63757	63274.9
1633.93707	66515.6
1637.23439	72232.5
1640.52951	80567.1
1643.82246	90127.1
1647.11321	97412.2
1650.40179	97985.8
1653.68819	91094.9
1656.97241	80250
1660.25446	70238.3
1663.53433	62980.2
1666.81203	58370.9
1670.08756	55521
1673.36092	53716.6
1676.63211	52532.7
1679.90115	51644.3
1683.16801	50936.2
1686.43272	50443.4
1689.69527	50186.4
1692.95567	49905.6
1696.2139	49781.4
1699.46999	49640.6
1702.72392	49507.8
1705.97571	49368
1709.22535	49340.9
1712.47284	49330.5
1715.71819	49231.6
1718.96139	49184.8
1722.20246	49014.5
1725.44139	48866.5
1728.67818	48674.5
1731.91284	48422.3
1735.14537	48284.4
1738.37576	48026.3
1741.60403	47928.2
1744.83017	47737
1748.05418	47651.9
1751.27607	47597.8
1754.49584	47535.1
1757.71349	47649.7
1760.92903	47573.7
1764.14244	47492.2
1767.35375	47458.7
1770.56294	47353.9
1773.77002	47332.6
1776.97499	47307.3
1780.17785	47222
1783.37861	47134.6
1786.57727	47062.6
1789.77382	47017.7
1792.96828	46969.4
1796.16064	46913
1799.3509	46831.8
1802.53907	46800.5
1805.72514	46669
1808.90913	46543.5
1812.09102	46444.5
1815.27083	46411.6
1818.44856	46331.5
1821.6242	46265.1
1824.79776	46234.1
1827.96924	46209.1
1831.13864	46170.1
1834.30597	46166.7
1837.47122	46112.9
1840.6344	46055.9
1843.7955	46071
1846.95454	46037.4
1850.11151	46068.9
1853.26642	45994.2
1856.41926	45999.2
1859.57004	46004.8
1862.71876	45854.7
1865.86542	45891.9
1869.01003	45873.5
1872.15258	45772.3
1875.29308	45779.6
1878.43152	45674.5
1881.56792	45725.2
1884.70227	45745.5
1887.83457	45694.3
1890.96482	45669.5
1894.09304	45618.2
1897.21921	45529
1900.34335	45462.5
1903.46544	45386.5
1906.58551	45421.1
1909.70353	45400.8
1912.81953	45299.7
1915.93349	45254.2
1919.04543	45131.3
1922.15534	45122.8
1925.26322	45020.5
1928.36908	44948.8
1931.47292	44889.9
1934.57473	44856
1937.67453	44745.7
1940.77232	44606.3
1943.86808	44533.3
1946.96184	44460.4
1950.05358	44297.1
1953.14331	44204
1956.23103	44086.2
1959.31675	43998.6
1962.40046	43831
1965.48217	43714.9
1968.56188	43630.4
1971.63959	43430.8
1974.7153	43374.2
1977.78901	43259.2
1980.86073	43111
1983.93046	43037.3
1986.99819	42875.5
1990.06394	42783.8
1993.1277	42715
1996.18947	42588.5
1999.24925	42526.6
2002.30706	42428
2005.36288	42280.8
2008.41672	42128.5
2011.46859	42028.3
2014.51848	41947.7
2017.56639	41800.5
2020.61233	41715.8
2023.6563	41603.4
2026.6983	41510
2029.73833	41427.3
2032.7764	41361.7
2035.8125	41302.1
2038.84664	41241.1
2041.87881	41227
2044.90903	41154.4
2047.93729	41115.1
2050.96359	41057.6
2053.98794	40983.6
2057.01034	40998.2
2060.03078	40966.6
2063.04927	40912.5
2066.06582	40856.1
2069.08042	40860.3
2072.09307	40829.1
2075.10378	40767.4
2078.11255	40759.5
2081.11938	40819.8
2084.12426	40769.9
2087.12722	40783.5
2090.12824	40738.7
2093.12732	40775.1
2096.12447	40811.8
2099.11969	40792
2102.11299	40802.9
2105.10435	40778
2108.09379	40807.9
2111.08131	40894.9
2114.0669	40815.8
2117.05057	40878
2120.03233	40938.1
2123.01216	41000.1
2125.99008	41099.5
2128.96609	41107.1
2131.94018	41087.3
2134.91236	41178.6
2137.88263	41161.4
2140.851	41212
2143.81746	41187.4
2146.78201	41252
2149.74466	41286.5
2152.7054	41299.6
2155.66425	41278.5
2158.6212	41309.5
2161.57625	41217.4
2164.52941	41252.8
2167.48067	41191.4
2170.43004	41152.8
2173.37752	41189
2176.32311	41234.8
2179.26681	41250.3
2182.20863	41239.4
2185.14856	41287.3
2188.08661	41257.9
2191.02278	41242.3
2193.95707	41193.9
2196.88948	41178.4
2199.82001	41224.7
2202.74867	41095.2
2205.67545	41053.7
2208.60037	40996
2211.52341	40969.2
2214.44458	40994.2
2217.36388	40911.7
2220.28132	40867.2
2223.1969	40686.3
2226.11061	40655.1
2229.02246	40582.2
2231.93245	40555.9
2234.84058	40426
2237.74686	40421.3
2240.65128	40424.3
2243.55385	40313.5
2246.45456	40359.7
2249.35343	40338.5
2252.25044	40242.7
2255.14561	40145.4
2258.03893	40087.6
2260.93041	40013.8
2263.82004	39907.2
2266.70783	39893.7
2269.59378	39749.6
2272.4779	39710.1
2275.36017	39610
2278.24061	39570
2281.11922	39481.2
2283.996	39454.8
2286.87094	39464.7
2289.74405	39436.6
2292.61534	39327.2
2295.4848	39246.9
2298.35243	39311.7
2301.21824	39314.2
2304.08223	39271
2306.94439	39271.3
2309.80474	39265.5
2312.66327	39286
2315.51999	39218.6
2318.37489	39204.9
2321.22797	39094.4
2324.07925	39121
2326.92871	38999.6
2329.77637	38989
2332.62222	38937.7
2335.46626	38929
2338.3085	38882
2341.14893	38866
2343.98756	38836.4
2346.8244	38845.6
2349.65943	38803.6
2352.49267	38769.7
2355.32411	38829.3
2358.15376	38799.6
2360.98161	38779.5
2363.80768	38738.8
2366.63195	38692.2
2369.45444	38651.2
2372.27514	38611.7
2375.09405	38598.1
2377.91118	38542.4
2380.72652	38467.7
2383.54009	38382.8
2386.35187	38321
2389.16188	38229.3
2391.97011	38181.6
2394.77657	38084.5
2397.58125	38048.8
2400.38416	38045.2
2403.18529	37991
2405.98466	37946.9
2408.78226	37858.5
2411.57809	37862.6
2414.37216	37768.1
2417.16446	37800.6
2419.955	37758.2
2422.74378	37750
2425.5308	37678.8
2428.31606	37694.2
2431.09956	37657.6
2433.88131	37644.1
2436.6613	37647.5
2439.43954	37634.3
2442.21603	37597.6
2444.99077	37561.1
2447.76377	37499.8
2450.53501	37445.2
2453.30451	37469
2456.07226	37424.5
2458.83827	37435.8
2461.60254	37407.2
2464.36507	37448.2
2467.12586	37432.3
2469.88492	37423.7
2472.64224	37378.7
2475.39782	37392.6
2478.15167	37426.8
2480.90379	37404.7
2483.65417	37469.1
2486.40283	37413.4
2489.14976	37396.4
2491.89497	37386.2
2494.63845	37412.6
2497.3802	37382.4
2500.12024	37351.4
2502.85855	37317.5
2505.59514	37317.4
2508.33002	37235.9
2511.06318	37222.6
2513.79462	37195
2516.52435	37147.9
2519.25237	37118.5
2521.97867	37143.9
2524.70327	37130.1
2527.42616	37054.9
2530.14734	37041.6
2532.86681	36980.6
2535.58458	37015.6
2538.30065	36967.5
2541.01501	36917.7
2543.72768	36954.1
2546.43864	36945.3
2549.14791	36871.5
2551.85548	36748.7
2554.56136	36731.6
2557.26554	36680.9
2559.96803	36605.5
2562.66883	36578.7
2565.36794	36547.3
2568.06536	36519.3
2570.7611	36432.6
2573.45514	36430.7
2576.14751	36378.8
2578.83819	36345.8
2581.52719	36324.2
2584.21451	36266.8
2586.90015	36278.3
2589.58411	36239.8
2592.2664	36185.5
2594.94701	36166.4
2597.62594	36130.6
2600.30321	36122.3
2602.9788	36081.8
2605.65273	36015.2
2608.32498	36081.5
2610.99557	36022
2613.66449	36065.8
2616.33175	36021
2618.99734	35937.3
2621.66128	35939.5
2624.32355	35868.9
2626.98416	35854.2
2629.64311	35808.9
2632.30041	35863.4
2634.95605	35780.6
2637.61004	35771.5
2640.26238	35724.2
2642.91306	35654.2
2645.56209	35606.9
2648.20948	35716.4
2650.85521	35667.1
2653.4993	35664.8
2656.14175	35686.4
2658.78255	35726.2
2661.42171	35703
2664.05923	35795.1
2666.6951	35765.7
2669.32934	35778.8
2671.96194	35725.5
2674.59291	35822.4
2677.22224	35790.9
2679.84993	35771.3
2682.476	35710.7
2685.10043	35706.9
2687.72324	35693.7
2690.34441	35695.2
2692.96396	35671.8
2695.58188	35703.4
2698.19818	35654.3
2700.81285	35654.9
2703.4259	35622.7
2706.03733	35758.7
2708.64714	35752.3
2711.25533	35702.2
2713.86191	35739.6
2716.46687	35838.4
2719.07021	35789.3
2721.67194	35799.2
2724.27206	35735.8
2726.87057	35831.6
2729.46747	35852.3
2732.06276	35816.5
2734.65644	35840.1
2737.24852	35862.2
2739.83899	35828.6
2742.42786	35872.5
2745.01513	35811.6
2747.60079	35826.8
2750.18486	35766
2752.76733	35732.7
2755.3482	35679.5
2757.92747	35654.6
2760.50515	35586.7
2763.08123	35618.6
2765.65573	35599.4
2768.22863	35577.3
2770.79994	35550.3
2773.36967	35565.2
2775.9378	35575.1
2778.50435	35544.6
2781.06932	35525.2
2783.6327	35458.1
2786.1945	35453.1
2788.75471	35401
2791.31335	35323.8
2793.87041	35279.3
2796.42589	35218.7
2798.97979	35209.7
2801.53212	35080.4
2804.08288	35083.2
2806.63206	34974.7
2809.17967	34923.8
2811.72571	34810
2814.27018	34722.8
2816.81308	34575.2
2819.35442	34496.4
2821.89419	34513.2
2824.43239	34502.9
2826.96904	34504.9
2829.50412	34527
2832.03763	34415.6
2834.56959	34366.7
2837.1	34338.8
2839.62884	34269.5
2842.15613	34204
2844.68186	34180.7
2847.20604	34162.3
2849.72867	34180.9
2852.24974	34110.1
2854.76927	34084.5
2857.28724	34031.3
2859.80367	34036.4
2862.31855	34017.8
2864.83189	33922
2867.34368	33868.2
2869.85393	33893.9
2872.36264	33859.7
2874.8698	33816.9
2877.37543	33765.9
2879.87952	33723.5
2882.38207	33741.2
2884.88308	33728.4
2887.38256	33741.6
2889.88051	33717.1
2892.37692	33744.3
2894.8718	33777.2
2897.36515	33826.8
2899.85698	33790.4
2902.34727	33859.4
2904.83604	33809.9
2907.32328	33868.7
2909.809	33890.9
2912.29319	33931.6
2914.77587	33905.4
2917.25702	33949.6
2919.73665	33865.4
2922.21476	33939.3
2924.69136	33833.8
2927.16644	33833
2929.64	33762.9
2932.11205	33727.5
2934.58258	33692
2937.05161	33750.3
2939.51912	33699.7
2941.98513	33753.3
2944.44962	33703.2
2946.91261	33635.3
2949.37409	33702.3
2951.83407	33664
2954.29254	33626.8
2956.74951	33612.1
2959.20498	33673.5
2961.65895	33605.5
2964.11142	33580.1
2966.56239	33573.9
2969.01186	33542.6
2971.45984	33427.1
2973.90632	33383
2976.35131	33400.5
2978.7948	33293.7
2981.23681	33269.5
2983.67732	33189.5
2986.11635	33170.7
2988.55388	33048.4
2990.98993	33026.2
2993.4245	32996.4
2995.85758	32935
2998.28917	32842.7
3000.71928	32825.5
3003.14791	32690.9
3005.57506	32712.5
3008.00073	32599.9
3010.42493	32528.5
3012.84764	32425.7
3015.26888	32442.9
3017.68865	32410.3
3020.10694	32345.8
3022.52376	32301.8
3024.9391	32223.6
3027.35298	32225.7
3029.76539	32217.8
3032.17632	32125.1
3034.5858	32115
3036.9938	32073.6
3039.40034	32049
3041.80542	32054.2
3044.20903	31994.2
3046.61118	31959.4
3049.01187	31873.6
3051.4111	31799.5
3053.80888	31698.3
3056.20519	31683.5
3058.60005	31621.1
3060.99345	31558.1
3063.3854	31514.9
3065.7759	31363.6
3068.16494	31316.7
3070.55254	31191.4
3072.93868	31134.9
3075.32338	31001.6
3077.70662	30957.4
3080.08842	30834.1
3082.46878	30814
3084.84769	30777
3087.22515	30784.2
3089.60118	30681.1
3091.97576	30717
3094.3489	30683.1
3096.72061	30682
3099.09087	30743.9
3101.4597	30711.9
3103.82709	30716.4
3106.19305	30617.1
3108.55757	30598.8
3110.92066	30551.8
3113.28232	30541.8
3115.64255	30439.4
3118.00134	30337.9
3120.35871	30253.3
3122.71466	30192.1
3125.06917	30137.4
3127.42226	30105.9
3129.77393	30111.1
3132.12417	30025.4
3134.47299	29997
3136.82039	29957.7
3139.16636	29983.4
3141.51092	29935.8
3143.85406	29937
3146.19579	29900.8
3148.53609	29923.6
3150.87499	29950
3153.21246	29973.4
3155.54853	29971.4
3157.88318	29964.1
3160.21642	29988.4
3162.54826	29943.6
3164.87868	29831.2
3167.2077	29862.2
3169.5353	29785.6
3171.86151	29805.6
3174.18631	29753.2
3176.5097	29736.6
3178.83169	29667.2
3181.15228	29690.5
3183.47147	29576.8
3185.78926	29565.8
3188.10565	29505.9
3190.42065	29541
3192.73424	29478.9
3195.04645	29351.3
3197.35725	29346.9
3199.66667	29346.1
3201.97469	29354.4
3204.28132	29319.1
3206.58656	29275.5
3208.8904	29281
3211.19287	29332.9
3213.49394	29311.6
3215.79363	29291.2
3218.09193	29352.5
3220.38884	29316.7
3222.68438	29335.9
3224.97853	29258.8
3227.2713	29224.5
3229.56269	29195
3231.8527	29196.8
3234.14133	29160.9
3236.42858	29089.6
3238.71446	29006
3240.99896	28970.7
3243.28209	28991.3
3245.56384	28940.9
3247.84423	28886.3
3250.12324	28852.1
3252.40088	28840.1
3254.67715	28880
3256.95205	28783.1
3259.22558	28749.8
3261.49775	28682.6
3263.76855	28678.4
3266.03799	28619.3
3268.30606	28554.3
3270.57277	28460.8
3272.83812	28447.2
3275.10211	28397.8
3277.36474	28341.2
3279.62601	28348.8
3281.88593	28275.1
3284.14448	28287.6
3286.40168	28344.4
3288.65753	28290.6
3290.91202	28248.1
3293.16516	28197.4
3295.41695	28136.2
3297.66738	27922.4
3299.91647	27805.1
3302.16421	27645
3304.4106	27501.8
3306.65564	27317.6
3308.89933	27081.7
3311.14169	26933.9
3313.38269	26760.7
3315.62236	26639.5
3317.86068	26413.6
3320.09766	26146
3322.3333	26025.1
3324.5676	25915.9
3326.80056	25515.7
3329.03219	25382.5
3331.26248	7.5
3333.49143	0.6
3335.71905	-1.4
