Data from AgNPs_FTO_APTES_UA_20uM_CRN_1uM_R6G_10uM_NaF_0.1M_Addition_RamanShift__15__12-19-32-034.txt Node

Date: Thu Feb 17 12:19:32 GMT 2022
User: TCL
Spectrometer: QEP01345
Trigger mode: 4
Integration Time (sec): 7.000000E0
Scans to average: 10
Electric dark correction enabled: true
Nonlinearity correction enabled: false
Boxcar width: 0
XAxis mode: Raman Shifts
Number of Pixels in Spectrum: 1044
>>>>>Begin Spectral Data<<<<<
46.04893	-1.125
50.45542	-1.725
54.85868	-2.825
59.25871	-0.925
63.6555	124.775
68.04907	124.475
72.43941	130.375
76.82654	132.075
81.21044	135.675
85.59113	137.475
89.96862	145.775
94.34289	149.475
98.71396	150.775
103.08183	156.575
107.4465	161.075
111.80798	167.575
116.16626	171.975
120.52136	178.575
124.87327	186.575
129.222	199.175
133.56755	213.275
137.90993	232.075
142.24913	258.475
146.58517	289.975
150.91804	344.375
155.24774	414.975
159.57429	528.475
163.89768	679.175
168.21792	910.775
172.53501	1259.175
176.84895	1771.375
181.15975	2506.475
185.46741	3543.675
189.77193	4906.675
194.07331	6583.975
198.37157	8495.275
202.6667	10482.675
206.9587	12519.075
211.24758	14489.475
215.53334	16461.275
219.81599	18521.875
224.09553	20796.775
228.37195	23268.875
232.64527	26071.175
236.91549	28978.875
241.18261	31984.375
245.44663	34822.175
249.70755	37358.875
253.96539	39667.975
258.22014	41580.575
262.4718	43138.275
266.72039	44316.975
270.96589	44946.275
275.20832	45009.875
279.44768	44810.175
283.68397	44467.975
287.91719	44008.575
292.14735	43803.175
296.37445	43723.975
300.59849	43727.575
304.81948	43851.075
309.03742	43860.075
313.25231	43609.575
317.46415	43036.275
321.67296	42210.875
325.87872	41530.275
330.08145	41310.175
334.28114	41339.075
338.47781	41698.575
342.67145	42231.475
346.86207	42869.475
351.04966	43634.975
355.23424	44461.475
359.4158	45150.575
363.59435	45672.475
367.76989	46116.275
371.94243	46433.275
376.11196	46722.675
380.27849	46902.175
384.44203	47184.875
388.60257	47569.175
392.76012	47956.675
396.91468	48475.575
401.06626	49056.575
405.21485	49518.275
409.36047	49464.875
413.50311	49018.475
417.64277	48662.275
421.77947	48673.675
425.9132	48907.475
430.04396	49145.275
434.17176	49368.375
438.2966	49755.175
442.41849	50377.075
446.53742	51317.675
450.6534	52497.575
454.76644	53393.475
458.87653	53814.375
462.98368	53738.275
467.08789	53367.275
471.18916	52861.775
475.2875	52369.075
479.38291	52072.075
483.4754	51843.775
487.56496	51433.675
491.6516	51021.475
495.73531	50615.675
499.81612	50395.075
503.89401	50617.375
507.96899	50824.675
512.04106	50785.275
516.11023	50622.875
520.1765	50288.575
524.23987	50121.775
528.30034	49879.575
532.35792	49608.275
536.41261	49237.275
540.46441	48906.975
544.51333	48918.675
548.55936	49352.375
552.60252	50138.375
556.64279	51071.575
560.6802	51806.375
564.71473	52256.175
568.7464	52986.975
572.7752	54165.675
576.80114	55287.475
580.82422	56410.275
584.84444	57233.375
588.86181	58078.175
592.87633	58593.775
596.888	58192.675
600.89682	57142.475
604.9028	57982.375
608.90594	61459.875
612.90624	65070.275
616.90371	61951.075
620.89834	54588.975
624.89015	51347.375
628.87913	50860.875
632.86528	51163.575
636.84862	51300.875
640.82913	50849.075
644.80683	50050.975
648.78172	49411.675
652.75379	49355.775
656.72306	49837.175
660.68952	50518.075
664.65319	50465.075
668.61405	49937.975
672.57211	49882.275
676.52738	50042.175
680.47986	50036.275
684.42955	49866.475
688.37646	49696.375
692.32058	49956.475
696.26192	50498.075
700.20048	51043.575
704.13626	51447.275
708.06928	51454.575
711.99952	51196.675
715.927	51143.275
719.85171	51291.575
723.77365	51254.875
727.69284	50866.675
731.60928	50381.975
735.52295	50209.875
739.43388	50161.175
743.34206	50324.275
747.24749	50601.475
751.15017	50889.475
755.05012	51499.175
758.94733	52487.575
762.8418	54470.475
766.73354	57401.575
770.62254	60025.075
774.50882	60482.775
778.39237	58508.075
782.27321	55652.475
786.15132	53281.875
790.02671	51731.775
793.89938	50898.575
797.76935	50548.475
801.6366	50462.775
805.50115	50307.775
809.36299	50208.775
813.22213	49960.675
817.07857	49818.175
820.93231	49752.675
824.78336	49617.875
828.63172	49496.575
832.47738	49448.375
836.32036	49423.275
840.16066	49545.275
843.99827	49574.775
847.8332	49663.975
851.66546	49652.175
855.49504	49742.475
859.32195	49749.575
863.1462	49739.775
866.96777	49739.475
870.78668	49768.675
874.60293	49801.475
878.41652	49810.075
882.22745	49978.675
886.03573	50087.375
889.84136	50161.275
893.64433	49959.475
897.44466	49840.075
901.24235	49692.775
905.0374	49562.075
908.8298	49440.175
912.61957	49485.375
916.40671	49748.275
920.19121	50195.175
923.97308	50508.175
927.75233	50508.675
931.52895	50227.175
935.30295	49826.275
939.07433	49294.875
942.84309	48833.175
946.60924	48796.275
950.37278	48719.375
954.13371	48719.175
957.89203	48702.775
961.64774	48627.975
965.40086	48615.775
969.15137	48582.375
972.89929	48384.275
976.64461	48354.775
980.38733	48332.875
984.12747	48408.975
987.86502	48679.175
991.59999	49056.275
995.33237	49530.975
999.06217	50186.275
1002.78939	50982.475
1006.51404	51812.075
1010.23611	52515.575
1013.95561	52996.175
1017.67255	53061.175
1021.38692	52624.075
1025.09872	51971.575
1028.80796	51489.275
1032.51465	51445.575
1036.21877	51653.775
1039.92035	51827.575
1043.61937	51825.575
1047.31584	51705.675
1051.00976	51580.975
1054.70114	51595.975
1058.38998	51743.075
1062.07627	52158.675
1065.76003	52677.275
1069.44126	53274.075
1073.11995	53934.975
1076.79611	54523.175
1080.46974	54932.475
1084.14085	55304.375
1087.80943	55759.575
1091.47549	56132.775
1095.13903	56171.175
1098.80005	55717.875
1102.45857	55003.075
1106.11456	54328.975
1109.76805	53959.575
1113.41903	53949.175
1117.06751	54103.075
1120.71348	54472.575
1124.35696	54814.075
1127.99793	55131.475
1131.63641	55279.475
1135.2724	55085.975
1138.90589	54882.575
1142.5369	54846.475
1146.16542	54995.675
1149.79145	55112.975
1153.415	55381.075
1157.03607	55901.075
1160.65467	56929.875
1164.27079	58513.675
1167.88443	60731.975
1171.49561	63342.975
1175.10432	66541.575
1178.71056	70462.575
1182.31434	74103.975
1185.91565	75939.975
1189.51451	76163.775
1193.11091	74933.975
1196.70485	72992.075
1200.29634	70796.275
1203.88538	69134.975
1207.47197	68050.675
1211.05612	67152.875
1214.63782	66036.075
1218.21708	64964.575
1221.79391	64029.675
1225.36829	63364.175
1228.94024	62916.375
1232.50976	62083.075
1236.07685	61483.875
1239.6415	61102.975
1243.20374	61037.675
1246.76355	61391.175
1250.32093	62106.675
1253.8759	63001.475
1257.42845	64260.575
1260.97859	65660.275
1264.52631	67156.175
1268.07163	68684.875
1271.61453	70135.275
1275.15503	71463.675
1278.69312	72678.175
1282.22882	73932.875
1285.76211	75346.475
1289.29301	77106.075
1292.82151	79333.675
1296.34761	82105.775
1299.87133	85478.575
1303.39266	89201.275
1306.9116	93093.675
1310.42815	96520.075
1313.94233	98726.175
1317.45412	98682.075
1320.96354	97777.475
1324.47058	96702.475
1327.97525	95883.775
1331.47754	95313.775
1334.97747	95014.075
1338.47502	94902.675
1341.97022	94941.475
1345.46305	94678.575
1348.95352	94024.575
1352.44163	93187.675
1355.92738	93481.875
1359.41078	95230.975
1362.89183	97001.375
1366.37053	95218.675
1369.84688	89222.075
1373.32088	82099.075
1376.79254	77147.775
1380.26186	75050.475
1383.72883	74701.975
1387.19347	74665.575
1390.65578	74181.575
1394.11575	73961.775
1397.57339	74273.575
1401.0287	75036.775
1404.48168	75818.575
1407.93234	76065.575
1411.38068	75351.175
1414.82669	73732.075
1418.27039	71683.775
1421.71177	69546.875
1425.15083	67861.375
1428.58758	67124.475
1432.02203	67576.575
1435.45416	68804.375
1438.88399	70355.975
1442.31151	71636.575
1445.73673	72382.875
1449.15965	72986.175
1452.58027	73328.775
1455.9986	73384.375
1459.41463	73891.675
1462.82837	74837.575
1466.23982	75903.575
1469.64898	76878.375
1473.05586	77377.875
1476.46045	77355.475
1479.86276	76976.475
1483.26279	76336.175
1486.66054	75959.275
1490.05602	76171.275
1493.44922	76685.275
1496.84016	77501.775
1500.22882	78970.975
1503.61521	81238.075
1506.99934	83617.075
1510.38121	85324.575
1513.76081	85320.175
1517.13816	83320.175
1520.51324	80575.275
1523.88607	78512.075
1527.25665	77508.075
1530.62498	77327.975
1533.99105	77228.175
1537.35488	76787.075
1540.71647	75891.375
1544.07581	74820.675
1547.4329	73537.575
1550.78776	72438.175
1554.14038	71480.875
1557.49077	71052.875
1560.83892	70769.075
1564.18484	70799.475
1567.52853	70962.175
1570.86999	71268.375
1574.20922	71997.575
1577.54624	72514.375
1580.88103	72436.475
1584.2136	72442.775
1587.54395	73684.575
1590.87208	76371.575
1594.19801	79899.775
1597.52172	83579.675
1600.84321	84722.475
1604.16251	82095.375
1607.47959	77730.575
1610.79447	72864.975
1614.10715	68216.675
1617.41763	64145.375
1620.7259	61152.075
1624.03199	59585.775
1627.33587	59365.175
1630.63757	60524.275
1633.93707	63246.575
1637.23439	68045.875
1640.52951	74919.375
1643.82246	82758.175
1647.11321	88546.375
1650.40179	89125.475
1653.68819	83725.475
1656.97241	74835.775
1660.25446	66242.275
1663.53433	59938.875
1666.81203	55901.975
1670.08756	53283.075
1673.36092	51723.775
1676.63211	50619.175
1679.90115	49850.775
1683.16801	49170.275
1686.43272	48781.775
1689.69527	48414.675
1692.95567	48116.775
1696.2139	48025.075
1699.46999	47995.975
1702.72392	47842.775
1705.97571	47746.175
1709.22535	47646.675
1712.47284	47624.775
1715.71819	47617.975
1718.96139	47579.275
1722.20246	47389.175
1725.44139	47283.275
1728.67818	47094.875
1731.91284	46811.175
1735.14537	46583.975
1738.37576	46444.975
1741.60403	46351.175
1744.83017	46140.675
1748.05418	46020.675
1751.27607	46004.975
1754.49584	45909.675
1757.71349	45887.875
1760.92903	45900.175
1764.14244	45747.675
1767.35375	45754.675
1770.56294	45772.575
1773.77002	45752.075
1776.97499	45694.675
1780.17785	45601.475
1783.37861	45575.175
1786.57727	45463.975
1789.77382	45360.375
1792.96828	45279.275
1796.16064	45294.175
1799.3509	45204.875
1802.53907	45162.075
1805.72514	45054.375
1808.90913	44967.375
1812.09102	44870.075
1815.27083	44763.675
1818.44856	44754.275
1821.6242	44672.075
1824.79776	44614.975
1827.96924	44630.875
1831.13864	44587.575
1834.30597	44620.975
1837.47122	44547.975
1840.6344	44497.975
1843.7955	44471.475
1846.95454	44550.275
1850.11151	44477.075
1853.26642	44494.275
1856.41926	44440.675
1859.57004	44466.975
1862.71876	44333.575
1865.86542	44328.075
1869.01003	44296.975
1872.15258	44184.975
1875.29308	44186.475
1878.43152	44105.775
1881.56792	44149.175
1884.70227	44136.075
1887.83457	44074.575
1890.96482	44048.375
1894.09304	43957.875
1897.21921	43867.475
1900.34335	43798.075
1903.46544	43753.575
1906.58551	43772.675
1909.70353	43716.175
1912.81953	43709.475
1915.93349	43629.875
1919.04543	43472.475
1922.15534	43416.775
1925.26322	43387.275
1928.36908	43316.475
1931.47292	43204.875
1934.57473	43139.475
1937.67453	43073.175
1940.77232	42959.375
1943.86808	42792.375
1946.96184	42691.375
1950.05358	42534.775
1953.14331	42440.475
1956.23103	42319.875
1959.31675	42266.875
1962.40046	42078.775
1965.48217	41867.375
1968.56188	41822.875
1971.63959	41784.075
1974.7153	41691.675
1977.78901	41538.575
1980.86073	41429.875
1983.93046	41313.575
1986.99819	41183.275
1990.06394	41145.875
1993.1277	41028.975
1996.18947	40916.375
1999.24925	40794.675
2002.30706	40685.775
2005.36288	40543.975
2008.41672	40410.275
2011.46859	40289.575
2014.51848	40222.375
2017.56639	40097.575
2020.61233	39975.775
2023.6563	39897.075
2026.6983	39796.375
2029.73833	39664.475
2032.7764	39597.575
2035.8125	39529.175
2038.84664	39488.075
2041.87881	39457.675
2044.90903	39286.175
2047.93729	39279.475
2050.96359	39218.675
2053.98794	39183.475
2057.01034	39197.575
2060.03078	39197.875
2063.04927	39207.375
2066.06582	39172.075
2069.08042	39141.975
2072.09307	39081.075
2075.10378	38996.675
2078.11255	38934.975
2081.11938	38962.975
2084.12426	38935.975
2087.12722	38890.175
2090.12824	38938.275
2093.12732	38934.575
2096.12447	38987.275
2099.11969	38869.675
2102.11299	38884.475
2105.10435	38950.675
2108.09379	38979.275
2111.08131	38990.975
2114.0669	38980.275
2117.05057	38974.075
2120.03233	39009.375
2123.01216	39069.475
2125.99008	39123.775
2128.96609	39156.275
2131.94018	39231.775
2134.91236	39268.575
2137.88263	39318.475
2140.851	39304.275
2143.81746	39384.175
2146.78201	39319.075
2149.74466	39344.075
2152.7054	39417.275
2155.66425	39360.075
2158.6212	39363.675
2161.57625	39333.475
2164.52941	39325.075
2167.48067	39320.175
2170.43004	39264.775
2173.37752	39257.075
2176.32311	39326.875
2179.26681	39377.575
2182.20863	39342.775
2185.14856	39356.775
2188.08661	39326.175
2191.02278	39332.575
2193.95707	39226.075
2196.88948	39190.975
2199.82001	39178.975
2202.74867	39178.075
2205.67545	39110.175
2208.60037	39030.475
2211.52341	38991.775
2214.44458	38990.575
2217.36388	38925.475
2220.28132	38883.275
2223.1969	38776.375
2226.11061	38698.475
2229.02246	38555.875
2231.93245	38476.575
2234.84058	38423.675
2237.74686	38449.175
2240.65128	38393.775
2243.55385	38316.175
2246.45456	38275.875
2249.35343	38235.175
2252.25044	38140.475
2255.14561	38082.675
2258.03893	38078.075
2260.93041	38013.875
2263.82004	37925.375
2266.70783	37841.775
2269.59378	37841.775
2272.4779	37691.475
2275.36017	37649.175
2278.24061	37571.775
2281.11922	37490.575
2283.996	37444.875
2286.87094	37423.475
2289.74405	37328.075
2292.61534	37341.575
2295.4848	37302.475
2298.35243	37278.275
2301.21824	37245.575
2304.08223	37199.675
2306.94439	37145.775
2309.80474	37143.975
2312.66327	37157.575
2315.51999	37116.075
2318.37489	37053.175
2321.22797	37012.275
2324.07925	37024.175
2326.92871	36912.475
2329.77637	36793.275
2332.62222	36779.875
2335.46626	36763.275
2338.3085	36751.475
2341.14893	36707.075
2343.98756	36707.575
2346.8244	36710.275
2349.65943	36743.875
2352.49267	36711.975
2355.32411	36669.475
2358.15376	36603.075
2360.98161	36654.275
2363.80768	36595.675
2366.63195	36563.175
2369.45444	36532.075
2372.27514	36501.375
2375.09405	36487.475
2377.91118	36397.375
2380.72652	36322.175
2383.54009	36189.875
2386.35187	36125.575
2389.16188	35983.175
2391.97011	35952.675
2394.77657	35922.375
2397.58125	35892.675
2400.38416	35775.075
2403.18529	35712.475
2405.98466	35752.975
2408.78226	35673.475
2411.57809	35637.775
2414.37216	35541.875
2417.16446	35561.275
2419.955	35557.275
2422.74378	35523.275
2425.5308	35463.675
2428.31606	35499.875
2431.09956	35504.175
2433.88131	35458.175
2436.6613	35454.075
2439.43954	35411.675
2442.21603	35373.175
2444.99077	35346.975
2447.76377	35321.875
2450.53501	35238.675
2453.30451	35311.475
2456.07226	35245.575
2458.83827	35239.375
2461.60254	35189.075
2464.36507	35174.875
2467.12586	35186.675
2469.88492	35168.775
2472.64224	35148.375
2475.39782	35148.075
2478.15167	35123.075
2480.90379	35146.775
2483.65417	35112.675
2486.40283	35117.875
2489.14976	35097.475
2491.89497	35077.575
2494.63845	35106.375
2497.3802	35075.275
2500.12024	35065.375
2502.85855	35028.575
2505.59514	35039.675
2508.33002	34940.275
2511.06318	34904.775
2513.79462	34880.675
2516.52435	34851.775
2519.25237	34851.175
2521.97867	34783.675
2524.70327	34806.675
2527.42616	34741.575
2530.14734	34652.475
2532.86681	34661.275
2535.58458	34627.775
2538.30065	34656.675
2541.01501	34627.475
2543.72768	34577.275
2546.43864	34590.975
2549.14791	34469.375
2551.85548	34418.075
2554.56136	34366.175
2557.26554	34276.675
2559.96803	34271.475
2562.66883	34186.675
2565.36794	34194.775
2568.06536	34146.575
2570.7611	34042.775
2573.45514	33968.375
2576.14751	33961.975
2578.83819	33937.575
2581.52719	33883.175
2584.21451	33900.075
2586.90015	33854.275
2589.58411	33764.575
2592.2664	33792.175
2594.94701	33733.475
2597.62594	33691.475
2600.30321	33687.775
2602.9788	33661.775
2605.65273	33656.275
2608.32498	33643.075
2610.99557	33588.975
2613.66449	33631.275
2616.33175	33566.975
2618.99734	33465.575
2621.66128	33453.475
2624.32355	33422.275
2626.98416	33321.375
2629.64311	33309.075
2632.30041	33272.975
2634.95605	33272.575
2637.61004	33268.675
2640.26238	33209.375
2642.91306	33189.075
2645.56209	33117.575
2648.20948	33161.375
2650.85521	33112.975
2653.4993	33190.775
2656.14175	33175.675
2658.78255	33217.475
2661.42171	33239.675
2664.05923	33259.575
2666.6951	33200.275
2669.32934	33237.675
2671.96194	33235.175
2674.59291	33240.775
2677.22224	33249.575
2679.84993	33238.275
2682.476	33178.575
2685.10043	33205.175
2687.72324	33167.175
2690.34441	33155.575
2692.96396	33110.375
2695.58188	33199.375
2698.19818	33117.875
2700.81285	33135.675
2703.4259	33097.875
2706.03733	33167.575
2708.64714	33102.675
2711.25533	33159.775
2713.86191	33169.975
2716.46687	33237.875
2719.07021	33216.875
2721.67194	33180.475
2724.27206	33162.575
2726.87057	33216.575
2729.46747	33183.875
2732.06276	33210.475
2734.65644	33229.875
2737.24852	33209.075
2739.83899	33157.675
2742.42786	33166.775
2745.01513	33125.175
2747.60079	33081.975
2750.18486	33077.475
2752.76733	33126.375
2755.3482	33003.775
2757.92747	32972.375
2760.50515	32954.675
2763.08123	32915.875
2765.65573	32873.375
2768.22863	32859.475
2770.79994	32788.175
2773.36967	32815.075
2775.9378	32797.875
2778.50435	32840.775
2781.06932	32756.375
2783.6327	32774.275
2786.1945	32699.975
2788.75471	32702.775
2791.31335	32568.775
2793.87041	32566.975
2796.42589	32481.875
2798.97979	32432.375
2801.53212	32323.375
2804.08288	32278.775
2806.63206	32186.775
2809.17967	32165.175
2811.72571	32089.675
2814.27018	31974.675
2816.81308	31877.975
2819.35442	31839.475
2821.89419	31790.175
2824.43239	31781.075
2826.96904	31768.775
2829.50412	31724.175
2832.03763	31625.475
2834.56959	31624.875
2837.1	31547.075
2839.62884	31596.275
2842.15613	31521.375
2844.68186	31500.975
2847.20604	31463.375
2849.72867	31446.275
2852.24974	31381.075
2854.76927	31370.175
2857.28724	31338.875
2859.80367	31283.575
2862.31855	31270.375
2864.83189	31223.075
2867.34368	31171.675
2869.85393	31139.675
2872.36264	31091.175
2874.8698	31075.275
2877.37543	31022.475
2879.87952	31004.175
2882.38207	31017.775
2884.88308	31000.675
2887.38256	31029.875
2889.88051	30987.575
2892.37692	31002.375
2894.8718	30996.275
2897.36515	31071.175
2899.85698	31013.675
2902.34727	31107.975
2904.83604	31016.775
2907.32328	31090.075
2909.809	31113.375
2912.29319	31132.975
2914.77587	31091.375
2917.25702	31101.075
2919.73665	31064.275
2922.21476	31090.275
2924.69136	31016.475
2927.16644	31025.675
2929.64	30959.475
2932.11205	30951.075
2934.58258	30861.475
2937.05161	30921.375
2939.51912	30916.075
2941.98513	30817.175
2944.44962	30755.275
2946.91261	30689.875
2949.37409	30729.175
2951.83407	30707.075
2954.29254	30700.475
2956.74951	30722.675
2959.20498	30728.775
2961.65895	30672.975
2964.11142	30701.575
2966.56239	30664.775
2969.01186	30633.675
2971.45984	30460.375
2973.90632	30468.675
2976.35131	30457.975
2978.7948	30438.775
2981.23681	30389.175
2983.67732	30273.375
2986.11635	30222.875
2988.55388	30108.875
2990.98993	30130.675
2993.4245	30081.375
2995.85758	29956.775
2998.28917	29892.775
3000.71928	29766.475
3003.14791	29718.375
3005.57506	29701.175
3008.00073	29650.175
3010.42493	29635.175
3012.84764	29535.075
3015.26888	29535.175
3017.68865	29484.475
3020.10694	29453.675
3022.52376	29359.475
3024.9391	29297.275
3027.35298	29243.075
3029.76539	29268.375
3032.17632	29298.575
3034.5858	29186.175
3036.9938	29166.275
3039.40034	29112.875
3041.80542	29140.775
3044.20903	29080.875
3046.61118	29011.375
3049.01187	28971.175
3051.4111	28867.875
3053.80888	28803.375
3056.20519	28810.775
3058.60005	28735.775
3060.99345	28633.575
3063.3854	28575.275
3065.7759	28493.275
3068.16494	28417.475
3070.55254	28305.275
3072.93868	28289.175
3075.32338	28145.775
3077.70662	28122.775
3080.08842	28058.075
3082.46878	27982.275
3084.84769	27914.875
3087.22515	27900.975
3089.60118	27884.175
3091.97576	27886.475
3094.3489	27827.575
3096.72061	27845.575
3099.09087	27855.375
3101.4597	27842.575
3103.82709	27832.875
3106.19305	27771.975
3108.55757	27794.775
3110.92066	27678.475
3113.28232	27676.175
3115.64255	27539.075
3118.00134	27440.675
3120.35871	27419.375
3122.71466	27305.575
3125.06917	27282.875
