Data from AgNPs_FTO_APTES_UA_20uM_CRN_0uM_R6G_10uM_NaF_0.1M_Addition_RamanShift__20__11-13-01-947.txt Node

Date: Thu Feb 17 11:13:01 GMT 2022
User: TCL
Spectrometer: QEP01345
Trigger mode: 4
Integration Time (sec): 7.000000E0
Scans to average: 10
Electric dark correction enabled: true
Nonlinearity correction enabled: false
Boxcar width: 0
XAxis mode: Raman Shifts
Number of Pixels in Spectrum: 1044
>>>>>Begin Spectral Data<<<<<
46.04893	1.175
50.45542	0.575
54.85868	-3.025
59.25871	0.875
63.6555	41.375
68.04907	38.875
72.43941	47.475
76.82654	44.775
81.21044	49.775
85.59113	54.775
89.96862	52.875
94.34289	56.275
98.71396	56.975
103.08183	59.675
107.4465	62.675
111.80798	57.475
116.16626	59.375
120.52136	64.875
124.87327	65.075
129.222	71.475
133.56755	71.975
137.90993	73.775
142.24913	79.675
146.58517	89.575
150.91804	105.775
155.24774	123.675
159.57429	157.375
163.89768	197.675
168.21792	263.875
172.53501	354.875
176.84895	501.175
181.15975	701.375
185.46741	976.975
189.77193	1341.475
194.07331	1799.275
198.37157	2309.075
202.6667	2864.475
206.9587	3424.275
211.24758	4008.275
215.53334	4609.375
219.81599	5329.275
224.09553	6166.675
228.37195	7053.475
232.64527	8022.075
236.91549	8923.675
241.18261	9698.675
245.44663	10246.675
249.70755	10666.675
253.96539	11030.675
258.22014	11312.175
262.4718	11560.375
266.72039	11658.675
270.96589	11589.375
275.20832	11370.975
279.44768	11041.775
283.68397	10754.775
287.91719	10579.775
292.14735	10647.875
296.37445	10991.175
300.59849	11694.375
304.81948	12586.075
309.03742	13366.675
313.25231	13644.775
317.46415	13046.675
321.67296	11773.275
325.87872	10619.575
330.08145	10008.975
334.28114	9917.175
338.47781	10134.975
342.67145	10526.675
346.86207	11131.975
351.04966	12060.375
355.23424	13183.775
359.4158	13992.375
363.59435	14295.675
367.76989	14206.275
371.94243	13971.375
376.11196	13713.375
380.27849	13500.275
384.44203	13182.675
388.60257	12863.375
392.76012	12655.875
396.91468	12709.775
401.06626	13078.575
405.21485	13348.575
409.36047	12944.675
413.50311	11945.375
417.64277	10990.775
421.77947	10424.575
425.9132	10210.775
430.04396	10163.475
434.17176	10228.875
438.2966	10486.075
442.41849	10899.275
446.53742	11483.075
450.6534	11998.775
454.76644	12173.375
458.87653	11991.475
462.98368	11601.275
467.08789	11180.875
471.18916	10772.375
475.2875	10337.075
479.38291	9929.175
483.4754	9625.375
487.56496	9375.075
491.6516	9276.175
495.73531	9223.175
499.81612	9268.975
503.89401	9428.875
507.96899	9672.175
512.04106	9942.075
516.11023	10197.675
520.1765	10426.875
524.23987	10472.775
528.30034	10288.575
532.35792	10088.775
536.41261	9754.675
540.46441	9367.275
544.51333	9127.375
548.55936	9158.475
552.60252	9423.675
556.64279	9874.075
560.6802	10169.675
564.71473	10483.875
568.7464	11270.275
572.7752	11752.175
576.80114	11156.075
580.82422	10350.975
584.84444	10044.875
588.86181	10302.375
592.87633	10870.675
596.888	11231.875
600.89682	11283.275
604.9028	12709.575
608.90594	17851.875
612.90624	25241.275
616.90371	24677.875
620.89834	15312.775
624.89015	10412.475
628.87913	9431.075
632.86528	9616.875
636.84862	9933.675
640.82913	9671.475
644.80683	8895.675
648.78172	8341.375
652.75379	8319.875
656.72306	8934.175
660.68952	9713.075
664.65319	9564.575
668.61405	8707.475
672.57211	8325.475
676.52738	8307.275
680.47986	8211.075
684.42955	8007.875
688.37646	7892.075
692.32058	7919.375
696.26192	8103.575
700.20048	8328.775
704.13626	8457.875
708.06928	8414.875
711.99952	8300.975
715.927	8260.675
719.85171	8358.175
723.77365	8423.375
727.69284	8273.775
731.60928	8150.175
735.52295	8158.275
739.43388	8205.375
743.34206	8300.175
747.24749	8317.975
751.15017	8336.475
755.05012	8586.475
758.94733	9296.275
762.8418	11169.775
766.73354	14306.275
770.62254	17431.875
774.50882	19123.975
778.39237	18529.975
782.27321	15463.075
786.15132	11960.775
790.02671	9769.075
793.89938	8812.475
797.76935	8399.375
801.6366	8211.575
805.50115	8107.175
809.36299	7996.975
813.22213	7910.675
817.07857	7858.275
820.93231	7838.475
824.78336	7875.075
828.63172	7965.075
832.47738	7989.175
836.32036	7926.675
840.16066	7837.975
843.99827	7750.175
847.8332	7714.475
851.66546	7730.175
855.49504	7713.775
859.32195	7687.375
863.1462	7620.875
866.96777	7584.875
870.78668	7564.775
874.60293	7617.375
878.41652	7671.975
882.22745	7775.575
886.03573	7862.375
889.84136	7841.775
893.64433	7773.775
897.44466	7743.675
901.24235	7749.175
905.0374	7660.775
908.8298	7545.175
912.61957	7466.075
916.40671	7472.975
920.19121	7541.675
923.97308	7699.375
927.75233	7920.975
931.52895	8125.575
935.30295	8004.475
939.07433	7574.775
942.84309	7199.575
946.60924	6950.975
950.37278	6858.875
954.13371	6838.475
957.89203	6814.975
961.64774	6776.175
965.40086	6755.675
969.15137	6734.175
972.89929	6696.875
976.64461	6672.375
980.38733	6686.275
984.12747	6690.075
987.86502	6741.075
991.59999	6823.875
995.33237	6952.675
999.06217	7216.875
1002.78939	7528.175
1006.51404	7829.875
1010.23611	8090.075
1013.95561	8245.275
1017.67255	8181.075
1021.38692	7926.775
1025.09872	7619.475
1028.80796	7395.975
1032.51465	7355.575
1036.21877	7374.675
1039.92035	7453.075
1043.61937	7503.875
1047.31584	7554.675
1051.00976	7522.575
1054.70114	7508.075
1058.38998	7437.875
1062.07627	7447.475
1065.76003	7481.875
1069.44126	7535.675
1073.11995	7703.875
1076.79611	7966.275
1080.46974	8374.175
1084.14085	8921.275
1087.80943	9451.375
1091.47549	9592.775
1095.13903	9234.175
1098.80005	8637.175
1102.45857	8224.175
1106.11456	8074.075
1109.76805	8234.975
1113.41903	8630.475
1117.06751	9259.375
1120.71348	10162.175
1124.35696	11195.775
1127.99793	11925.975
1131.63641	11602.875
1135.2724	10535.075
1138.90589	9587.775
1142.5369	9015.575
1146.16542	8670.975
1149.79145	8463.075
1153.415	8382.775
1157.03607	8480.975
1160.65467	8761.975
1164.27079	9358.475
1167.88443	10298.075
1171.49561	11807.075
1175.10432	14272.875
1178.71056	17433.875
1182.31434	19835.875
1185.91565	20368.075
1189.51451	19422.475
1193.11091	17904.475
1196.70485	16188.075
1200.29634	14729.275
1203.88538	13450.775
1207.47197	11953.075
1211.05612	10743.975
1214.63782	10166.875
1218.21708	10071.175
1221.79391	10177.975
1225.36829	10239.475
1228.94024	10036.575
1232.50976	9819.875
1236.07685	9670.275
1239.6415	9662.175
1243.20374	9735.075
1246.76355	9762.075
1250.32093	9838.175
1253.8759	10151.875
1257.42845	10621.375
1260.97859	11306.375
1264.52631	12037.175
1268.07163	12770.275
1271.61453	13333.475
1275.15503	13660.775
1278.69312	13766.575
1282.22882	13943.375
1285.76211	14496.475
1289.29301	15345.275
1292.82151	16276.275
1296.34761	17288.375
1299.87133	18724.175
1303.39266	21030.975
1306.9116	24577.575
1310.42815	28722.375
1313.94233	30878.175
1317.45412	29423.275
1320.96354	25984.675
1324.47058	22366.275
1327.97525	19551.075
1331.47754	17935.675
1334.97747	17355.075
1338.47502	17667.475
1341.97022	18483.775
1345.46305	19823.875
1348.95352	21735.475
1352.44163	24411.475
1355.92738	28307.275
1359.41078	34066.575
1362.89183	38927.475
1366.37053	36841.075
1369.84688	29389.975
1373.32088	22653.775
1376.79254	18773.575
1380.26186	16731.275
1383.72883	15460.575
1387.19347	14399.075
1390.65578	13481.775
1394.11575	12926.275
1397.57339	12733.675
1401.0287	12840.975
1404.48168	12971.075
1407.93234	13082.175
1411.38068	13108.075
1414.82669	12997.875
1418.27039	12734.175
1421.71177	12339.175
1425.15083	11963.175
1428.58758	11887.875
1432.02203	12183.475
1435.45416	12487.575
1438.88399	12598.375
1442.31151	12624.575
1445.73673	12683.075
1449.15965	12789.175
1452.58027	12754.075
1455.9986	12556.975
1459.41463	12518.575
1462.82837	12837.775
1466.23982	13322.675
1469.64898	13811.575
1473.05586	14125.075
1476.46045	14271.475
1479.86276	14454.675
1483.26279	14801.475
1486.66054	15269.175
1490.05602	16001.975
1493.44922	17041.975
1496.84016	18643.975
1500.22882	21349.175
1503.61521	25184.875
1506.99934	29668.075
1510.38121	33724.175
1513.76081	35114.575
1517.13816	32176.975
1520.51324	26485.275
1523.88607	21273.775
1527.25665	17994.675
1530.62498	16318.275
1533.99105	15362.275
1537.35488	14731.375
1540.71647	14301.775
1544.07581	14000.575
1547.4329	13872.675
1550.78776	13801.075
1554.14038	13782.575
1557.49077	13881.175
1560.83892	14222.375
1564.18484	14867.675
1567.52853	15738.275
1570.86999	16514.375
1574.20922	16958.675
1577.54624	16756.875
1580.88103	15446.575
1584.2136	13652.775
1587.54395	12693.075
1590.87208	12963.275
1594.19801	14175.575
1597.52172	15920.275
1600.84321	16928.175
1604.16251	16341.375
1607.47959	14730.575
1610.79447	12884.875
1614.10715	11245.875
1617.41763	9994.275
1620.7259	9265.975
1624.03199	8974.575
1627.33587	9010.375
1630.63757	9413.175
1633.93707	10297.175
1637.23439	11879.975
1640.52951	14411.075
1643.82246	18018.175
1647.11321	21976.775
1650.40179	24305.975
1653.68819	22905.175
1656.97241	18464.775
1660.25446	13858.375
1663.53433	10680.175
1666.81203	8878.475
1670.08756	7874.775
1673.36092	7294.275
1676.63211	6921.375
1679.90115	6688.075
1683.16801	6521.375
1686.43272	6390.675
1689.69527	6308.075
1692.95567	6228.075
1696.2139	6217.475
1699.46999	6177.875
1702.72392	6161.875
1705.97571	6136.275
1709.22535	6077.575
1712.47284	6078.275
1715.71819	6094.975
1718.96139	6117.975
1722.20246	6082.075
1725.44139	6004.375
1728.67818	5954.975
1731.91284	5861.775
1735.14537	5802.475
1738.37576	5678.175
1741.60403	5694.675
1744.83017	5687.575
1748.05418	5646.475
1751.27607	5631.275
1754.49584	5597.375
1757.71349	5615.975
1760.92903	5558.575
1764.14244	5581.075
1767.35375	5533.175
1770.56294	5500.975
1773.77002	5488.475
1776.97499	5459.275
1780.17785	5430.375
1783.37861	5392.975
1786.57727	5365.075
1789.77382	5344.575
1792.96828	5334.475
1796.16064	5321.175
1799.3509	5329.575
1802.53907	5310.175
1805.72514	5287.875
1808.90913	5258.475
1812.09102	5238.775
1815.27083	5225.475
1818.44856	5225.475
1821.6242	5210.575
1824.79776	5196.575
1827.96924	5184.775
1831.13864	5168.975
1834.30597	5167.775
1837.47122	5152.175
1840.6344	5125.675
1843.7955	5132.775
1846.95454	5121.575
1850.11151	5131.875
1853.26642	5128.775
1856.41926	5138.275
1859.57004	5139.775
1862.71876	5125.275
1865.86542	5135.575
1869.01003	5123.275
1872.15258	5114.275
1875.29308	5123.675
1878.43152	5122.375
1881.56792	5137.475
1884.70227	5141.075
1887.83457	5125.375
1890.96482	5132.175
1894.09304	5134.175
1897.21921	5127.975
1900.34335	5135.075
1903.46544	5121.175
1906.58551	5152.175
1909.70353	5161.975
1912.81953	5143.875
1915.93349	5136.775
1919.04543	5126.875
1922.15534	5099.575
1925.26322	5078.675
1928.36908	5057.475
1931.47292	5023.575
1934.57473	4979.675
1937.67453	4959.475
1940.77232	4924.575
1943.86808	4906.175
1946.96184	4892.775
1950.05358	4878.375
1953.14331	4867.775
1956.23103	4853.675
1959.31675	4846.675
1962.40046	4830.475
1965.48217	4831.375
1968.56188	4814.775
1971.63959	4829.675
1974.7153	4831.475
1977.78901	4792.575
1980.86073	4777.075
1983.93046	4747.675
1986.99819	4734.075
1990.06394	4707.175
1993.1277	4690.975
1996.18947	4666.675
1999.24925	4660.775
2002.30706	4640.875
2005.36288	4618.875
2008.41672	4600.575
2011.46859	4585.675
2014.51848	4583.875
2017.56639	4559.875
2020.61233	4559.275
2023.6563	4541.275
2026.6983	4520.975
2029.73833	4494.975
2032.7764	4495.375
2035.8125	4488.375
2038.84664	4485.575
2041.87881	4463.475
2044.90903	4464.075
2047.93729	4459.775
2050.96359	4470.975
2053.98794	4457.275
2057.01034	4442.975
2060.03078	4445.875
2063.04927	4435.375
2066.06582	4433.075
2069.08042	4417.375
2072.09307	4401.775
2075.10378	4403.975
2078.11255	4404.875
2081.11938	4418.575
2084.12426	4415.575
2087.12722	4404.275
2090.12824	4413.075
2093.12732	4426.175
2096.12447	4423.275
2099.11969	4412.675
2102.11299	4419.975
2105.10435	4408.075
2108.09379	4423.975
2111.08131	4434.175
2114.0669	4425.275
2117.05057	4440.075
2120.03233	4434.575
2123.01216	4456.675
2125.99008	4485.275
2128.96609	4469.775
2131.94018	4465.575
2134.91236	4458.875
2137.88263	4472.275
2140.851	4463.075
2143.81746	4463.175
2146.78201	4458.375
2149.74466	4460.775
2152.7054	4454.975
2155.66425	4449.975
2158.6212	4443.275
2161.57625	4426.575
2164.52941	4432.175
2167.48067	4435.275
2170.43004	4443.075
2173.37752	4431.075
2176.32311	4444.475
2179.26681	4457.075
2182.20863	4471.275
2185.14856	4456.875
2188.08661	4461.475
2191.02278	4456.975
2193.95707	4459.475
2196.88948	4432.375
2199.82001	4424.575
2202.74867	4425.575
2205.67545	4431.175
2208.60037	4420.775
2211.52341	4411.775
2214.44458	4433.775
2217.36388	4410.575
2220.28132	4421.775
2223.1969	4394.575
2226.11061	4381.575
2229.02246	4386.575
2231.93245	4366.575
2234.84058	4362.175
2237.74686	4365.275
2240.65128	4369.075
2243.55385	4360.375
2246.45456	4338.875
2249.35343	4351.875
2252.25044	4363.775
2255.14561	4365.675
2258.03893	4389.175
2260.93041	4389.275
2263.82004	4371.275
2266.70783	4377.575
2269.59378	4378.575
2272.4779	4353.475
2275.36017	4355.475
2278.24061	4352.575
2281.11922	4331.875
2283.996	4316.375
2286.87094	4309.575
2289.74405	4291.475
2292.61534	4290.675
2295.4848	4289.475
2298.35243	4268.575
2301.21824	4279.375
2304.08223	4282.175
2306.94439	4272.175
2309.80474	4280.075
2312.66327	4279.775
2315.51999	4283.875
2318.37489	4281.575
2321.22797	4266.975
2324.07925	4288.375
2326.92871	4270.175
2329.77637	4274.375
2332.62222	4268.375
2335.46626	4271.275
2338.3085	4276.875
2341.14893	4283.875
2343.98756	4276.275
2346.8244	4289.775
2349.65943	4297.675
2352.49267	4317.375
2355.32411	4337.375
2358.15376	4340.275
2360.98161	4362.575
2363.80768	4391.675
2366.63195	4402.775
2369.45444	4417.575
2372.27514	4406.975
2375.09405	4411.575
2377.91118	4405.975
2380.72652	4382.575
2383.54009	4350.175
2386.35187	4332.175
2389.16188	4316.975
2391.97011	4288.675
2394.77657	4269.975
2397.58125	4277.375
2400.38416	4238.775
2403.18529	4232.275
2405.98466	4221.775
2408.78226	4216.975
2411.57809	4208.575
2414.37216	4200.375
2417.16446	4211.575
2419.955	4205.675
2422.74378	4206.875
2425.5308	4213.175
2428.31606	4215.475
2431.09956	4243.275
2433.88131	4248.775
2436.6613	4248.675
2439.43954	4242.075
2442.21603	4255.675
2444.99077	4243.475
2447.76377	4269.375
2450.53501	4275.675
2453.30451	4300.875
2456.07226	4292.675
2458.83827	4282.975
2461.60254	4305.875
2464.36507	4293.975
2467.12586	4308.375
2469.88492	4313.775
2472.64224	4314.475
2475.39782	4308.275
2478.15167	4337.675
2480.90379	4365.075
2483.65417	4378.475
2486.40283	4409.075
2489.14976	4398.475
2491.89497	4421.475
2494.63845	4440.675
2497.3802	4441.875
2500.12024	4443.175
2502.85855	4425.675
2505.59514	4397.475
2508.33002	4363.475
2511.06318	4342.975
2513.79462	4317.975
2516.52435	4295.975
2519.25237	4271.275
2521.97867	4257.775
2524.70327	4242.675
2527.42616	4232.775
2530.14734	4234.275
2532.86681	4236.575
2535.58458	4234.375
2538.30065	4227.375
2541.01501	4245.875
2543.72768	4253.775
2546.43864	4263.275
2549.14791	4268.875
2551.85548	4253.575
2554.56136	4258.975
2557.26554	4262.275
2559.96803	4264.575
2562.66883	4266.175
2565.36794	4262.475
2568.06536	4260.175
2570.7611	4250.475
2573.45514	4246.875
2576.14751	4244.375
2578.83819	4233.775
2581.52719	4234.175
2584.21451	4222.575
2586.90015	4225.175
2589.58411	4216.975
2592.2664	4205.875
2594.94701	4205.475
2597.62594	4226.575
2600.30321	4217.975
2602.9788	4213.975
2605.65273	4217.675
2608.32498	4222.575
2610.99557	4216.975
2613.66449	4237.975
2616.33175	4233.875
2618.99734	4244.875
2621.66128	4237.775
2624.32355	4232.975
2626.98416	4230.675
2629.64311	4219.575
2632.30041	4224.875
2634.95605	4213.875
2637.61004	4210.575
2640.26238	4203.575
2642.91306	4211.375
2645.56209	4200.275
2648.20948	4196.075
2650.85521	4193.075
2653.4993	4212.375
2656.14175	4204.775
2658.78255	4229.675
2661.42171	4228.475
2664.05923	4248.675
2666.6951	4255.675
2669.32934	4262.275
2671.96194	4254.275
2674.59291	4259.775
2677.22224	4275.175
2679.84993	4266.775
2682.476	4285.775
2685.10043	4264.275
2687.72324	4275.875
2690.34441	4266.675
2692.96396	4260.575
2695.58188	4287.575
2698.19818	4277.675
2700.81285	4258.175
2703.4259	4267.375
2706.03733	4275.775
2708.64714	4283.175
2711.25533	4301.975
2713.86191	4305.575
2716.46687	4324.075
2719.07021	4327.075
2721.67194	4327.475
2724.27206	4323.075
2726.87057	4335.775
2729.46747	4343.375
2732.06276	4320.775
2734.65644	4311.375
2737.24852	4295.275
2739.83899	4307.575
2742.42786	4288.775
2745.01513	4294.775
2747.60079	4293.175
2750.18486	4275.975
2752.76733	4274.075
2755.3482	4255.375
2757.92747	4261.875
2760.50515	4259.275
2763.08123	4251.175
2765.65573	4252.875
2768.22863	4245.475
2770.79994	4227.875
2773.36967	4247.975
2775.9378	4264.175
2778.50435	4260.975
2781.06932	4271.075
2783.6327	4276.175
2786.1945	4289.175
2788.75471	4273.775
2791.31335	4279.875
2793.87041	4279.875
2796.42589	4275.775
2798.97979	4290.575
2801.53212	4274.275
2804.08288	4284.075
2806.63206	4279.475
2809.17967	4300.075
2811.72571	4287.175
2814.27018	4282.975
2816.81308	4294.075
2819.35442	4309.375
2821.89419	4312.475
2824.43239	4324.975
2826.96904	4341.075
2829.50412	4337.375
2832.03763	4344.175
2834.56959	4352.575
2837.1	4337.275
2839.62884	4359.375
2842.15613	4372.075
2844.68186	4409.375
2847.20604	4435.675
2849.72867	4475.475
2852.24974	4484.875
2854.76927	4489.075
2857.28724	4501.475
2859.80367	4506.575
2862.31855	4487.875
2864.83189	4503.275
2867.34368	4507.575
2869.85393	4501.075
2872.36264	4490.275
2874.8698	4505.975
2877.37543	4485.175
2879.87952	4478.875
2882.38207	4489.775
2884.88308	4469.175
2887.38256	4465.375
2889.88051	4462.475
2892.37692	4450.075
2894.8718	4444.575
2897.36515	4452.675
2899.85698	4472.875
2902.34727	4469.175
2904.83604	4457.675
2907.32328	4466.775
2909.809	4464.075
2912.29319	4481.975
2914.77587	4459.975
2917.25702	4466.375
2919.73665	4441.975
2922.21476	4441.275
2924.69136	4411.975
2927.16644	4424.275
2929.64	4396.975
2932.11205	4388.775
2934.58258	4359.975
2937.05161	4367.875
2939.51912	4347.975
2941.98513	4319.975
2944.44962	4300.675
2946.91261	4272.675
2949.37409	4256.275
2951.83407	4253.175
2954.29254	4229.775
2956.74951	4234.175
2959.20498	4240.175
2961.65895	4223.875
2964.11142	4189.475
2966.56239	4194.775
2969.01186	4184.675
2971.45984	4151.875
2973.90632	4157.575
2976.35131	4127.675
2978.7948	4112.075
2981.23681	4096.975
2983.67732	4085.675
2986.11635	4084.075
2988.55388	4070.875
2990.98993	4061.075
2993.4245	4057.675
2995.85758	4031.675
2998.28917	4031.675
3000.71928	4036.375
3003.14791	4027.675
3005.57506	4030.375
3008.00073	4009.875
3010.42493	4011.775
3012.84764	4012.175
3015.26888	4009.175
3017.68865	3999.875
3020.10694	4011.475
3022.52376	3998.675
3024.9391	3981.675
3027.35298	3951.175
3029.76539	3951.575
3032.17632	3949.275
3034.5858	3929.475
3036.9938	3911.575
3039.40034	3904.475
3041.80542	3907.375
3044.20903	3889.175
3046.61118	3891.775
3049.01187	3868.675
3051.4111	3878.775
3053.80888	3862.475
3056.20519	3862.875
3058.60005	3859.875
3060.99345	3855.675
3063.3854	3848.075
3065.7759	3823.775
3068.16494	3801.875
3070.55254	3791.775
3072.93868	3788.175
3075.32338	3801.675
3077.70662	3773.475
3080.08842	3746.475
3082.46878	3747.975
3084.84769	3724.075
3087.22515	3742.875
3089.60118	3731.775
3091.97576	3731.475
3094.3489	3719.075
3096.72061	3738.875
3099.09087	3736.175
3101.4597	3722.875
3103.82709	3738.875
3106.19305	3720.475
3108.55757	3730.675
3110.92066	3717.975
3113.28232	3711.375
3115.64255	3700.075
3118.00134	3683.475
3120.35871	3698.775
3122.71466	3679.475
3125.06917	3669.775
3127.42226	3675.375
3129.77393	3670.075
3132.12417	3672.975
3134.47299	3675.875
3136.82039	3684.875
3139.16636	3673.875
3141.51092	3680.275
3143.85406	3693.075
3146.19579	3695.775
3148.53609	3682.575
3150.87499	3705.075
3153.21246	3702.575
3155.54853	3709.575
3157.88318	3706.575
3160.21642	3719.975
3162.54826	3697.875
3164.87868	3712.775
3167.2077	3715.275
3169.5353	3717.675
3171.86151	3716.575
3174.18631	3732.675
3176.5097	3725.775
3178.83169	3721.175
3181.15228	3723.575
3183.47147	3716.675
3185.78926	3730.975
3188.10565	3712.675
3190.42065	3729.075
3192.73424	3705.875
3195.04645	3703.875
3197.35725	3714.375
3199.66667	3714.275
3201.97469	3726.675
3204.28132	3739.075
3206.58656	3741.075
3208.8904	3746.775
3211.19287	3753.975
