Data from AgNPs_FTO_APTES_UA_20uM_CRN_2uM_R6G_10uM_NaF_0.1M_Addition_RamanShift__19__13-02-42-090.txt Node

Date: Thu Feb 17 13:02:42 GMT 2022
User: TCL
Spectrometer: QEP01345
Trigger mode: 4
Integration Time (sec): 7.000000E0
Scans to average: 10
Electric dark correction enabled: true
Nonlinearity correction enabled: false
Boxcar width: 0
XAxis mode: Raman Shifts
Number of Pixels in Spectrum: 1044
>>>>>Begin Spectral Data<<<<<
46.04893	-0.825
50.45542	-1.225
54.85868	-2.425
59.25871	-1.025
63.6555	119.475
68.04907	124.275
72.43941	129.475
76.82654	131.075
81.21044	136.575
85.59113	140.275
89.96862	143.075
94.34289	145.075
98.71396	147.775
103.08183	155.575
107.4465	163.975
111.80798	160.275
116.16626	167.875
120.52136	180.375
124.87327	188.075
129.222	198.675
133.56755	212.975
137.90993	229.975
142.24913	254.575
146.58517	293.875
150.91804	349.875
155.24774	411.575
159.57429	520.375
163.89768	678.475
168.21792	910.875
172.53501	1263.975
176.84895	1773.875
181.15975	2505.575
185.46741	3520.975
189.77193	4866.775
194.07331	6536.875
198.37157	8426.675
202.6667	10400.375
206.9587	12397.175
211.24758	14309.375
215.53334	16288.375
219.81599	18357.875
224.09553	20622.875
228.37195	23118.975
232.64527	25925.075
236.91549	28845.575
241.18261	31848.175
245.44663	34656.075
249.70755	37121.375
253.96539	39384.275
258.22014	41234.075
262.4718	42783.575
266.72039	43989.175
270.96589	44619.975
275.20832	44735.975
279.44768	44533.975
283.68397	44190.275
287.91719	43917.475
292.14735	43679.175
296.37445	43600.075
300.59849	43711.375
304.81948	43755.275
309.03742	43690.875
313.25231	43325.975
317.46415	42636.075
321.67296	41749.175
325.87872	41062.275
330.08145	40697.675
334.28114	40759.175
338.47781	41167.875
342.67145	41615.375
346.86207	42300.475
351.04966	43049.675
355.23424	43879.075
359.4158	44515.675
363.59435	45091.675
367.76989	45475.975
371.94243	45792.275
376.11196	46093.675
380.27849	46376.375
384.44203	46687.875
388.60257	46945.475
392.76012	47381.075
396.91468	47909.675
401.06626	48417.375
405.21485	48852.675
409.36047	48749.275
413.50311	48325.975
417.64277	47857.575
421.77947	47874.175
425.9132	48090.575
430.04396	48384.675
434.17176	48733.375
438.2966	49227.175
442.41849	50115.975
446.53742	51342.075
450.6534	52850.275
454.76644	53926.075
458.87653	54405.775
462.98368	54160.575
467.08789	53490.175
471.18916	52837.275
475.2875	52204.775
479.38291	51923.875
483.4754	51644.675
487.56496	51102.875
491.6516	50429.575
495.73531	49725.775
499.81612	49389.075
503.89401	49552.575
507.96899	49707.975
512.04106	49695.975
516.11023	49383.375
520.1765	49001.075
524.23987	48726.575
528.30034	48534.475
532.35792	48222.575
536.41261	47799.875
540.46441	47388.775
544.51333	47481.875
548.55936	47992.575
552.60252	48914.975
556.64279	50043.875
560.6802	50910.375
564.71473	51394.875
568.7464	52209.075
572.7752	53339.275
576.80114	54412.175
580.82422	55191.575
584.84444	55969.275
588.86181	56928.175
592.87633	57798.375
596.888	57899.075
600.89682	57214.175
604.9028	58023.875
608.90594	61690.975
612.90624	65227.075
616.90371	61595.575
620.89834	53527.875
624.89015	50053.375
628.87913	49676.575
632.86528	49719.475
636.84862	49579.975
640.82913	48951.375
644.80683	47999.675
648.78172	47204.875
652.75379	47114.975
656.72306	47670.075
660.68952	48446.175
664.65319	48245.175
668.61405	47553.675
672.57211	47483.075
676.52738	47533.975
680.47986	47502.275
684.42955	47299.775
688.37646	47239.975
692.32058	47553.875
696.26192	47957.275
700.20048	48597.575
704.13626	48953.175
708.06928	48891.175
711.99952	48594.275
715.927	48518.975
719.85171	48679.675
723.77365	48620.075
727.69284	48227.375
731.60928	47805.875
735.52295	47667.775
739.43388	47727.075
743.34206	47886.675
747.24749	48103.175
751.15017	48444.575
755.05012	49118.375
758.94733	50295.575
762.8418	52388.275
766.73354	55691.075
770.62254	58654.975
774.50882	59030.075
778.39237	56645.475
782.27321	53206.075
786.15132	50486.875
790.02671	48872.675
793.89938	48020.475
797.76935	47674.875
801.6366	47622.675
805.50115	47515.175
809.36299	47364.775
813.22213	47095.475
817.07857	46981.275
820.93231	46877.375
824.78336	46676.275
828.63172	46574.175
832.47738	46613.075
836.32036	46600.275
840.16066	46766.375
843.99827	46862.375
847.8332	46845.075
851.66546	46730.075
855.49504	46690.075
859.32195	46720.475
863.1462	46689.975
866.96777	46638.275
870.78668	46533.675
874.60293	46587.375
878.41652	46597.375
882.22745	46693.175
886.03573	46789.075
889.84136	46798.775
893.64433	46523.475
897.44466	46410.475
901.24235	46276.975
905.0374	46148.575
908.8298	46050.875
912.61957	46162.675
916.40671	46466.575
920.19121	46981.075
923.97308	47485.675
927.75233	47525.375
931.52895	47110.675
935.30295	46675.375
939.07433	46021.775
942.84309	45562.675
946.60924	45416.275
950.37278	45463.175
954.13371	45447.875
957.89203	45344.275
961.64774	45273.275
965.40086	45196.675
969.15137	45040.975
972.89929	44866.175
976.64461	44763.575
980.38733	44810.275
984.12747	44890.775
987.86502	45254.775
991.59999	45787.175
995.33237	46544.275
999.06217	47602.375
1002.78939	48894.375
1006.51404	49805.575
1010.23611	50439.175
1013.95561	50819.075
1017.67255	50868.775
1021.38692	50352.175
1025.09872	49760.775
1028.80796	49611.475
1032.51465	50190.875
1036.21877	50830.375
1039.92035	50902.475
1043.61937	50507.975
1047.31584	49859.475
1051.00976	49110.575
1054.70114	48786.175
1058.38998	48870.875
1062.07627	49186.075
1065.76003	49536.675
1069.44126	50004.475
1073.11995	50537.375
1076.79611	51069.875
1080.46974	51462.975
1084.14085	51958.875
1087.80943	52488.775
1091.47549	52866.775
1095.13903	52784.275
1098.80005	52233.575
1102.45857	51468.575
1106.11456	50946.275
1109.76805	50741.775
1113.41903	50952.375
1117.06751	51271.775
1120.71348	51608.175
1124.35696	51983.075
1127.99793	52302.775
1131.63641	52471.575
1135.2724	52305.575
1138.90589	52029.975
1142.5369	52026.375
1146.16542	52127.975
1149.79145	52404.075
1153.415	52910.675
1157.03607	53665.375
1160.65467	54901.175
1164.27079	56848.975
1167.88443	59396.475
1171.49561	62698.775
1175.10432	66699.875
1178.71056	71719.775
1182.31434	76286.175
1185.91565	78506.675
1189.51451	78142.975
1193.11091	76010.675
1196.70485	73314.475
1200.29634	70661.375
1203.88538	68732.375
1207.47197	67471.975
1211.05612	66412.875
1214.63782	65339.575
1218.21708	64515.875
1221.79391	64116.875
1225.36829	63680.575
1228.94024	62870.775
1232.50976	61667.575
1236.07685	60461.775
1239.6415	59927.075
1243.20374	59791.875
1246.76355	60145.775
1250.32093	60950.375
1253.8759	62109.375
1257.42845	63573.175
1260.97859	65065.275
1264.52631	66643.175
1268.07163	68344.575
1271.61453	70096.275
1275.15503	71868.575
1278.69312	73706.475
1282.22882	75400.575
1285.76211	77212.775
1289.29301	79175.275
1292.82151	81843.975
1296.34761	85409.675
1299.87133	89758.475
1303.39266	94705.575
1306.9116	100066.975
1310.42815	105048.075
1313.94233	108315.275
1317.45412	108986.575
1320.96354	107776.775
1324.47058	106214.675
1327.97525	104659.975
1331.47754	103237.475
1334.97747	102462.375
1338.47502	102150.875
1341.97022	101909.275
1345.46305	100800.475
1348.95352	99174.875
1352.44163	97643.375
1355.92738	98007.475
1359.41078	100559.675
1362.89183	102959.475
1366.37053	100983.875
1369.84688	93764.375
1373.32088	85344.575
1376.79254	79618.475
1380.26186	77513.775
1383.72883	77395.375
1387.19347	77727.575
1390.65578	77416.875
1394.11575	77658.775
1397.57339	78538.375
1401.0287	80183.375
1404.48168	81629.475
1407.93234	82042.575
1411.38068	81099.275
1414.82669	78869.175
1418.27039	75878.675
1421.71177	72791.175
1425.15083	70216.075
1428.58758	68898.175
1432.02203	69263.175
1435.45416	70783.075
1438.88399	72811.175
1442.31151	74518.275
1445.73673	75824.875
1449.15965	76705.775
1452.58027	77343.875
1455.9986	77555.375
1459.41463	78116.475
1462.82837	79160.975
1466.23982	80476.375
1469.64898	81700.775
1473.05586	82381.875
1476.46045	82268.575
1479.86276	81520.775
1483.26279	80354.375
1486.66054	79474.275
1490.05602	79281.875
1493.44922	79328.875
1496.84016	79481.275
1500.22882	80340.275
1503.61521	81966.075
1506.99934	84105.775
1510.38121	85833.975
1513.76081	86046.475
1517.13816	84325.975
1520.51324	81559.875
1523.88607	79484.175
1527.25665	78750.675
1530.62498	78862.175
1533.99105	79114.475
1537.35488	79102.075
1540.71647	78379.675
1544.07581	77259.975
1547.4329	75746.875
1550.78776	74344.975
1554.14038	73263.675
1557.49077	72495.275
1560.83892	72072.775
1564.18484	71909.375
1567.52853	71901.175
1570.86999	72240.575
1574.20922	73083.675
1577.54624	73744.575
1580.88103	73868.075
1584.2136	74420.575
1587.54395	76365.275
1590.87208	80104.575
1594.19801	85004.475
1597.52172	89977.675
1600.84321	91711.075
1604.16251	88375.475
1607.47959	82375.875
1610.79447	75826.775
1614.10715	69796.175
1617.41763	64698.275
1620.7259	61150.475
1624.03199	59303.875
1627.33587	59114.175
1630.63757	60603.475
1633.93707	64131.975
1637.23439	69924.075
1640.52951	78201.575
1643.82246	87293.375
1647.11321	93618.675
1650.40179	93762.475
1653.68819	86903.475
1656.97241	76216.375
1660.25446	66126.675
1663.53433	58776.475
1666.81203	53985.975
1670.08756	50949.875
1673.36092	49096.075
1676.63211	47818.775
1679.90115	46956.575
1683.16801	46235.875
1686.43272	45726.875
1689.69527	45363.775
1692.95567	45017.275
1696.2139	44886.875
1699.46999	44817.375
1702.72392	44558.775
1705.97571	44521.175
1709.22535	44374.775
1712.47284	44294.075
1715.71819	44290.775
1718.96139	44184.375
1722.20246	44025.175
1725.44139	43831.575
1728.67818	43651.375
1731.91284	43434.775
1735.14537	43185.975
1738.37576	43041.075
1741.60403	42924.475
1744.83017	42709.775
1748.05418	42600.775
1751.27607	42499.075
1754.49584	42483.175
1757.71349	42484.875
1760.92903	42488.575
1764.14244	42425.775
1767.35375	42352.675
1770.56294	42294.375
1773.77002	42236.375
1776.97499	42235.675
1780.17785	42170.775
1783.37861	42041.075
1786.57727	42019.375
1789.77382	41889.675
1792.96828	41902.575
1796.16064	41848.975
1799.3509	41776.075
1802.53907	41726.475
1805.72514	41620.975
1808.90913	41454.475
1812.09102	41414.875
1815.27083	41347.075
1818.44856	41282.575
1821.6242	41234.775
1824.79776	41198.375
1827.96924	41128.575
1831.13864	41159.775
1834.30597	41162.775
1837.47122	41042.775
1840.6344	41051.875
1843.7955	41052.875
1846.95454	41103.275
1850.11151	41087.975
1853.26642	41043.275
1856.41926	40989.475
1859.57004	41011.675
1862.71876	40887.975
1865.86542	40918.575
1869.01003	40896.875
1872.15258	40844.275
1875.29308	40786.975
1878.43152	40736.475
1881.56792	40731.175
1884.70227	40761.875
1887.83457	40744.175
1890.96482	40725.075
1894.09304	40711.175
1897.21921	40690.675
1900.34335	40575.475
1903.46544	40521.075
1906.58551	40513.275
1909.70353	40555.075
1912.81953	40460.875
1915.93349	40377.275
1919.04543	40283.075
1922.15534	40252.075
1925.26322	40176.775
1928.36908	40095.675
1931.47292	40047.475
1934.57473	39917.975
1937.67453	39844.575
1940.77232	39776.275
1943.86808	39652.275
1946.96184	39473.275
1950.05358	39359.475
1953.14331	39250.075
1956.23103	39178.775
1959.31675	39059.875
1962.40046	38939.275
1965.48217	38747.475
1968.56188	38697.475
1971.63959	38638.675
1974.7153	38551.475
1977.78901	38420.575
1980.86073	38280.075
1983.93046	38225.475
1986.99819	38127.375
1990.06394	38041.175
1993.1277	37987.775
1996.18947	37834.975
1999.24925	37713.375
2002.30706	37643.675
2005.36288	37536.475
2008.41672	37391.875
2011.46859	37290.175
2014.51848	37200.175
2017.56639	37094.575
2020.61233	37015.775
2023.6563	36910.475
2026.6983	36823.075
2029.73833	36767.175
2032.7764	36713.075
2035.8125	36683.275
2038.84664	36580.775
2041.87881	36563.875
2044.90903	36453.475
2047.93729	36431.575
2050.96359	36452.975
2053.98794	36376.175
2057.01034	36393.075
2060.03078	36399.975
2063.04927	36333.675
2066.06582	36310.475
2069.08042	36298.575
2072.09307	36168.775
2075.10378	36198.175
2078.11255	36161.675
2081.11938	36196.575
2084.12426	36176.775
2087.12722	36160.075
2090.12824	36064.675
2093.12732	36111.775
2096.12447	36066.975
2099.11969	36060.975
2102.11299	36069.975
2105.10435	36067.175
2108.09379	36077.175
2111.08131	36142.775
2114.0669	36125.175
2117.05057	36097.875
2120.03233	36148.075
2123.01216	36204.275
2125.99008	36227.875
2128.96609	36278.175
2131.94018	36329.675
2134.91236	36394.775
2137.88263	36390.175
2140.851	36402.775
2143.81746	36463.375
2146.78201	36458.175
2149.74466	36487.275
2152.7054	36517.375
2155.66425	36505.675
2158.6212	36503.875
2161.57625	36424.375
2164.52941	36419.475
2167.48067	36457.275
2170.43004	36381.875
2173.37752	36445.475
2176.32311	36425.975
2179.26681	36438.175
2182.20863	36465.475
2185.14856	36480.875
2188.08661	36487.475
2191.02278	36486.275
2193.95707	36380.875
2196.88948	36391.175
2199.82001	36408.175
2202.74867	36378.275
2205.67545	36324.875
2208.60037	36286.575
2211.52341	36241.275
2214.44458	36245.075
2217.36388	36228.275
2220.28132	36161.975
2223.1969	36080.875
2226.11061	35978.275
2229.02246	35909.275
2231.93245	35835.975
2234.84058	35760.975
2237.74686	35745.375
2240.65128	35746.175
2243.55385	35643.675
2246.45456	35625.475
2249.35343	35525.575
2252.25044	35519.475
2255.14561	35435.775
2258.03893	35414.175
2260.93041	35360.475
2263.82004	35284.075
2266.70783	35205.475
2269.59378	35154.475
2272.4779	35021.575
2275.36017	34969.675
2278.24061	34930.675
2281.11922	34849.375
2283.996	34768.575
2286.87094	34784.475
2289.74405	34769.475
2292.61534	34746.875
2295.4848	34729.975
2298.35243	34723.075
2301.21824	34672.875
2304.08223	34655.575
2306.94439	34679.275
2309.80474	34709.575
2312.66327	34692.775
2315.51999	34699.975
2318.37489	34664.675
2321.22797	34600.675
2324.07925	34601.175
2326.92871	34537.575
2329.77637	34475.075
2332.62222	34451.275
2335.46626	34455.175
2338.3085	34453.375
2341.14893	34441.775
2343.98756	34462.175
2346.8244	34476.575
2349.65943	34492.875
2352.49267	34481.975
2355.32411	34476.375
2358.15376	34411.275
2360.98161	34428.075
2363.80768	34348.775
2366.63195	34370.275
2369.45444	34291.175
2372.27514	34248.875
2375.09405	34214.475
2377.91118	34122.375
2380.72652	34017.875
2383.54009	33947.375
2386.35187	33949.775
2389.16188	33770.975
2391.97011	33789.475
2394.77657	33757.175
2397.58125	33690.675
2400.38416	33633.575
2403.18529	33567.175
2405.98466	33581.875
2408.78226	33497.375
2411.57809	33451.775
2414.37216	33389.275
2417.16446	33414.275
2419.955	33355.775
2422.74378	33332.375
2425.5308	33293.375
2428.31606	33340.775
2431.09956	33319.175
2433.88131	33266.475
2436.6613	33289.375
2439.43954	33262.875
2442.21603	33236.075
2444.99077	33227.975
2447.76377	33238.775
2450.53501	33220.875
2453.30451	33234.075
2456.07226	33173.975
2458.83827	33177.675
2461.60254	33095.675
2464.36507	33167.675
2467.12586	33120.175
2469.88492	33126.175
2472.64224	33168.175
2475.39782	33143.775
2478.15167	33159.375
2480.90379	33159.575
2483.65417	33208.975
2486.40283	33250.175
2489.14976	33184.075
2491.89497	33179.875
2494.63845	33259.575
2497.3802	33222.175
2500.12024	33200.475
2502.85855	33199.175
2505.59514	33153.175
2508.33002	33095.475
2511.06318	33112.075
2513.79462	33068.675
2516.52435	33064.475
2519.25237	33040.575
2521.97867	32994.275
2524.70327	32990.475
2527.42616	32988.875
2530.14734	32993.975
2532.86681	32946.075
2535.58458	32954.375
2538.30065	32853.575
2541.01501	32943.975
2543.72768	32921.775
2546.43864	32925.075
2549.14791	32851.275
2551.85548	32793.775
2554.56136	32719.475
2557.26554	32683.375
2559.96803	32617.775
2562.66883	32566.975
2565.36794	32601.475
2568.06536	32587.375
2570.7611	32445.975
2573.45514	32438.875
2576.14751	32436.475
2578.83819	32436.775
2581.52719	32442.975
2584.21451	32398.475
2586.90015	32384.775
2589.58411	32331.775
2592.2664	32341.275
2594.94701	32340.475
2597.62594	32332.975
2600.30321	32311.475
2602.9788	32349.075
2605.65273	32309.475
2608.32498	32314.675
2610.99557	32311.575
2613.66449	32333.075
2616.33175	32331.475
2618.99734	32238.875
2621.66128	32240.575
2624.32355	32223.175
2626.98416	32240.875
2629.64311	32211.575
2632.30041	32197.075
2634.95605	32172.675
2637.61004	32145.975
2640.26238	32142.675
2642.91306	32095.475
2645.56209	32107.475
2648.20948	32070.075
2650.85521	32093.475
2653.4993	32101.175
2656.14175	32083.475
2658.78255	32145.775
2661.42171	32171.575
2664.05923	32212.375
2666.6951	32161.475
2669.32934	32153.175
2671.96194	32209.275
2674.59291	32228.575
2677.22224	32197.275
2679.84993	32210.175
2682.476	32159.575
2685.10043	32137.875
2687.72324	32103.775
2690.34441	32100.075
2692.96396	32119.575
2695.58188	32141.775
2698.19818	32054.375
2700.81285	32072.875
2703.4259	32032.775
2706.03733	32101.575
2708.64714	32067.275
2711.25533	32141.075
2713.86191	32118.875
2716.46687	32171.875
2719.07021	32208.875
2721.67194	32217.175
2724.27206	32193.075
2726.87057	32221.075
2729.46747	32247.675
2732.06276	32222.075
2734.65644	32255.675
2737.24852	32247.175
2739.83899	32245.675
2742.42786	32224.875
2745.01513	32204.075
2747.60079	32169.075
2750.18486	32137.675
2752.76733	32166.175
2755.3482	32106.975
2757.92747	32080.475
2760.50515	32089.275
2763.08123	32120.175
2765.65573	32089.875
2768.22863	32107.475
2770.79994	32056.375
2773.36967	32073.675
2775.9378	32097.175
2778.50435	32070.075
2781.06932	32077.075
2783.6327	32040.975
2786.1945	32001.575
2788.75471	31991.075
2791.31335	31909.275
2793.87041	31857.075
2796.42589	31792.375
2798.97979	31778.575
2801.53212	31687.775
2804.08288	31595.975
2806.63206	31557.575
2809.17967	31539.875
2811.72571	31427.175
2814.27018	31346.575
2816.81308	31248.975
2819.35442	31200.275
2821.89419	31189.075
2824.43239	31176.975
2826.96904	31153.075
2829.50412	31117.975
2832.03763	31053.175
2834.56959	30983.575
2837.1	30985.275
2839.62884	31004.775
2842.15613	30941.675
2844.68186	30925.975
2847.20604	30883.375
2849.72867	30827.075
2852.24974	30814.375
2854.76927	30793.075
2857.28724	30756.075
2859.80367	30760.575
2862.31855	30753.375
2864.83189	30717.175
2867.34368	30653.875
2869.85393	30637.675
2872.36264	30599.675
2874.8698	30587.675
2877.37543	30556.575
2879.87952	30528.675
2882.38207	30564.275
2884.88308	30547.175
2887.38256	30573.775
2889.88051	30548.375
2892.37692	30601.975
2894.8718	30591.775
2897.36515	30615.975
2899.85698	30601.575
2902.34727	30708.575
2904.83604	30681.175
2907.32328	30772.075
2909.809	30749.275
2912.29319	30793.075
2914.77587	30781.475
2917.25702	30782.075
2919.73665	30737.275
2922.21476	30740.175
2924.69136	30723.175
2927.16644	30749.575
2929.64	30655.275
2932.11205	30627.575
2934.58258	30544.875
2937.05161	30585.775
2939.51912	30606.275
2941.98513	30509.975
2944.44962	30466.075
2946.91261	30432.175
2949.37409	30473.975
2951.83407	30440.575
2954.29254	30412.575
2956.74951	30429.775
2959.20498	30450.975
2961.65895	30382.775
2964.11142	30392.375
2966.56239	30383.475
2969.01186	30313.575
2971.45984	30183.075
2973.90632	30167.075
2976.35131	30120.775
2978.7948	30066.675
2981.23681	30065.975
2983.67732	30015.175
2986.11635	29876.975
2988.55388	29897.175
2990.98993	29830.975
2993.4245	29738.475
2995.85758	29706.275
2998.28917	29593.175
3000.71928	29519.175
3003.14791	29451.275
3005.57506	29426.975
3008.00073	29344.775
3010.42493	29347.175
3012.84764	29258.575
3015.26888	29185.675
3017.68865	29143.675
3020.10694	29091.875
3022.52376	29069.475
3024.9391	29055.075
3027.35298	28982.075
3029.76539	29013.475
3032.17632	28975.375
3034.5858	28949.675
3036.9938	28928.375
3039.40034	28911.575
3041.80542	28917.875
3044.20903	28851.175
3046.61118	28814.075
3049.01187	28690.875
3051.4111	28672.275
3053.80888	28650.575
3056.20519	28590.175
3058.60005	28491.475
3060.99345	28483.675
3063.3854	28388.575
3065.7759	28313.875
3068.16494	28231.975
3070.55254	28105.075
3072.93868	27987.275
3075.32338	27912.075
3077.70662	27917.775
3080.08842	27849.975
3082.46878	27763.875
3084.84769	27712.575
3087.22515	27717.675
3089.60118	27707.775
3091.97576	27698.175
3094.3489	27643.375
3096.72061	27653.275
3099.09087	27641.575
3101.4597	27619.475
3103.82709	27652.575
3106.19305	27595.975
3108.55757	27594.675
3110.92066	27505.875
3113.28232	27523.275
3115.64255	27401.375
3118.00134	27361.175
3120.35871	27271.975
3122.71466	27150.575
3125.06917	27139.575
