Data from AgNPs_FTO_APTES_UA_20uM_CRN_2uM_R6G_10uM_NaF_0.1M_Addition_RamanShift__35__13-21-22-115.txt Node

Date: Thu Feb 17 13:21:22 GMT 2022
User: TCL
Spectrometer: QEP01345
Trigger mode: 4
Integration Time (sec): 7.000000E0
Scans to average: 10
Electric dark correction enabled: true
Nonlinearity correction enabled: false
Boxcar width: 0
XAxis mode: Raman Shifts
Number of Pixels in Spectrum: 1044
>>>>>Begin Spectral Data<<<<<
46.04893	-1.375
50.45542	-0.875
54.85868	-2.875
59.25871	-1.975
63.6555	130.625
68.04907	133.825
72.43941	139.925
76.82654	138.425
81.21044	147.225
85.59113	152.325
89.96862	154.725
94.34289	161.525
98.71396	165.125
103.08183	168.725
107.4465	177.625
111.80798	178.025
116.16626	185.025
120.52136	197.525
124.87327	198.025
129.222	219.525
133.56755	233.625
137.90993	248.725
142.24913	275.825
146.58517	317.825
150.91804	375.525
155.24774	446.425
159.57429	562.425
163.89768	725.025
168.21792	975.125
172.53501	1343.925
176.84895	1885.825
181.15975	2686.625
185.46741	3766.125
189.77193	5212.125
194.07331	7022.325
198.37157	9029.725
202.6667	11195.325
206.9587	13347.125
211.24758	15385.725
215.53334	17498.825
219.81599	19709.725
224.09553	22142.925
228.37195	24901.925
232.64527	27885.125
236.91549	30978.725
241.18261	34174.325
245.44663	37128.725
249.70755	39801.725
253.96539	42159.825
258.22014	44130.425
262.4718	45880.625
266.72039	47114.725
270.96589	47807.825
275.20832	47795.925
279.44768	47442.625
283.68397	46938.825
287.91719	46419.425
292.14735	46045.825
296.37445	45929.325
300.59849	46068.825
304.81948	46342.825
309.03742	46546.225
313.25231	46381.825
317.46415	46078.125
321.67296	45425.925
325.87872	44961.125
330.08145	44732.425
334.28114	44817.325
338.47781	45241.625
342.67145	45858.325
346.86207	46617.025
351.04966	47432.925
355.23424	48322.325
359.4158	48988.825
363.59435	49442.525
367.76989	49881.425
371.94243	50217.225
376.11196	50616.125
380.27849	50944.925
384.44203	51327.925
388.60257	51606.325
392.76012	51969.125
396.91468	52443.325
401.06626	53055.125
405.21485	53477.725
409.36047	53424.825
413.50311	52973.225
417.64277	52572.125
421.77947	52507.525
425.9132	52700.225
430.04396	53110.525
434.17176	53585.825
438.2966	54393.325
442.41849	55568.225
446.53742	57403.625
450.6534	59313.225
454.76644	60572.125
458.87653	60724.825
462.98368	60055.025
467.08789	58996.825
471.18916	57934.925
475.2875	56969.325
479.38291	56359.025
483.4754	55837.225
487.56496	55441.725
491.6516	54895.325
495.73531	54305.825
499.81612	53935.325
503.89401	54111.225
507.96899	54267.025
512.04106	54213.125
516.11023	54053.225
520.1765	53946.425
524.23987	54015.525
528.30034	54100.725
532.35792	53980.725
536.41261	53487.925
540.46441	52987.425
544.51333	52706.225
548.55936	53096.025
552.60252	53996.225
556.64279	55263.125
560.6802	56316.825
564.71473	56812.025
568.7464	57292.025
572.7752	58364.525
576.80114	59229.825
580.82422	59967.225
584.84444	61307.425
588.86181	63873.825
592.87633	67048.525
596.888	68133.725
600.89682	65967.825
604.9028	64801.425
608.90594	67704.125
612.90624	71672.125
616.90371	68422.625
620.89834	60008.025
624.89015	56222.025
628.87913	55797.425
632.86528	55770.225
636.84862	55426.225
640.82913	54682.125
644.80683	53693.625
648.78172	52978.525
652.75379	53120.725
656.72306	53876.725
660.68952	54753.925
664.65319	54598.625
668.61405	53835.625
672.57211	53728.025
676.52738	53860.125
680.47986	53768.925
684.42955	53572.125
688.37646	53517.425
692.32058	53881.125
696.26192	54527.925
700.20048	55270.925
704.13626	55550.725
708.06928	55426.525
711.99952	55178.025
715.927	55278.925
719.85171	55484.025
723.77365	55486.425
727.69284	54962.225
731.60928	54498.325
735.52295	54422.325
739.43388	54579.325
743.34206	54781.725
747.24749	55042.825
751.15017	55376.525
755.05012	55995.625
758.94733	57047.025
762.8418	59085.125
766.73354	62175.225
770.62254	65209.725
774.50882	66028.325
778.39237	63949.225
782.27321	60574.425
786.15132	57733.925
790.02671	56016.025
793.89938	55151.025
797.76935	54851.725
801.6366	54697.525
805.50115	54553.525
809.36299	54384.125
813.22213	54218.625
817.07857	54126.225
820.93231	54088.125
824.78336	53996.525
828.63172	54057.025
832.47738	54057.025
836.32036	54212.725
840.16066	54489.525
843.99827	54639.425
847.8332	54624.925
851.66546	54529.025
855.49504	54474.425
859.32195	54563.025
863.1462	54448.825
866.96777	54381.925
870.78668	54330.125
874.60293	54362.125
878.41652	54417.325
882.22745	54585.625
886.03573	54742.925
889.84136	54668.125
893.64433	54357.025
897.44466	54196.325
901.24235	54118.025
905.0374	53950.825
908.8298	53924.725
912.61957	54016.925
916.40671	54422.825
920.19121	54948.625
923.97308	55455.225
927.75233	55565.425
931.52895	55360.425
935.30295	54845.025
939.07433	54202.825
942.84309	53812.625
946.60924	53690.125
950.37278	53634.425
954.13371	53602.625
957.89203	53491.825
961.64774	53370.425
965.40086	53320.425
969.15137	53223.525
972.89929	53163.325
976.64461	53130.025
980.38733	53328.625
984.12747	53471.725
987.86502	53923.825
991.59999	54549.425
995.33237	55315.325
999.06217	56414.425
1002.78939	57724.625
1006.51404	58710.225
1010.23611	59311.925
1013.95561	59776.825
1017.67255	59889.325
1021.38692	59397.725
1025.09872	58653.525
1028.80796	58545.625
1032.51465	59286.925
1036.21877	60194.425
1039.92035	60298.825
1043.61937	59839.325
1047.31584	58954.425
1051.00976	58011.225
1054.70114	57554.025
1058.38998	57486.725
1062.07627	57571.325
1065.76003	57857.925
1069.44126	58224.825
1073.11995	58811.125
1076.79611	59363.925
1080.46974	59898.225
1084.14085	60447.725
1087.80943	61073.825
1091.47549	61416.425
1095.13903	61188.525
1098.80005	60495.425
1102.45857	59769.825
1106.11456	59373.225
1109.76805	59401.525
1113.41903	59710.125
1117.06751	60062.625
1120.71348	60475.425
1124.35696	60938.425
1127.99793	61209.825
1131.63641	61308.325
1135.2724	60927.725
1138.90589	60570.925
1142.5369	60513.825
1146.16542	60702.525
1149.79145	61047.825
1153.415	61490.225
1157.03607	62058.325
1160.65467	63182.125
1164.27079	65090.925
1167.88443	67644.225
1171.49561	70948.925
1175.10432	75168.025
1178.71056	80536.025
1182.31434	85503.725
1185.91565	87318.925
1189.51451	85693.325
1193.11091	82605.025
1196.70485	79585.825
1200.29634	77187.025
1203.88538	75606.125
1207.47197	74551.225
1211.05612	73491.225
1214.63782	72447.525
1218.21708	71814.525
1221.79391	71592.725
1225.36829	71632.225
1228.94024	71097.125
1232.50976	69681.225
1236.07685	68175.325
1239.6415	67304.825
1243.20374	67236.025
1246.76355	67795.025
1250.32093	68717.625
1253.8759	69854.425
1257.42845	71196.225
1260.97859	72688.425
1264.52631	74197.425
1268.07163	76024.825
1271.61453	77716.225
1275.15503	79509.325
1278.69312	81264.925
1282.22882	83007.225
1285.76211	85218.225
1289.29301	87984.625
1292.82151	91237.125
1296.34761	95288.125
1299.87133	100302.725
1303.39266	106063.225
1306.9116	112122.425
1310.42815	117609.625
1313.94233	120816.025
1317.45412	120331.425
1320.96354	117106.625
1324.47058	113185.125
1327.97525	109614.425
1331.47754	106903.325
1334.97747	105078.625
1338.47502	103865.025
1341.97022	102626.225
1345.46305	101138.225
1348.95352	100404.425
1352.44163	101551.025
1355.92738	105363.825
1359.41078	111338.225
1362.89183	115935.025
1366.37053	114440.225
1369.84688	105707.925
1373.32088	94672.325
1376.79254	87645.425
1380.26186	85202.925
1383.72883	85238.725
1387.19347	85319.725
1390.65578	84482.325
1394.11575	84255.425
1397.57339	84962.325
1401.0287	86243.225
1404.48168	87251.025
1407.93234	87366.625
1411.38068	86360.825
1414.82669	84674.425
1418.27039	82360.425
1421.71177	79785.125
1425.15083	77344.325
1428.58758	76185.425
1432.02203	76757.325
1435.45416	78485.925
1438.88399	80410.025
1442.31151	81861.125
1445.73673	82587.625
1449.15965	82972.525
1452.58027	82731.925
1455.9986	82120.525
1459.41463	81957.025
1462.82837	82615.825
1466.23982	83911.625
1469.64898	85492.925
1473.05586	86778.125
1476.46045	87522.725
1479.86276	87588.225
1483.26279	87148.825
1486.66054	86785.725
1490.05602	87032.725
1493.44922	87447.425
1496.84016	87955.125
1500.22882	88842.725
1503.61521	90606.325
1506.99934	92861.925
1510.38121	94842.825
1513.76081	94954.125
1517.13816	92765.725
1520.51324	89593.125
1523.88607	87027.525
1527.25665	86198.325
1530.62498	86423.325
1533.99105	86599.025
1537.35488	86151.625
1540.71647	84945.725
1544.07581	83411.325
1547.4329	81679.325
1550.78776	80063.625
1554.14038	78838.025
1557.49077	78143.425
1560.83892	77714.325
1564.18484	77700.425
1567.52853	77956.225
1570.86999	78752.325
1574.20922	79855.725
1577.54624	80747.225
1580.88103	80818.625
1584.2136	81218.525
1587.54395	83176.725
1590.87208	87311.725
1594.19801	92837.225
1597.52172	98475.525
1600.84321	100819.225
1604.16251	97518.025
1607.47959	90554.525
1610.79447	82608.125
1614.10715	75847.725
1617.41763	70943.925
1620.7259	68049.225
1624.03199	66969.125
1627.33587	67284.625
1630.63757	68947.725
1633.93707	72386.325
1637.23439	78189.125
1640.52951	86886.125
1643.82246	97366.225
1647.11321	105540.225
1650.40179	106500.925
1653.68819	98708.425
1656.97241	86645.125
1660.25446	75427.825
1663.53433	67841.725
1666.81203	63153.525
1670.08756	60334.125
1673.36092	58612.625
1676.63211	57430.525
1679.90115	56580.125
1683.16801	55929.725
1686.43272	55470.325
1689.69527	55184.925
1692.95567	54910.025
1696.2139	54815.525
1699.46999	54754.425
1702.72392	54639.825
1705.97571	54570.325
1709.22535	54496.125
1712.47284	54502.425
1715.71819	54514.225
1718.96139	54390.325
1722.20246	54259.325
1725.44139	54138.925
1728.67818	53890.925
1731.91284	53711.825
1735.14537	53498.125
1738.37576	53309.925
1741.60403	53185.825
1744.83017	52976.625
1748.05418	52926.025
1751.27607	52810.625
1754.49584	52763.325
1757.71349	52789.225
1760.92903	52772.625
1764.14244	52657.325
1767.35375	52658.625
1770.56294	52641.825
1773.77002	52670.125
1776.97499	52657.025
1780.17785	52536.825
1783.37861	52516.325
1786.57727	52396.325
1789.77382	52352.525
1792.96828	52304.525
1796.16064	52190.125
1799.3509	52202.125
1802.53907	52131.425
1805.72514	51985.725
1808.90913	51902.025
1812.09102	51803.525
1815.27083	51740.625
1818.44856	51638.325
1821.6242	51590.125
1824.79776	51590.925
1827.96924	51504.325
1831.13864	51525.325
1834.30597	51468.625
1837.47122	51438.825
1840.6344	51355.225
1843.7955	51393.025
1846.95454	51394.625
1850.11151	51355.225
1853.26642	51325.225
1856.41926	51395.325
1859.57004	51229.225
1862.71876	51196.325
1865.86542	51224.425
1869.01003	51148.425
1872.15258	51122.825
1875.29308	51113.525
1878.43152	51051.025
1881.56792	51047.125
1884.70227	51098.125
1887.83457	51088.825
1890.96482	51074.425
1894.09304	51013.025
1897.21921	51001.625
1900.34335	50884.525
1903.46544	50865.625
1906.58551	50914.025
1909.70353	50893.225
1912.81953	50876.825
1915.93349	50805.825
1919.04543	50744.225
1922.15534	50659.425
1925.26322	50688.225
1928.36908	50512.625
1931.47292	50468.625
1934.57473	50385.725
1937.67453	50314.125
1940.77232	50206.325
1943.86808	50018.325
1946.96184	49901.725
1950.05358	49797.925
1953.14331	49682.825
1956.23103	49602.025
1959.31675	49453.225
1962.40046	49302.425
1965.48217	49087.325
1968.56188	49035.325
1971.63959	48914.925
1974.7153	48855.625
1977.78901	48687.625
1980.86073	48535.025
1983.93046	48503.525
1986.99819	48357.125
1990.06394	48307.425
1993.1277	48187.025
1996.18947	48046.625
1999.24925	47980.525
2002.30706	47785.525
2005.36288	47686.825
2008.41672	47483.525
2011.46859	47401.425
2014.51848	47264.825
2017.56639	47130.625
2020.61233	47054.225
2023.6563	46978.825
2026.6983	46851.525
2029.73833	46795.325
2032.7764	46655.025
2035.8125	46654.525
2038.84664	46573.525
2041.87881	46548.925
2044.90903	46551.325
2047.93729	46373.525
2050.96359	46376.425
2053.98794	46332.425
2057.01034	46357.725
2060.03078	46335.425
2063.04927	46301.125
2066.06582	46290.625
2069.08042	46256.425
2072.09307	46210.225
2075.10378	46136.925
2078.11255	46112.225
2081.11938	46186.825
2084.12426	46220.625
2087.12722	46153.625
2090.12824	46066.525
2093.12732	46150.425
2096.12447	46141.325
2099.11969	46132.225
2102.11299	46133.525
2105.10435	46149.125
2108.09379	46245.525
2111.08131	46236.725
2114.0669	46257.825
2117.05057	46256.925
2120.03233	46344.825
2123.01216	46421.325
2125.99008	46467.025
2128.96609	46496.925
2131.94018	46532.925
2134.91236	46605.625
2137.88263	46729.025
2140.851	46690.225
2143.81746	46792.825
2146.78201	46742.025
2149.74466	46830.525
2152.7054	46852.325
2155.66425	46874.425
2158.6212	46878.025
2161.57625	46793.625
2164.52941	46833.325
2167.48067	46798.725
2170.43004	46811.025
2173.37752	46811.725
2176.32311	46865.225
2179.26681	46934.225
2182.20863	46931.125
2185.14856	46993.125
2188.08661	46962.825
2191.02278	46989.025
2193.95707	46924.125
2196.88948	46789.125
2199.82001	46944.125
2202.74867	46911.725
2205.67545	46826.525
2208.60037	46779.925
2211.52341	46703.925
2214.44458	46733.825
2217.36388	46667.525
2220.28132	46637.725
2223.1969	46506.525
2226.11061	46431.125
2229.02246	46281.625
2231.93245	46217.425
2234.84058	46239.825
2237.74686	46201.325
2240.65128	46200.625
2243.55385	46118.625
2246.45456	46031.425
2249.35343	45994.825
2252.25044	45898.225
2255.14561	45813.225
2258.03893	45847.425
2260.93041	45771.925
2263.82004	45625.425
2266.70783	45537.025
2269.59378	45403.725
2272.4779	45379.725
2275.36017	45325.725
2278.24061	45248.725
2281.11922	45158.025
2283.996	45073.725
2286.87094	45117.125
2289.74405	45041.025
2292.61534	45041.725
2295.4848	45037.025
2298.35243	45053.125
2301.21824	45023.925
2304.08223	45022.625
2306.94439	45029.325
2309.80474	45080.325
2312.66327	45074.825
2315.51999	44982.625
2318.37489	44927.325
2321.22797	44911.925
2324.07925	44921.625
2326.92871	44789.025
2329.77637	44777.425
2332.62222	44679.825
2335.46626	44720.325
2338.3085	44702.025
2341.14893	44730.625
2343.98756	44678.125
2346.8244	44694.925
2349.65943	44694.125
2352.49267	44655.525
2355.32411	44665.025
2358.15376	44544.525
2360.98161	44623.925
2363.80768	44547.825
2366.63195	44519.925
2369.45444	44515.725
2372.27514	44464.625
2375.09405	44437.125
2377.91118	44291.125
2380.72652	44218.725
2383.54009	44129.425
2386.35187	44080.625
2389.16188	43942.225
2391.97011	43999.125
2394.77657	43857.225
2397.58125	43801.025
2400.38416	43744.725
2403.18529	43709.125
2405.98466	43673.425
2408.78226	43581.025
2411.57809	43516.925
2414.37216	43521.625
2417.16446	43436.925
2419.955	43457.125
2422.74378	43433.325
2425.5308	43388.025
2428.31606	43381.125
2431.09956	43428.825
2433.88131	43371.225
2436.6613	43393.425
2439.43954	43350.025
2442.21603	43349.825
2444.99077	43289.225
2447.76377	43305.525
2450.53501	43261.425
2453.30451	43287.125
2456.07226	43234.625
2458.83827	43205.625
2461.60254	43121.125
2464.36507	43158.525
2467.12586	43142.525
2469.88492	43167.525
2472.64224	43194.425
2475.39782	43154.625
2478.15167	43202.125
2480.90379	43220.825
2483.65417	43308.125
2486.40283	43263.625
2489.14976	43264.125
2491.89497	43242.325
2494.63845	43248.925
2497.3802	43230.625
2500.12024	43262.325
2502.85855	43215.725
2505.59514	43155.025
2508.33002	43075.125
2511.06318	43049.325
2513.79462	43017.025
2516.52435	43071.125
2519.25237	42995.925
2521.97867	42935.425
2524.70327	42973.025
2527.42616	42899.125
2530.14734	42922.125
2532.86681	42797.825
2535.58458	42848.625
2538.30065	42811.325
2541.01501	42786.325
2543.72768	42807.125
2546.43864	42766.825
2549.14791	42650.325
2551.85548	42652.725
2554.56136	42574.125
2557.26554	42488.225
2559.96803	42430.325
2562.66883	42397.525
2565.36794	42419.325
2568.06536	42358.925
2570.7611	42286.225
2573.45514	42197.225
2576.14751	42260.325
2578.83819	42202.525
2581.52719	42227.325
2584.21451	42148.125
2586.90015	42131.725
2589.58411	42092.425
2592.2664	42076.525
2594.94701	42070.125
2597.62594	42069.925
2600.30321	42015.225
2602.9788	42029.125
2605.65273	41942.825
2608.32498	41974.125
2610.99557	41979.625
2613.66449	41988.025
2616.33175	41929.925
2618.99734	41891.225
2621.66128	41762.325
2624.32355	41750.025
2626.98416	41732.325
2629.64311	41673.325
2632.30041	41675.125
2634.95605	41604.725
2637.61004	41612.225
2640.26238	41599.925
2642.91306	41548.725
2645.56209	41518.225
2648.20948	41517.725
2650.85521	41489.825
2653.4993	41561.225
2656.14175	41525.825
2658.78255	41591.625
2661.42171	41579.425
2664.05923	41660.225
2666.6951	41616.625
2669.32934	41657.025
2671.96194	41683.125
2674.59291	41691.425
2677.22224	41735.925
2679.84993	41703.725
2682.476	41659.025
2685.10043	41635.525
2687.72324	41545.325
2690.34441	41561.025
2692.96396	41612.625
2695.58188	41616.025
2698.19818	41557.425
2700.81285	41568.025
2703.4259	41540.125
2706.03733	41643.625
2708.64714	41566.325
2711.25533	41650.925
2713.86191	41654.925
2716.46687	41798.525
2719.07021	41757.125
2721.67194	41758.025
2724.27206	41695.325
2726.87057	41801.725
2729.46747	41837.725
2732.06276	41758.525
2734.65644	41861.525
2737.24852	41924.125
2739.83899	41846.325
2742.42786	41788.425
2745.01513	41769.825
2747.60079	41742.225
2750.18486	41691.325
2752.76733	41701.525
2755.3482	41661.325
2757.92747	41616.925
2760.50515	41569.425
2763.08123	41563.625
2765.65573	41569.425
2768.22863	41568.625
2770.79994	41485.325
2773.36967	41520.825
2775.9378	41502.025
2778.50435	41561.025
2781.06932	41501.225
2783.6327	41529.525
2786.1945	41464.825
2788.75471	41408.025
2791.31335	41319.525
2793.87041	41285.625
2796.42589	41198.525
2798.97979	41201.125
2801.53212	41006.225
2804.08288	40910.225
2806.63206	40872.325
2809.17967	40851.025
2811.72571	40744.325
2814.27018	40604.225
2816.81308	40441.725
2819.35442	40432.225
2821.89419	40390.625
2824.43239	40390.725
2826.96904	40376.725
2829.50412	40431.125
2832.03763	40299.225
2834.56959	40306.425
2837.1	40227.325
2839.62884	40241.225
2842.15613	40134.725
2844.68186	40227.225
2847.20604	40154.125
2849.72867	40087.425
2852.24974	40038.625
2854.76927	39957.425
2857.28724	39946.625
2859.80367	40002.825
2862.31855	39887.525
2864.83189	39867.225
2867.34368	39736.625
2869.85393	39810.825
2872.36264	39724.325
2874.8698	39710.025
2877.37543	39686.225
2879.87952	39660.525
2882.38207	39764.625
2884.88308	39760.425
2887.38256	39748.325
2889.88051	39736.525
2892.37692	39733.425
2894.8718	39722.725
2897.36515	39778.525
2899.85698	39773.525
2902.34727	39879.225
2904.83604	39913.925
2907.32328	39932.625
2909.809	39937.225
2912.29319	40012.825
2914.77587	40045.325
2917.25702	40030.525
2919.73665	39934.125
2922.21476	39968.125
2924.69136	39871.925
2927.16644	39948.025
2929.64	39859.525
2932.11205	39852.425
2934.58258	39744.225
2937.05161	39804.925
2939.51912	39847.425
2941.98513	39755.125
2944.44962	39716.225
2946.91261	39654.925
2949.37409	39788.625
2951.83407	39707.425
2954.29254	39719.225
2956.74951	39651.925
2959.20498	39710.025
2961.65895	39712.725
2964.11142	39750.925
2966.56239	39722.225
2969.01186	39721.025
2971.45984	39507.225
2973.90632	39494.325
2976.35131	39453.925
2978.7948	39383.925
2981.23681	39323.525
2983.67732	39315.025
2986.11635	39183.425
2988.55388	39141.625
2990.98993	39151.925
2993.4245	39046.625
2995.85758	38960.925
2998.28917	38824.125
3000.71928	38735.125
3003.14791	38723.925
3005.57506	38758.425
3008.00073	38583.025
3010.42493	38614.525
3012.84764	38526.925
3015.26888	38496.425
3017.68865	38424.725
3020.10694	38324.825
3022.52376	38288.725
3024.9391	38246.225
3027.35298	38170.925
3029.76539	38237.625
3032.17632	38189.525
3034.5858	38151.025
3036.9938	38087.625
3039.40034	38051.825
3041.80542	38084.025
3044.20903	38015.925
3046.61118	37973.325
3049.01187	37817.625
3051.4111	37785.525
3053.80888	37708.525
3056.20519	37685.525
3058.60005	37625.825
3060.99345	37565.525
3063.3854	37479.725
3065.7759	37361.125
3068.16494	37281.725
3070.55254	37165.925
3072.93868	37079.325
3075.32338	36988.625
3077.70662	36947.625
3080.08842	36839.025
3082.46878	36740.225
3084.84769	36688.825
3087.22515	36756.925
3089.60118	36701.825
3091.97576	36690.125
3094.3489	36714.025
3096.72061	36658.025
3099.09087	36708.525
3101.4597	36664.125
3103.82709	36685.025
3106.19305	36641.025
3108.55757	36651.125
3110.92066	36570.025
3113.28232	36540.625
3115.64255	36482.425
3118.00134	36317.025
3120.35871	36214.625
3122.71466	36147.925
