Data from AgNPs_FTO_APTES_UA_20uM_CRN_20uM_R6G_10uM_NaF_0.1M_Addition_RamanShift__21__15-14-32-264.txt Node

Date: Thu Feb 17 15:14:32 GMT 2022
User: TCL
Spectrometer: QEP01345
Trigger mode: 4
Integration Time (sec): 7.000000E0
Scans to average: 10
Electric dark correction enabled: true
Nonlinearity correction enabled: false
Boxcar width: 0
XAxis mode: Raman Shifts
Number of Pixels in Spectrum: 1044
>>>>>Begin Spectral Data<<<<<
46.04893	-0.75
50.45542	-1.35
54.85868	-2.25
59.25871	-0.95
63.6555	100.95
68.04907	106.05
72.43941	109.65
76.82654	114.25
81.21044	114.65
85.59113	119.35
89.96862	120.65
94.34289	129.55
98.71396	126.55
103.08183	135.95
107.4465	138.15
111.80798	140.15
116.16626	145.25
120.52136	154.35
124.87327	155.35
129.222	168.45
133.56755	177.15
137.90993	187.85
142.24913	202.65
146.58517	235.05
150.91804	274.75
155.24774	321.95
159.57429	406.65
163.89768	523.15
168.21792	694.55
172.53501	955.25
176.84895	1345.65
181.15975	1904.35
185.46741	2683.75
189.77193	3726.25
194.07331	5006.85
198.37157	6489.75
202.6667	8043.65
206.9587	9577.65
211.24758	11107.65
215.53334	12573.05
219.81599	14120.85
224.09553	15796.25
228.37195	17667.85
232.64527	19826.35
236.91549	22080.75
241.18261	24436.45
245.44663	26707.55
249.70755	28759.75
253.96539	30636.35
258.22014	32229.45
262.4718	33503.95
266.72039	34343.95
270.96589	34885.05
275.20832	34863.65
279.44768	34660.95
283.68397	34236.95
287.91719	33873.85
292.14735	33559.35
296.37445	33374.85
300.59849	33389.25
304.81948	33394.95
309.03742	33372.65
313.25231	33230.35
317.46415	32887.35
321.67296	32406.85
325.87872	32058.25
330.08145	31895.95
334.28114	32060.65
338.47781	32328.85
342.67145	32732.05
346.86207	33245.95
351.04966	33838.75
355.23424	34540.45
359.4158	35102.65
363.59435	35663.95
367.76989	36118.65
371.94243	36387.15
376.11196	36768.35
380.27849	37001.95
384.44203	37202.15
388.60257	37436.65
392.76012	37722.35
396.91468	37998.95
401.06626	38409.75
405.21485	38818.15
409.36047	38895.05
413.50311	38644.05
417.64277	38341.85
421.77947	38189.65
425.9132	38231.85
430.04396	38424.95
434.17176	38700.35
438.2966	39073.15
442.41849	39559.95
446.53742	40255.15
450.6534	40975.25
454.76644	41579.65
458.87653	41931.25
462.98368	41911.85
467.08789	41659.05
471.18916	41190.85
475.2875	40714.85
479.38291	40383.45
483.4754	40157.95
487.56496	39891.05
491.6516	39711.35
495.73531	39612.75
499.81612	39590.85
503.89401	39761.95
507.96899	39857.95
512.04106	39956.25
516.11023	40015.35
520.1765	40099.65
524.23987	40212.95
528.30034	40064.95
532.35792	39939.35
536.41261	39774.05
540.46441	39525.85
544.51333	39504.45
548.55936	39725.35
552.60252	40038.45
556.64279	40323.15
560.6802	40460.75
564.71473	40458.55
568.7464	40610.25
572.7752	40942.65
576.80114	41058.35
580.82422	41267.45
584.84444	41497.25
588.86181	41849.15
592.87633	42300.85
596.888	42661.45
600.89682	43146.95
604.9028	44547.85
608.90594	47695.95
612.90624	51051.45
616.90371	49508.95
620.89834	44499.05
624.89015	42435.35
628.87913	42193.35
632.86528	42048.95
636.84862	41674.55
640.82913	41380.25
644.80683	40781.35
648.78172	40346.75
652.75379	40382.65
656.72306	40837.95
660.68952	41341.35
664.65319	41298.65
668.61405	40977.75
672.57211	40837.75
676.52738	40989.25
680.47986	40957.85
684.42955	40952.05
688.37646	40923.35
692.32058	41136.95
696.26192	41371.45
700.20048	41673.35
704.13626	41826.15
708.06928	41651.45
711.99952	41444.35
715.927	41377.45
719.85171	41441.15
723.77365	41406.85
727.69284	41291.65
731.60928	41088.85
735.52295	41046.15
739.43388	41135.55
743.34206	41264.35
747.24749	41389.95
751.15017	41558.95
755.05012	41848.55
758.94733	42373.45
762.8418	43437.25
766.73354	45169.95
770.62254	47127.35
774.50882	48029.25
778.39237	47100.75
782.27321	44949.85
786.15132	43083.95
790.02671	41956.75
793.89938	41529.15
797.76935	41383.15
801.6366	41354.75
805.50115	41300.85
809.36299	41157.65
813.22213	41050.95
817.07857	40968.05
820.93231	40990.25
824.78336	41111.25
828.63172	41137.45
832.47738	41289.05
836.32036	41371.55
840.16066	41553.15
843.99827	41743.45
847.8332	41739.95
851.66546	41614.35
855.49504	41646.15
859.32195	41665.45
863.1462	41626.55
866.96777	41500.65
870.78668	41504.35
874.60293	41508.85
878.41652	41530.25
882.22745	41581.25
886.03573	41692.95
889.84136	41617.05
893.64433	41501.65
897.44466	41344.85
901.24235	41274.05
905.0374	41198.75
908.8298	41169.75
912.61957	41220.05
916.40671	41372.75
920.19121	41668.05
923.97308	41920.25
927.75233	42141.25
931.52895	42102.35
935.30295	41993.45
939.07433	41608.75
942.84309	41368.85
946.60924	41262.65
950.37278	41200.25
954.13371	40978.75
957.89203	40744.45
961.64774	40633.55
965.40086	40514.65
969.15137	40448.95
972.89929	40379.35
976.64461	40367.75
980.38733	40459.15
984.12747	40644.25
987.86502	40968.65
991.59999	41387.55
995.33237	41967.15
999.06217	42926.65
1002.78939	43869.95
1006.51404	44341.95
1010.23611	44458.95
1013.95561	44618.25
1017.67255	44761.85
1021.38692	44673.45
1025.09872	44733.25
1028.80796	45364.05
1032.51465	46558.95
1036.21877	47514.65
1039.92035	47557.85
1043.61937	46912.05
1047.31584	45805.25
1051.00976	44648.85
1054.70114	43990.65
1058.38998	43774.75
1062.07627	43711.45
1065.76003	43678.95
1069.44126	43703.25
1073.11995	43831.15
1076.79611	44053.05
1080.46974	44232.25
1084.14085	44473.35
1087.80943	44795.45
1091.47549	44892.35
1095.13903	44644.25
1098.80005	44283.85
1102.45857	44019.85
1106.11456	43921.45
1109.76805	44102.45
1113.41903	44421.15
1117.06751	44682.65
1120.71348	44947.35
1124.35696	45154.45
1127.99793	45337.25
1131.63641	45325.45
1135.2724	45020.95
1138.90589	44624.85
1142.5369	44269.55
1146.16542	44075.15
1149.79145	43925.45
1153.415	43956.95
1157.03607	44093.15
1160.65467	44473.65
1164.27079	45176.65
1167.88443	46226.95
1171.49561	47678.45
1175.10432	49727.15
1178.71056	52413.15
1182.31434	54953.45
1185.91565	56423.95
1189.51451	56303.35
1193.11091	54784.45
1196.70485	52826.85
1200.29634	51264.45
1203.88538	50195.85
1207.47197	49326.45
1211.05612	48483.25
1214.63782	47986.45
1218.21708	47942.05
1221.79391	48196.95
1225.36829	48504.45
1228.94024	48389.55
1232.50976	47758.75
1236.07685	47240.15
1239.6415	47082.25
1243.20374	47268.35
1246.76355	47600.15
1250.32093	48044.95
1253.8759	48764.95
1257.42845	49674.85
1260.97859	50295.85
1264.52631	50804.55
1268.07163	51462.55
1271.61453	52309.05
1275.15503	53327.15
1278.69312	54342.25
1282.22882	55085.25
1285.76211	55588.85
1289.29301	55919.15
1292.82151	56383.45
1296.34761	57268.35
1299.87133	58827.15
1303.39266	61159.55
1306.9116	64179.25
1310.42815	67281.55
1313.94233	69024.85
1317.45412	68575.05
1320.96354	66749.05
1324.47058	64656.35
1327.97525	62595.35
1331.47754	61309.65
1334.97747	60915.05
1338.47502	61211.65
1341.97022	62003.95
1345.46305	62576.25
1348.95352	62893.65
1352.44163	63447.65
1355.92738	64747.75
1359.41078	67452.35
1362.89183	70047.55
1366.37053	68926.45
1369.84688	64134.25
1373.32088	58912.05
1376.79254	55330.35
1380.26186	53379.25
1383.72883	52526.65
1387.19347	51968.25
1390.65578	51205.55
1394.11575	50745.15
1397.57339	50668.05
1401.0287	50985.45
1404.48168	51514.75
1407.93234	52075.95
1411.38068	52620.25
1414.82669	52731.35
1418.27039	52276.55
1421.71177	51520.65
1425.15083	50776.15
1428.58758	50254.05
1432.02203	50200.25
1435.45416	50527.25
1438.88399	50828.15
1442.31151	51006.05
1445.73673	51289.95
1449.15965	51433.05
1452.58027	51398.15
1455.9986	51206.75
1459.41463	51191.85
1462.82837	51566.15
1466.23982	52204.45
1469.64898	53060.25
1473.05586	53876.55
1476.46045	54362.75
1479.86276	54697.55
1483.26279	54943.25
1486.66054	55127.15
1490.05602	55508.15
1493.44922	56087.75
1496.84016	56623.45
1500.22882	57456.65
1503.61521	58778.65
1506.99934	60515.65
1510.38121	61947.35
1513.76081	62117.35
1517.13816	60751.45
1520.51324	58597.05
1523.88607	56525.35
1527.25665	55184.05
1530.62498	54393.55
1533.99105	53928.65
1537.35488	53777.05
1540.71647	53658.75
1544.07581	53519.45
1547.4329	53390.95
1550.78776	53230.15
1554.14038	52919.15
1557.49077	52745.35
1560.83892	52592.05
1564.18484	52563.65
1567.52853	52475.75
1570.86999	52573.05
1574.20922	52735.35
1577.54624	52716.45
1580.88103	52315.75
1584.2136	51969.45
1587.54395	52334.05
1590.87208	53889.45
1594.19801	56274.95
1597.52172	59152.65
1600.84321	60535.25
1604.16251	59538.35
1607.47959	56933.85
1610.79447	54057.15
1614.10715	51459.15
1617.41763	49295.75
1620.7259	47848.75
1624.03199	47079.45
1627.33587	47129.05
1630.63757	47740.05
1633.93707	48986.35
1637.23439	50947.55
1640.52951	53066.55
1643.82246	55391.95
1647.11321	57244.05
1650.40179	57619.65
1653.68819	55610.75
1656.97241	51911.95
1660.25446	48302.75
1663.53433	45608.95
1666.81203	43936.55
1670.08756	42873.45
1673.36092	42175.95
1676.63211	41699.85
1679.90115	41302.25
1683.16801	40963.25
1686.43272	40725.45
1689.69527	40573.55
1692.95567	40450.05
1696.2139	40460.55
1699.46999	40408.65
1702.72392	40395.85
1705.97571	40365.35
1709.22535	40255.05
1712.47284	40313.25
1715.71819	40334.55
1718.96139	40308.75
1722.20246	40203.05
1725.44139	40091.65
1728.67818	39995.15
1731.91284	39810.15
1735.14537	39715.85
1738.37576	39655.45
1741.60403	39621.95
1744.83017	39528.55
1748.05418	39510.85
1751.27607	39433.15
1754.49584	39400.85
1757.71349	39452.15
1760.92903	39432.65
1764.14244	39390.25
1767.35375	39386.75
1770.56294	39282.15
1773.77002	39287.05
1776.97499	39251.35
1780.17785	39189.85
1783.37861	39181.35
1786.57727	39188.75
1789.77382	39168.05
1792.96828	39143.45
1796.16064	39092.85
1799.3509	38974.45
1802.53907	38951.35
1805.72514	38886.75
1808.90913	38791.45
1812.09102	38837.45
1815.27083	38771.25
1818.44856	38683.95
1821.6242	38646.55
1824.79776	38615.45
1827.96924	38604.65
1831.13864	38585.65
1834.30597	38596.35
1837.47122	38518.55
1840.6344	38555.05
1843.7955	38561.15
1846.95454	38537.85
1850.11151	38552.65
1853.26642	38477.05
1856.41926	38485.85
1859.57004	38477.85
1862.71876	38438.35
1865.86542	38442.05
1869.01003	38461.75
1872.15258	38443.85
1875.29308	38393.25
1878.43152	38379.65
1881.56792	38369.45
1884.70227	38282.75
1887.83457	38230.25
1890.96482	38246.15
1894.09304	38227.75
1897.21921	38237.55
1900.34335	38189.75
1903.46544	38144.55
1906.58551	38138.55
1909.70353	38138.95
1912.81953	38085.25
1915.93349	38021.75
1919.04543	37933.35
1922.15534	37960.25
1925.26322	37851.65
1928.36908	37839.65
1931.47292	37792.15
1934.57473	37768.35
1937.67453	37771.05
1940.77232	37668.85
1943.86808	37543.65
1946.96184	37525.35
1950.05358	37430.35
1953.14331	37321.15
1956.23103	37259.65
1959.31675	37104.65
1962.40046	37033.05
1965.48217	36901.45
1968.56188	36861.85
1971.63959	36779.75
1974.7153	36665.55
1977.78901	36544.25
1980.86073	36460.25
1983.93046	36378.25
1986.99819	36231.75
1990.06394	36244.25
1993.1277	36138.15
1996.18947	36006.75
1999.24925	35945.15
2002.30706	35882.35
2005.36288	35771.55
2008.41672	35676.95
2011.46859	35574.45
2014.51848	35514.95
2017.56639	35426.65
2020.61233	35327.65
2023.6563	35241.05
2026.6983	35181.55
2029.73833	35121.75
2032.7764	35105.65
2035.8125	35056.75
2038.84664	34957.55
2041.87881	34900.95
2044.90903	34860.65
2047.93729	34781.55
2050.96359	34818.75
2053.98794	34773.45
2057.01034	34797.25
2060.03078	34768.25
2063.04927	34783.75
2066.06582	34690.65
2069.08042	34749.35
2072.09307	34719.95
2075.10378	34647.45
2078.11255	34581.85
2081.11938	34629.05
2084.12426	34641.85
2087.12722	34633.35
2090.12824	34571.85
2093.12732	34583.25
2096.12447	34629.55
2099.11969	34618.05
2102.11299	34689.15
2105.10435	34747.35
2108.09379	34693.65
2111.08131	34726.05
2114.0669	34764.05
2117.05057	34771.25
2120.03233	34836.45
2123.01216	34946.25
2125.99008	34896.75
2128.96609	34948.85
2131.94018	34948.25
2134.91236	35003.35
2137.88263	35039.15
2140.851	35057.45
2143.81746	35087.25
2146.78201	35108.45
2149.74466	35114.15
2152.7054	35162.75
2155.66425	35113.85
2158.6212	35138.15
2161.57625	35117.75
2164.52941	35139.35
2167.48067	35090.65
2170.43004	35094.35
2173.37752	35171.55
2176.32311	35224.15
2179.26681	35204.65
2182.20863	35235.85
2185.14856	35261.35
2188.08661	35186.65
2191.02278	35217.35
2193.95707	35222.15
2196.88948	35232.25
2199.82001	35210.35
2202.74867	35160.25
2205.67545	35233.85
2208.60037	35157.55
2211.52341	35139.45
2214.44458	35087.35
2217.36388	35073.25
2220.28132	35026.25
2223.1969	34983.15
2226.11061	34939.35
2229.02246	34873.95
2231.93245	34852.25
2234.84058	34722.55
2237.74686	34704.75
2240.65128	34669.85
2243.55385	34648.95
2246.45456	34664.35
2249.35343	34580.85
2252.25044	34521.55
2255.14561	34525.55
2258.03893	34468.95
2260.93041	34458.75
2263.82004	34363.05
2266.70783	34351.15
2269.59378	34228.45
2272.4779	34131.95
2275.36017	34086.05
2278.24061	34025.95
2281.11922	33954.65
2283.996	33943.05
2286.87094	33916.35
2289.74405	33854.65
2292.61534	33888.95
2295.4848	33877.15
2298.35243	33888.15
2301.21824	33868.75
2304.08223	33883.95
2306.94439	33882.35
2309.80474	33920.75
2312.66327	33908.25
2315.51999	33901.45
2318.37489	33873.95
2321.22797	33892.05
2324.07925	33851.55
2326.92871	33781.55
2329.77637	33737.35
2332.62222	33720.65
2335.46626	33741.85
2338.3085	33739.05
2341.14893	33722.05
2343.98756	33762.15
2346.8244	33744.95
2349.65943	33678.85
2352.49267	33708.35
2355.32411	33733.45
2358.15376	33667.05
2360.98161	33590.95
2363.80768	33614.45
2366.63195	33556.05
2369.45444	33512.45
2372.27514	33467.75
2375.09405	33353.95
2377.91118	33291.85
2380.72652	33212.55
2383.54009	33187.95
2386.35187	33144.25
2389.16188	33092.95
2391.97011	33048.35
2394.77657	33014.15
2397.58125	32966.65
2400.38416	32910.75
2403.18529	32853.35
2405.98466	32834.85
2408.78226	32724.75
2411.57809	32707.35
2414.37216	32617.65
2417.16446	32619.15
2419.955	32576.15
2422.74378	32545.55
2425.5308	32562.35
2428.31606	32530.25
2431.09956	32514.05
2433.88131	32507.75
2436.6613	32553.45
2439.43954	32545.55
2442.21603	32496.65
2444.99077	32478.95
2447.76377	32443.75
2450.53501	32374.05
2453.30451	32439.25
2456.07226	32348.45
2458.83827	32337.75
2461.60254	32272.95
2464.36507	32267.65
2467.12586	32256.65
2469.88492	32281.15
2472.64224	32329.15
2475.39782	32290.85
2478.15167	32318.35
2480.90379	32303.05
2483.65417	32343.35
2486.40283	32329.75
2489.14976	32348.65
2491.89497	32337.65
2494.63845	32367.15
2497.3802	32352.15
2500.12024	32288.55
2502.85855	32266.75
2505.59514	32288.65
2508.33002	32243.35
2511.06318	32184.45
2513.79462	32125.95
2516.52435	32092.05
2519.25237	32033.25
2521.97867	32027.15
2524.70327	32065.15
2527.42616	31992.45
2530.14734	32009.85
2532.86681	31966.15
2535.58458	31905.55
2538.30065	31924.55
2541.01501	31901.75
2543.72768	31928.45
2546.43864	31857.35
2549.14791	31809.65
2551.85548	31762.85
2554.56136	31743.55
2557.26554	31684.95
2559.96803	31626.35
2562.66883	31585.75
2565.36794	31550.05
2568.06536	31586.35
2570.7611	31520.35
2573.45514	31477.75
2576.14751	31489.25
2578.83819	31424.25
2581.52719	31418.95
2584.21451	31347.65
2586.90015	31347.15
2589.58411	31301.85
2592.2664	31272.25
2594.94701	31197.45
2597.62594	31255.25
2600.30321	31222.95
2602.9788	31183.25
2605.65273	31137.25
2608.32498	31133.65
2610.99557	31103.55
2613.66449	31148.55
2616.33175	31126.35
2618.99734	31131.75
2621.66128	31103.65
2624.32355	31119.45
2626.98416	31123.05
2629.64311	31054.75
2632.30041	31045.05
2634.95605	31009.25
2637.61004	30993.85
2640.26238	30987.55
2642.91306	30948.15
2645.56209	30905.55
2648.20948	30884.35
2650.85521	30844.25
2653.4993	30872.45
2656.14175	30853.55
2658.78255	30893.75
2661.42171	30890.85
2664.05923	30873.95
2666.6951	30860.85
2669.32934	30881.35
2671.96194	30870.15
2674.59291	30875.35
2677.22224	30857.75
2679.84993	30861.25
2682.476	30847.65
2685.10043	30872.85
2687.72324	30805.85
2690.34441	30835.25
2692.96396	30766.75
2695.58188	30758.95
2698.19818	30733.45
2700.81285	30734.15
2703.4259	30721.15
2706.03733	30795.35
2708.64714	30753.15
2711.25533	30755.75
2713.86191	30755.45
2716.46687	30843.45
2719.07021	30850.05
2721.67194	30892.25
2724.27206	30885.85
2726.87057	30937.15
2729.46747	30907.25
2732.06276	30905.35
2734.65644	30872.35
2737.24852	30849.45
2739.83899	30794.05
2742.42786	30808.85
2745.01513	30788.25
2747.60079	30766.25
2750.18486	30742.15
2752.76733	30679.55
2755.3482	30710.15
2757.92747	30652.95
2760.50515	30645.05
2763.08123	30617.45
2765.65573	30566.45
2768.22863	30589.75
2770.79994	30482.05
2773.36967	30530.75
2775.9378	30496.55
2778.50435	30512.95
2781.06932	30475.55
2783.6327	30457.05
2786.1945	30413.35
2788.75471	30399.95
2791.31335	30326.25
2793.87041	30320.55
2796.42589	30200.35
2798.97979	30211.35
2801.53212	30095.45
2804.08288	30050.45
2806.63206	29993.35
2809.17967	29916.25
2811.72571	29850.95
2814.27018	29790.25
2816.81308	29796.05
2819.35442	29749.15
2821.89419	29732.55
2824.43239	29740.35
2826.96904	29680.95
2829.50412	29680.55
2832.03763	29627.95
2834.56959	29614.45
2837.1	29567.25
2839.62884	29564.05
2842.15613	29474.95
2844.68186	29519.75
2847.20604	29484.95
2849.72867	29427.15
2852.24974	29419.35
2854.76927	29397.05
2857.28724	29401.85
2859.80367	29325.65
2862.31855	29261.65
2864.83189	29237.85
2867.34368	29283.25
2869.85393	29244.35
2872.36264	29215.45
2874.8698	29191.25
2877.37543	29196.75
2879.87952	29190.05
2882.38207	29155.45
2884.88308	29140.25
2887.38256	29150.25
2889.88051	29132.65
2892.37692	29207.95
2894.8718	29171.15
2897.36515	29235.95
2899.85698	29176.45
2902.34727	29263.75
2904.83604	29244.35
2907.32328	29350.05
2909.809	29333.95
2912.29319	29389.75
2914.77587	29344.65
2917.25702	29313.75
2919.73665	29336.15
2922.21476	29381.25
2924.69136	29332.35
2927.16644	29318.95
2929.64	29274.05
2932.11205	29221.35
2934.58258	29118.15
2937.05161	29185.25
2939.51912	29174.65
2941.98513	29198.55
2944.44962	29179.25
2946.91261	29112.25
2949.37409	29160.65
2951.83407	29171.05
2954.29254	29178.15
2956.74951	29229.65
2959.20498	29155.15
2961.65895	29145.55
2964.11142	29157.85
2966.56239	29108.75
2969.01186	29147.55
2971.45984	29049.85
2973.90632	29054.85
2976.35131	28995.05
2978.7948	28898.95
2981.23681	28902.55
2983.67732	28883.55
2986.11635	28826.45
2988.55388	28796.35
2990.98993	28729.25
2993.4245	28654.65
2995.85758	28598.05
2998.28917	28522.25
3000.71928	28523.85
3003.14791	28470.95
3005.57506	28439.35
3008.00073	28375.45
3010.42493	28291.35
3012.84764	28284.75
3015.26888	28337.15
3017.68865	28246.15
3020.10694	28223.85
3022.52376	28163.65
3024.9391	28206.75
3027.35298	28123.75
3029.76539	28127.65
3032.17632	28076.15
3034.5858	28058.55
3036.9938	28080.75
3039.40034	28070.25
3041.80542	28051.25
3044.20903	28011.15
3046.61118	27958.55
3049.01187	27882.85
3051.4111	27867.75
3053.80888	27810.75
3056.20519	27774.85
3058.60005	27703.15
3060.99345	27682.55
3063.3854	27696.75
3065.7759	27569.75
3068.16494	27494.45
3070.55254	27442.55
3072.93868	27400.65
3075.32338	27293.95
3077.70662	27283.75
3080.08842	27198.55
3082.46878	27187.35
3084.84769	27180.85
3087.22515	27184.75
3089.60118	27139.15
3091.97576	27188.75
3094.3489	27160.95
3096.72061	27142.75
3099.09087	27160.65
3101.4597	27208.25
3103.82709	27187.95
3106.19305	27174.55
3108.55757	27135.45
3110.92066	27065.25
3113.28232	27073.25
3115.64255	26979.45
3118.00134	26937.85
3120.35871	26911.55
3122.71466	26886.45
3125.06917	26836.95
3127.42226	26751.95
3129.77393	26728.95
3132.12417	26672.35
3134.47299	26678.35
3136.82039	26681.05
3139.16636	26691.55
3141.51092	26652.95
3143.85406	26621.95
3146.19579	26645.15
3148.53609	26667.25
3150.87499	26657.25
3153.21246	26697.45
3155.54853	26787.45
3157.88318	26748.45
3160.21642	26780.95
3162.54826	26767.45
3164.87868	26758.15
3167.2077	26732.85
3169.5353	26775.25
3171.86151	26757.05
3174.18631	26719.95
3176.5097	26679.65
3178.83169	26614.65
3181.15228	26596.95
3183.47147	26588.35
3185.78926	26538.25
3188.10565	26519.45
3190.42065	26544.65
3192.73424	26514.95
3195.04645	26426.65
3197.35725	26469.15
3199.66667	26478.15
3201.97469	26478.95
3204.28132	26496.55
3206.58656	26533.95
3208.8904	26551.45
3211.19287	26576.15
3213.49394	26517.05
3215.79363	26581.15
3218.09193	26564.65
3220.38884	26585.45
3222.68438	26647.15
3224.97853	26605.65
3227.2713	26610.85
3229.56269	26567.25
3231.8527	26579.55
3234.14133	26479.25
3236.42858	26422.95
