Data from AgNPs_FTO_APTES_UA_20uM_CRN_10uM_R6G_10uM_NaF_0.1M_Addition_RamanShift__24__14-38-22-216.txt Node

Date: Thu Feb 17 14:38:22 GMT 2022
User: TCL
Spectrometer: QEP01345
Trigger mode: 4
Integration Time (sec): 7.000000E0
Scans to average: 10
Electric dark correction enabled: true
Nonlinearity correction enabled: false
Boxcar width: 0
XAxis mode: Raman Shifts
Number of Pixels in Spectrum: 1044
>>>>>Begin Spectral Data<<<<<
46.04893	-0.275
50.45542	-0.175
54.85868	-3.575
59.25871	-1.375
63.6555	124.125
68.04907	119.325
72.43941	129.825
76.82654	130.325
81.21044	135.525
85.59113	138.825
89.96862	144.925
94.34289	148.925
98.71396	155.825
103.08183	158.725
107.4465	167.525
111.80798	167.025
116.16626	171.725
120.52136	182.125
124.87327	187.625
129.222	199.025
133.56755	219.225
137.90993	232.225
142.24913	258.425
146.58517	293.925
150.91804	344.525
155.24774	412.625
159.57429	511.825
163.89768	668.125
168.21792	894.025
172.53501	1235.425
176.84895	1725.325
181.15975	2444.125
185.46741	3448.425
189.77193	4750.725
194.07331	6385.925
198.37157	8279.925
202.6667	10254.325
206.9587	12184.625
211.24758	14114.625
215.53334	16013.325
219.81599	18036.125
224.09553	20280.825
228.37195	22741.625
232.64527	25481.725
236.91549	28415.025
241.18261	31415.425
245.44663	34248.125
249.70755	36779.025
253.96539	39034.025
258.22014	40918.325
262.4718	42505.225
266.72039	43689.025
270.96589	44276.825
275.20832	44372.625
279.44768	44166.225
283.68397	43770.525
287.91719	43394.625
292.14735	43114.125
296.37445	43078.225
300.59849	43217.125
304.81948	43341.625
309.03742	43413.825
313.25231	43070.425
317.46415	42356.125
321.67296	41489.125
325.87872	40811.225
330.08145	40457.525
334.28114	40533.825
338.47781	40957.525
342.67145	41423.825
346.86207	42190.225
351.04966	43065.225
355.23424	43952.625
359.4158	44759.325
363.59435	45390.325
367.76989	45807.425
371.94243	46145.925
376.11196	46464.325
380.27849	46796.925
384.44203	47002.025
388.60257	47227.525
392.76012	47541.325
396.91468	47993.625
401.06626	48600.825
405.21485	49144.525
409.36047	49172.825
413.50311	48625.925
417.64277	48073.225
421.77947	47876.225
425.9132	47991.125
430.04396	48329.825
434.17176	48805.525
438.2966	49361.125
442.41849	50243.525
446.53742	51439.425
450.6534	52779.525
454.76644	53892.425
458.87653	54312.325
462.98368	54024.625
467.08789	53335.025
471.18916	52474.825
475.2875	51696.825
479.38291	51196.125
483.4754	50699.525
487.56496	50194.325
491.6516	49705.725
495.73531	49355.025
499.81612	49128.925
503.89401	49352.025
507.96899	49462.225
512.04106	49429.325
516.11023	49412.025
520.1765	49323.725
524.23987	49322.625
528.30034	49117.825
532.35792	48868.125
536.41261	48516.125
540.46441	48113.925
544.51333	48150.925
548.55936	48506.325
552.60252	49291.225
556.64279	50013.025
560.6802	50576.025
564.71473	50793.225
568.7464	51168.525
572.7752	51872.125
576.80114	52276.725
580.82422	52635.725
584.84444	53286.825
588.86181	54109.825
592.87633	55086.125
596.888	55727.425
600.89682	55718.625
604.9028	57307.825
608.90594	61827.725
612.90624	66669.825
616.90371	63619.725
620.89834	55244.525
624.89015	51593.725
628.87913	51065.525
632.86528	50951.225
636.84862	50519.825
640.82913	49913.325
644.80683	49007.025
648.78172	48259.325
652.75379	48261.325
656.72306	48871.025
660.68952	49718.025
664.65319	49607.425
668.61405	48910.425
672.57211	48760.325
676.52738	48812.425
680.47986	48783.225
684.42955	48656.725
688.37646	48643.225
692.32058	48924.825
696.26192	49350.125
700.20048	49767.425
704.13626	50038.125
708.06928	49886.625
711.99952	49539.725
715.927	49471.325
719.85171	49515.925
723.77365	49494.925
727.69284	49233.025
731.60928	48908.225
735.52295	48789.125
739.43388	48937.525
743.34206	49253.225
747.24749	49481.025
751.15017	49740.825
755.05012	50328.425
758.94733	51393.425
762.8418	53358.725
766.73354	56533.525
770.62254	59741.525
774.50882	60742.725
778.39237	58665.725
782.27321	54929.925
786.15132	51914.325
790.02671	50197.825
793.89938	49395.025
797.76935	49081.625
801.6366	48993.125
805.50115	48934.225
809.36299	48751.625
813.22213	48546.925
817.07857	48432.825
820.93231	48426.325
824.78336	48431.325
828.63172	48491.025
832.47738	48538.225
836.32036	48699.125
840.16066	48790.625
843.99827	49000.325
847.8332	48973.425
851.66546	48804.525
855.49504	48679.225
859.32195	48692.125
863.1462	48554.925
866.96777	48453.125
870.78668	48412.025
874.60293	48412.025
878.41652	48488.925
882.22745	48532.625
886.03573	48635.925
889.84136	48608.125
893.64433	48369.725
897.44466	48224.125
901.24235	48128.525
905.0374	48050.625
908.8298	48076.625
912.61957	48138.525
916.40671	48407.425
920.19121	48930.225
923.97308	49393.125
927.75233	49526.225
931.52895	49451.925
935.30295	49000.425
939.07433	48405.625
942.84309	48005.625
946.60924	47863.925
950.37278	47674.625
954.13371	47552.825
957.89203	47383.425
961.64774	47193.325
965.40086	47065.025
969.15137	46868.425
972.89929	46826.225
976.64461	46741.725
980.38733	46783.725
984.12747	46934.225
987.86502	47364.225
991.59999	47931.425
995.33237	48767.325
999.06217	50141.825
1002.78939	51701.625
1006.51404	52632.325
1010.23611	53051.825
1013.95561	53399.425
1017.67255	53484.125
1021.38692	53229.325
1025.09872	52953.525
1028.80796	53521.725
1032.51465	54872.225
1036.21877	56127.025
1039.92035	56195.825
1043.61937	55408.925
1047.31584	54076.825
1051.00976	52516.925
1054.70114	51734.825
1058.38998	51523.925
1062.07627	51533.325
1065.76003	51619.125
1069.44126	51782.025
1073.11995	52108.225
1076.79611	52431.725
1080.46974	52796.225
1084.14085	53296.225
1087.80943	53690.025
1091.47549	53900.325
1095.13903	53595.625
1098.80005	52948.525
1102.45857	52327.925
1106.11456	52028.425
1109.76805	52171.925
1113.41903	52649.125
1117.06751	53164.525
1120.71348	53573.725
1124.35696	54020.225
1127.99793	54266.225
1131.63641	54305.625
1135.2724	53858.825
1138.90589	53421.425
1142.5369	53116.825
1146.16542	52967.925
1149.79145	52995.725
1153.415	53312.225
1157.03607	53903.425
1160.65467	54716.425
1164.27079	56179.425
1167.88443	58208.325
1171.49561	60990.525
1175.10432	64745.125
1178.71056	69553.525
1182.31434	74083.225
1185.91565	76425.125
1189.51451	75884.725
1193.11091	73432.725
1196.70485	70284.925
1200.29634	67619.525
1203.88538	65690.425
1207.47197	64180.725
1211.05612	62828.125
1214.63782	61929.925
1218.21708	61791.925
1221.79391	62052.725
1225.36829	62271.625
1228.94024	61789.725
1232.50976	60698.825
1236.07685	59770.225
1239.6415	59475.825
1243.20374	59622.825
1246.76355	60056.925
1250.32093	60789.225
1253.8759	61969.725
1257.42845	63346.325
1260.97859	64592.525
1264.52631	65580.825
1268.07163	66848.225
1271.61453	68294.825
1275.15503	69884.525
1278.69312	71654.325
1282.22882	73049.425
1285.76211	74203.425
1289.29301	75329.325
1292.82151	76985.325
1296.34761	79228.925
1299.87133	82455.625
1303.39266	86760.425
1306.9116	92122.725
1310.42815	97507.325
1313.94233	100903.625
1317.45412	100958.025
1320.96354	98622.825
1324.47058	95765.725
1327.97525	93025.825
1331.47754	91100.525
1334.97747	90511.425
1338.47502	91199.325
1341.97022	92163.725
1345.46305	92239.225
1348.95352	91863.925
1352.44163	91609.525
1355.92738	93364.825
1359.41078	97292.825
1362.89183	100979.925
1366.37053	98986.925
1369.84688	90888.025
1373.32088	82043.225
1376.79254	76056.425
1380.26186	73296.125
1383.72883	72359.525
1387.19347	71914.625
1390.65578	71250.625
1394.11575	70998.825
1397.57339	71584.125
1401.0287	72863.825
1404.48168	74287.025
1407.93234	75487.125
1411.38068	76064.625
1414.82669	75553.325
1418.27039	73804.925
1421.71177	71416.525
1425.15083	69193.225
1428.58758	67963.825
1432.02203	68024.725
1435.45416	68773.725
1438.88399	69816.225
1442.31151	70762.925
1445.73673	71532.125
1449.15965	72137.425
1452.58027	72422.425
1455.9986	72370.825
1459.41463	72538.225
1462.82837	73216.725
1466.23982	74462.625
1469.64898	75947.125
1473.05586	77076.325
1476.46045	77619.325
1479.86276	77779.325
1483.26279	77627.225
1486.66054	77577.325
1490.05602	77956.825
1493.44922	78506.525
1496.84016	78817.625
1500.22882	79634.325
1503.61521	81336.125
1506.99934	83920.325
1510.38121	86139.125
1513.76081	86516.725
1517.13816	84364.425
1520.51324	80942.525
1523.88607	77870.625
1527.25665	76083.025
1530.62498	75327.025
1533.99105	75037.525
1537.35488	74778.725
1540.71647	74498.725
1544.07581	73901.725
1547.4329	73275.125
1550.78776	72280.125
1554.14038	71575.025
1557.49077	71082.925
1560.83892	70799.125
1564.18484	70545.325
1567.52853	70532.925
1570.86999	70689.125
1574.20922	70957.725
1577.54624	71153.525
1580.88103	70746.125
1584.2136	70511.725
1587.54395	71745.725
1590.87208	74856.825
1594.19801	79460.925
1597.52172	84527.225
1600.84321	86942.225
1604.16251	84740.925
1607.47959	79778.125
1610.79447	73998.925
1614.10715	68747.725
1617.41763	64417.925
1620.7259	61570.725
1624.03199	60057.825
1627.33587	60012.025
1630.63757	61152.925
1633.93707	63863.625
1637.23439	67914.725
1640.52951	73354.225
1643.82246	79246.625
1647.11321	83758.525
1650.40179	84278.125
1653.68819	79603.925
1656.97241	71541.625
1660.25446	63793.825
1663.53433	58170.925
1666.81203	54595.225
1670.08756	52301.225
1673.36092	50796.625
1676.63211	49817.225
1679.90115	49036.625
1683.16801	48456.125
1686.43272	48064.225
1689.69527	47749.425
1692.95567	47555.125
1696.2139	47494.225
1699.46999	47386.925
1702.72392	47282.525
1705.97571	47222.425
1709.22535	47168.325
1712.47284	47114.225
1715.71819	47086.725
1718.96139	47005.525
1722.20246	46913.225
1725.44139	46767.925
1728.67818	46568.725
1731.91284	46386.125
1735.14537	46210.925
1738.37576	46027.025
1741.60403	45904.425
1744.83017	45785.125
1748.05418	45632.825
1751.27607	45555.525
1754.49584	45585.625
1757.71349	45620.925
1760.92903	45556.225
1764.14244	45578.125
1767.35375	45436.025
1770.56294	45417.725
1773.77002	45405.725
1776.97499	45405.125
1780.17785	45315.125
1783.37861	45232.825
1786.57727	45154.625
1789.77382	45128.925
1792.96828	45073.225
1796.16064	45048.825
1799.3509	44988.825
1802.53907	45001.125
1805.72514	44851.525
1808.90913	44768.625
1812.09102	44793.125
1815.27083	44653.225
1818.44856	44600.925
1821.6242	44496.025
1824.79776	44475.425
1827.96924	44479.725
1831.13864	44454.625
1834.30597	44479.325
1837.47122	44368.725
1840.6344	44317.525
1843.7955	44368.025
1846.95454	44341.025
1850.11151	44350.925
1853.26642	44333.225
1856.41926	44357.425
1859.57004	44355.225
1862.71876	44299.225
1865.86542	44284.225
1869.01003	44276.525
1872.15258	44277.625
1875.29308	44259.425
1878.43152	44219.625
1881.56792	44190.925
1884.70227	44231.025
1887.83457	44192.325
1890.96482	44179.625
1894.09304	44132.525
1897.21921	44107.825
1900.34335	44060.925
1903.46544	44003.825
1906.58551	44040.325
1909.70353	44037.825
1912.81953	44012.725
1915.93349	43935.025
1919.04543	43845.725
1922.15534	43828.825
1925.26322	43745.425
1928.36908	43740.625
1931.47292	43658.325
1934.57473	43570.025
1937.67453	43476.625
1940.77232	43373.325
1943.86808	43251.725
1946.96184	43155.725
1950.05358	43024.925
1953.14331	42953.425
1956.23103	42806.325
1959.31675	42676.825
1962.40046	42555.925
1965.48217	42450.725
1968.56188	42322.025
1971.63959	42203.725
1974.7153	42121.125
1977.78901	41934.725
1980.86073	41903.025
1983.93046	41796.525
1986.99819	41662.525
1990.06394	41517.725
1993.1277	41455.525
1996.18947	41341.125
1999.24925	41258.125
2002.30706	41143.225
2005.36288	41047.225
2008.41672	40875.625
2011.46859	40804.025
2014.51848	40695.325
2017.56639	40611.825
2020.61233	40537.525
2023.6563	40445.625
2026.6983	40340.825
2029.73833	40285.825
2032.7764	40219.625
2035.8125	40160.925
2038.84664	40102.625
2041.87881	40103.225
2044.90903	40049.125
2047.93729	39974.225
2050.96359	39963.325
2053.98794	39876.625
2057.01034	39914.425
2060.03078	39865.225
2063.04927	39807.725
2066.06582	39778.325
2069.08042	39764.425
2072.09307	39681.925
2075.10378	39662.725
2078.11255	39606.725
2081.11938	39615.725
2084.12426	39618.725
2087.12722	39576.225
2090.12824	39600.125
2093.12732	39607.725
2096.12447	39566.225
2099.11969	39567.525
2102.11299	39533.325
2105.10435	39607.225
2108.09379	39636.525
2111.08131	39642.525
2114.0669	39632.325
2117.05057	39647.125
2120.03233	39713.025
2123.01216	39784.625
2125.99008	39838.725
2128.96609	39942.825
2131.94018	39890.525
2134.91236	39938.525
2137.88263	40004.325
2140.851	39953.525
2143.81746	40020.125
2146.78201	40045.725
2149.74466	40106.725
2152.7054	40066.825
2155.66425	40023.725
2158.6212	40137.625
2161.57625	40063.225
2164.52941	40005.025
2167.48067	40047.825
2170.43004	40013.225
2173.37752	40020.225
2176.32311	40055.225
2179.26681	40072.225
2182.20863	40068.725
2185.14856	40165.525
2188.08661	40147.425
2191.02278	40117.025
2193.95707	40048.925
2196.88948	40073.925
2199.82001	40097.825
2202.74867	40084.325
2205.67545	40085.525
2208.60037	39995.425
2211.52341	39989.925
2214.44458	40022.325
2217.36388	39991.225
2220.28132	39932.325
2223.1969	39836.925
2226.11061	39706.825
2229.02246	39600.625
2231.93245	39556.825
2234.84058	39500.825
2237.74686	39440.425
2240.65128	39419.325
2243.55385	39372.025
2246.45456	39356.225
2249.35343	39320.225
2252.25044	39311.225
2255.14561	39210.925
2258.03893	39133.025
2260.93041	39102.825
2263.82004	39021.325
2266.70783	38990.225
2269.59378	38860.025
2272.4779	38835.825
2275.36017	38711.525
2278.24061	38671.625
2281.11922	38586.425
2283.996	38482.725
2286.87094	38533.025
2289.74405	38490.425
2292.61534	38490.025
2295.4848	38365.525
2298.35243	38440.525
2301.21824	38459.825
2304.08223	38492.025
2306.94439	38494.925
2309.80474	38528.325
2312.66327	38554.325
2315.51999	38542.725
2318.37489	38536.725
2321.22797	38514.825
2324.07925	38524.025
2326.92871	38371.625
2329.77637	38389.225
2332.62222	38434.625
2335.46626	38339.125
2338.3085	38365.325
2341.14893	38370.325
2343.98756	38378.425
2346.8244	38426.225
2349.65943	38406.325
2352.49267	38403.725
2355.32411	38382.525
2358.15376	38410.225
2360.98161	38282.425
2363.80768	38282.425
2366.63195	38271.225
2369.45444	38172.725
2372.27514	38075.125
2375.09405	38034.225
2377.91118	37950.825
2380.72652	37881.325
2383.54009	37807.725
2386.35187	37706.125
2389.16188	37642.825
2391.97011	37564.125
2394.77657	37538.525
2397.58125	37526.625
2400.38416	37450.925
2403.18529	37378.925
2405.98466	37366.425
2408.78226	37251.025
2411.57809	37151.625
2414.37216	37132.925
2417.16446	37137.425
2419.955	37014.325
2422.74378	37020.325
2425.5308	36997.325
2428.31606	36999.725
2431.09956	37008.525
2433.88131	36967.425
2436.6613	36923.725
2439.43954	36969.025
2442.21603	36896.825
2444.99077	36876.525
2447.76377	36879.425
2450.53501	36798.425
2453.30451	36800.525
2456.07226	36797.325
2458.83827	36762.925
2461.60254	36747.825
2464.36507	36750.825
2467.12586	36730.525
2469.88492	36768.825
2472.64224	36788.425
2475.39782	36786.825
2478.15167	36836.725
2480.90379	36815.825
2483.65417	36910.425
2486.40283	36867.825
2489.14976	36900.225
2491.89497	36856.025
2494.63845	36960.325
2497.3802	36870.925
2500.12024	36899.025
2502.85855	36872.125
2505.59514	36842.425
2508.33002	36765.325
2511.06318	36784.525
2513.79462	36762.925
2516.52435	36659.425
2519.25237	36674.125
2521.97867	36653.625
2524.70327	36610.325
2527.42616	36629.725
2530.14734	36610.025
2532.86681	36563.025
2535.58458	36552.725
2538.30065	36491.125
2541.01501	36497.025
2543.72768	36516.425
2546.43864	36473.425
2549.14791	36417.925
2551.85548	36405.025
2554.56136	36310.925
2557.26554	36240.225
2559.96803	36170.325
2562.66883	36152.325
2565.36794	36147.425
2568.06536	36108.225
2570.7611	36074.525
2573.45514	36049.125
2576.14751	36011.625
2578.83819	35978.525
2581.52719	35994.925
2584.21451	35984.325
2586.90015	35991.225
2589.58411	35921.125
2592.2664	35899.825
2594.94701	35869.325
2597.62594	35938.025
2600.30321	35926.325
2602.9788	35865.125
2605.65273	35812.825
2608.32498	35871.925
2610.99557	35842.025
2613.66449	35903.225
2616.33175	35822.425
2618.99734	35860.125
2621.66128	35826.725
2624.32355	35840.925
2626.98416	35823.425
2629.64311	35808.125
2632.30041	35898.025
2634.95605	35815.025
2637.61004	35777.925
2640.26238	35746.225
2642.91306	35681.625
2645.56209	35611.925
2648.20948	35623.425
2650.85521	35586.125
2653.4993	35566.725
2656.14175	35499.125
2658.78255	35641.625
2661.42171	35653.125
2664.05923	35657.925
2666.6951	35654.325
2669.32934	35717.725
2671.96194	35726.825
2674.59291	35726.625
2677.22224	35759.825
2679.84993	35754.925
2682.476	35655.625
2685.10043	35651.225
2687.72324	35624.225
2690.34441	35635.225
2692.96396	35612.725
2695.58188	35638.725
2698.19818	35576.925
2700.81285	35498.725
2703.4259	35507.725
2706.03733	35615.125
2708.64714	35575.825
2711.25533	35604.625
2713.86191	35579.525
2716.46687	35712.325
2719.07021	35652.625
2721.67194	35677.325
2724.27206	35598.925
2726.87057	35643.925
2729.46747	35672.925
2732.06276	35633.025
2734.65644	35699.925
2737.24852	35757.025
2739.83899	35683.225
2742.42786	35729.625
2745.01513	35734.625
2747.60079	35674.625
2750.18486	35663.625
2752.76733	35622.825
2755.3482	35594.825
2757.92747	35574.925
2760.50515	35518.625
2763.08123	35531.125
2765.65573	35553.825
2768.22863	35520.225
2770.79994	35456.725
2773.36967	35533.825
2775.9378	35505.125
2778.50435	35520.725
2781.06932	35493.825
2783.6327	35462.725
2786.1945	35473.525
2788.75471	35430.625
2791.31335	35309.925
2793.87041	35293.725
2796.42589	35197.625
2798.97979	35206.325
2801.53212	35103.925
2804.08288	35033.725
2806.63206	34974.525
2809.17967	34925.725
2811.72571	34840.625
2814.27018	34765.525
2816.81308	34665.025
2819.35442	34656.225
2821.89419	34623.425
2824.43239	34661.225
2826.96904	34643.425
2829.50412	34652.825
2832.03763	34562.625
2834.56959	34577.725
2837.1	34505.125
2839.62884	34445.425
2842.15613	34391.525
2844.68186	34405.525
2847.20604	34301.325
2849.72867	34339.925
2852.24974	34278.225
2854.76927	34256.225
2857.28724	34213.625
2859.80367	34190.425
2862.31855	34202.525
2864.83189	34109.825
2867.34368	34075.625
2869.85393	34089.125
2872.36264	34111.725
2874.8698	34042.225
2877.37543	34013.125
2879.87952	34039.025
2882.38207	33989.225
2884.88308	33971.825
2887.38256	34010.225
2889.88051	34024.325
2892.37692	34031.225
2894.8718	34088.825
2897.36515	34118.025
2899.85698	34133.325
2902.34727	34161.825
2904.83604	34155.625
2907.32328	34225.825
2909.809	34190.625
2912.29319	34214.725
2914.77587	34267.925
2917.25702	34289.125
2919.73665	34196.725
2922.21476	34209.025
2924.69136	34124.725
2927.16644	34113.825
2929.64	34125.525
2932.11205	34059.425
2934.58258	33986.125
2937.05161	34053.025
2939.51912	34078.225
2941.98513	34023.625
2944.44962	33992.325
2946.91261	33964.025
2949.37409	34066.925
2951.83407	33968.825
2954.29254	33946.925
2956.74951	33905.325
2959.20498	33951.025
2961.65895	33901.825
2964.11142	33925.225
2966.56239	33860.225
2969.01186	33867.625
2971.45984	33771.125
2973.90632	33740.025
2976.35131	33664.825
2978.7948	33633.625
2981.23681	33517.525
2983.67732	33538.825
2986.11635	33474.925
2988.55388	33424.125
2990.98993	33371.025
2993.4245	33296.225
2995.85758	33251.625
2998.28917	33153.825
3000.71928	33095.025
3003.14791	33049.825
3005.57506	33008.825
3008.00073	32884.625
3010.42493	32915.325
3012.84764	32816.325
3015.26888	32802.225
3017.68865	32749.725
3020.10694	32728.425
3022.52376	32658.725
3024.9391	32645.025
3027.35298	32591.425
3029.76539	32567.125
3032.17632	32505.925
3034.5858	32455.425
3036.9938	32455.025
3039.40034	32354.425
3041.80542	32395.125
3044.20903	32329.725
3046.61118	32360.725
3049.01187	32223.125
3051.4111	32195.625
3053.80888	32130.525
3056.20519	32073.725
3058.60005	31983.725
3060.99345	31965.925
3063.3854	31846.825
3065.7759	31773.325
3068.16494	31668.825
3070.55254	31573.825
3072.93868	31489.925
3075.32338	31356.625
3077.70662	31334.125
3080.08842	31247.425
3082.46878	31191.325
3084.84769	31141.925
3087.22515	31128.725
3089.60118	31112.825
3091.97576	31112.225
3094.3489	31102.225
3096.72061	31092.825
3099.09087	31122.025
3101.4597	31105.725
3103.82709	31091.925
3106.19305	31021.925
3108.55757	31028.625
3110.92066	30954.125
3113.28232	30952.225
3115.64255	30860.025
3118.00134	30789.625
3120.35871	30725.125
3122.71466	30642.725
3125.06917	30599.525
