Data from AgNPs_FTO_APTES_UA_20uM_CRN_0uM_R6G_10uM_NaF_0.1M_Addition_RamanShift__25__11-18-51-955.txt Node

Date: Thu Feb 17 11:18:51 GMT 2022
User: TCL
Spectrometer: QEP01345
Trigger mode: 4
Integration Time (sec): 7.000000E0
Scans to average: 10
Electric dark correction enabled: true
Nonlinearity correction enabled: false
Boxcar width: 0
XAxis mode: Raman Shifts
Number of Pixels in Spectrum: 1044
>>>>>Begin Spectral Data<<<<<
46.04893	1.2125
50.45542	-0.1875
54.85868	-0.4875
59.25871	-0.0875
63.6555	25.9125
68.04907	28.4125
72.43941	33.4125
76.82654	32.1125
81.21044	35.3125
85.59113	39.1125
89.96862	42.2125
94.34289	40.7125
98.71396	40.8125
103.08183	46.9125
107.4465	46.3125
111.80798	44.5125
116.16626	44.9125
120.52136	46.1125
124.87327	42.8125
129.222	49.9125
133.56755	50.0125
137.90993	48.3125
142.24913	56.2125
146.58517	58.3125
150.91804	66.9125
155.24774	73.4125
159.57429	89.7125
163.89768	114.8125
168.21792	148.5125
172.53501	197.9125
176.84895	268.9125
181.15975	376.9125
185.46741	524.1125
189.77193	707.7125
194.07331	960.4125
198.37157	1221.7125
202.6667	1511.3125
206.9587	1802.5125
211.24758	2093.6125
215.53334	2403.9125
219.81599	2767.0125
224.09553	3188.9125
228.37195	3635.7125
232.64527	4145.9125
236.91549	4653.6125
241.18261	5099.3125
245.44663	5491.0125
249.70755	5756.3125
253.96539	5979.5125
258.22014	6056.2125
262.4718	6067.3125
266.72039	6022.4125
270.96589	5924.1125
275.20832	5775.7125
279.44768	5601.4125
283.68397	5465.3125
287.91719	5353.0125
292.14735	5394.1125
296.37445	5605.5125
300.59849	5970.8125
304.81948	6481.4125
309.03742	6910.6125
313.25231	7022.4125
317.46415	6645.2125
321.67296	5947.2125
325.87872	5331.2125
330.08145	5017.6125
334.28114	5014.1125
338.47781	5142.1125
342.67145	5332.7125
346.86207	5669.9125
351.04966	6184.6125
355.23424	6807.0125
359.4158	7271.4125
363.59435	7503.1125
367.76989	7505.6125
371.94243	7394.7125
376.11196	7251.3125
380.27849	7120.5125
384.44203	6918.2125
388.60257	6714.9125
392.76012	6583.2125
396.91468	6573.5125
401.06626	6784.9125
405.21485	6940.3125
409.36047	6746.9125
413.50311	6262.6125
417.64277	5866.0125
421.77947	5642.2125
425.9132	5338.0125
430.04396	5242.8125
434.17176	5319.4125
438.2966	5522.2125
442.41849	5891.7125
446.53742	6327.0125
450.6534	6679.7125
454.76644	6793.0125
458.87653	6643.3125
462.98368	6326.8125
467.08789	5993.0125
471.18916	5680.8125
475.2875	5344.0125
479.38291	5071.3125
483.4754	4820.1125
487.56496	4683.0125
491.6516	4625.5125
495.73531	4608.6125
499.81612	4628.9125
503.89401	4707.0125
507.96899	4842.3125
512.04106	4990.9125
516.11023	5186.1125
520.1765	5350.9125
524.23987	5386.9125
528.30034	5284.8125
532.35792	5149.3125
536.41261	4952.8125
540.46441	4738.7125
544.51333	4590.8125
548.55936	4582.3125
552.60252	4726.6125
556.64279	4952.9125
560.6802	5084.9125
564.71473	5178.5125
568.7464	5530.1125
572.7752	5781.1125
576.80114	5440.3125
580.82422	5028.9125
584.84444	4919.0125
588.86181	5121.7125
592.87633	5545.5125
596.888	5768.3125
600.89682	5772.1125
604.9028	6592.8125
608.90594	9467.3125
612.90624	13391.9125
616.90371	12963.7125
620.89834	7847.5125
624.89015	5246.4125
628.87913	4685.9125
632.86528	4703.9125
636.84862	4815.7125
640.82913	4645.0125
644.80683	4243.3125
648.78172	3974.0125
652.75379	3985.0125
656.72306	4368.4125
660.68952	4822.8125
664.65319	4675.8125
668.61405	4184.6125
672.57211	3962.4125
676.52738	3930.0125
680.47986	3853.5125
684.42955	3759.8125
688.37646	3718.2125
692.32058	3797.2125
696.26192	3921.2125
700.20048	4070.9125
704.13626	4167.4125
708.06928	4131.5125
711.99952	4032.5125
715.927	4000.6125
719.85171	4046.1125
723.77365	4045.9125
727.69284	3968.8125
731.60928	3927.5125
735.52295	3978.7125
739.43388	4017.6125
743.34206	4032.0125
747.24749	4032.7125
751.15017	4051.8125
755.05012	4169.7125
758.94733	4588.9125
762.8418	5602.5125
766.73354	7266.8125
770.62254	8951.9125
774.50882	9969.8125
778.39237	9794.3125
782.27321	8052.4125
786.15132	6002.9125
790.02671	4817.6125
793.89938	4305.6125
797.76935	4093.9125
801.6366	4000.5125
805.50115	3951.1125
809.36299	3904.3125
813.22213	3875.5125
817.07857	3843.0125
820.93231	3829.9125
824.78336	3862.9125
828.63172	3908.3125
832.47738	3917.3125
836.32036	3873.4125
840.16066	3803.5125
843.99827	3744.6125
847.8332	3726.3125
851.66546	3717.3125
855.49504	3726.9125
859.32195	3703.8125
863.1462	3643.8125
866.96777	3615.6125
870.78668	3611.5125
874.60293	3641.1125
878.41652	3710.2125
882.22745	3760.3125
886.03573	3808.1125
889.84136	3794.1125
893.64433	3748.1125
897.44466	3731.4125
901.24235	3733.2125
905.0374	3658.4125
908.8298	3588.0125
912.61957	3534.9125
916.40671	3561.0125
920.19121	3597.9125
923.97308	3684.7125
927.75233	3789.1125
931.52895	3884.0125
935.30295	3803.8125
939.07433	3545.9125
942.84309	3348.8125
946.60924	3237.9125
950.37278	3177.8125
954.13371	3152.2125
957.89203	3147.3125
961.64774	3119.7125
965.40086	3106.2125
969.15137	3095.0125
972.89929	3090.4125
976.64461	3081.3125
980.38733	3097.1125
984.12747	3092.0125
987.86502	3120.1125
991.59999	3150.5125
995.33237	3244.3125
999.06217	3401.6125
1002.78939	3577.5125
1006.51404	3715.9125
1010.23611	3858.2125
1013.95561	3968.8125
1017.67255	3915.4125
1021.38692	3729.5125
1025.09872	3522.1125
1028.80796	3400.0125
1032.51465	3373.7125
1036.21877	3433.5125
1039.92035	3546.9125
1043.61937	3605.4125
1047.31584	3603.8125
1051.00976	3574.9125
1054.70114	3519.9125
1058.38998	3471.2125
1062.07627	3453.5125
1065.76003	3454.9125
1069.44126	3499.4125
1073.11995	3609.4125
1076.79611	3775.3125
1080.46974	4039.5125
1084.14085	4341.4125
1087.80943	4589.2125
1091.47549	4608.9125
1095.13903	4409.6125
1098.80005	4066.6125
1102.45857	3818.4125
1106.11456	3779.9125
1109.76805	3902.8125
1113.41903	4154.1125
1117.06751	4536.0125
1120.71348	5076.6125
1124.35696	5653.8125
1127.99793	6041.6125
1131.63641	5757.2125
1135.2724	5121.7125
1138.90589	4614.9125
1142.5369	4321.8125
1146.16542	4146.8125
1149.79145	4039.0125
1153.415	3992.8125
1157.03607	4047.5125
1160.65467	4209.5125
1164.27079	4535.7125
1167.88443	5033.0125
1171.49561	5903.8125
1175.10432	7290.3125
1178.71056	9099.7125
1182.31434	10389.9125
1185.91565	10685.3125
1189.51451	10259.6125
1193.11091	9469.5125
1196.70485	8588.5125
1200.29634	7719.3125
1203.88538	6886.7125
1207.47197	5982.3125
1211.05612	5346.5125
1214.63782	5047.9125
1218.21708	5040.2125
1221.79391	5024.1125
1225.36829	4921.9125
1228.94024	4769.4125
1232.50976	4674.0125
1236.07685	4685.7125
1239.6415	4838.4125
1243.20374	4938.4125
1246.76355	4939.3125
1250.32093	4951.2125
1253.8759	5137.8125
1257.42845	5469.6125
1260.97859	5844.3125
1264.52631	6290.6125
1268.07163	6675.5125
1271.61453	6879.7125
1275.15503	6959.7125
1278.69312	6920.9125
1282.22882	7028.2125
1285.76211	7393.9125
1289.29301	7965.9125
1292.82151	8575.5125
1296.34761	9184.5125
1299.87133	9929.8125
1303.39266	11159.9125
1306.9116	13037.1125
1310.42815	15122.1125
1313.94233	15994.0125
1317.45412	14997.6125
1320.96354	13047.4125
1324.47058	11098.4125
1327.97525	9616.1125
1331.47754	8930.8125
1334.97747	8930.2125
1338.47502	9410.0125
1341.97022	10016.9125
1345.46305	10695.0125
1348.95352	11803.3125
1352.44163	13417.5125
1355.92738	15841.4125
1359.41078	18857.2125
1362.89183	20726.6125
1366.37053	19138.6125
1369.84688	15606.7125
1373.32088	12471.5125
1376.79254	10436.2125
1380.26186	9243.9125
1383.72883	8408.5125
1387.19347	7621.3125
1390.65578	6898.5125
1394.11575	6447.8125
1397.57339	6278.6125
1401.0287	6273.7125
1404.48168	6370.8125
1407.93234	6492.8125
1411.38068	6569.8125
1414.82669	6558.8125
1418.27039	6374.1125
1421.71177	6160.5125
1425.15083	6045.1125
1428.58758	6160.9125
1432.02203	6429.7125
1435.45416	6677.7125
1438.88399	6745.5125
1442.31151	6705.6125
1445.73673	6665.6125
1449.15965	6651.1125
1452.58027	6511.2125
1455.9986	6251.7125
1459.41463	6203.9125
1462.82837	6408.3125
1466.23982	6765.2125
1469.64898	7158.6125
1473.05586	7469.7125
1476.46045	7729.0125
1479.86276	8011.7125
1483.26279	8263.9125
1486.66054	8502.5125
1490.05602	8763.9125
1493.44922	9114.7125
1496.84016	9722.4125
1500.22882	11027.1125
1503.61521	12963.9125
1506.99934	15123.5125
1510.38121	16897.0125
1513.76081	17173.3125
1517.13816	15433.1125
1520.51324	12528.4125
1523.88607	10105.6125
1527.25665	8773.3125
1530.62498	8198.5125
1533.99105	7967.0125
1537.35488	7853.6125
1540.71647	7764.0125
1544.07581	7688.7125
1547.4329	7557.6125
1550.78776	7321.9125
1554.14038	7082.3125
1557.49077	6894.8125
1560.83892	6896.7125
1564.18484	7165.0125
1567.52853	7672.7125
1570.86999	8145.4125
1574.20922	8400.1125
1577.54624	8290.6125
1580.88103	7538.0125
1584.2136	6592.0125
1587.54395	6146.4125
1590.87208	6405.9125
1594.19801	7249.2125
1597.52172	8491.6125
1600.84321	9344.9125
1604.16251	9158.6125
1607.47959	8049.4125
1610.79447	6686.8125
1614.10715	5513.7125
1617.41763	4753.9125
1620.7259	4315.4125
1624.03199	4155.1125
1627.33587	4174.4125
1630.63757	4373.8125
1633.93707	4842.6125
1637.23439	5676.3125
1640.52951	7051.5125
1643.82246	8993.2125
1647.11321	10973.2125
1650.40179	11892.1125
1653.68819	10873.1125
1656.97241	8509.1125
1660.25446	6245.6125
1663.53433	4787.6125
1666.81203	3932.3125
1670.08756	3479.6125
1673.36092	3207.8125
1676.63211	3019.7125
1679.90115	2911.5125
1683.16801	2827.7125
1686.43272	2756.7125
1689.69527	2725.9125
1692.95567	2678.3125
1696.2139	2672.0125
1699.46999	2663.6125
1702.72392	2654.6125
1705.97571	2640.2125
1709.22535	2562.0125
1712.47284	2589.2125
1715.71819	2608.8125
1718.96139	2603.1125
1722.20246	2581.6125
1725.44139	2550.5125
1728.67818	2510.1125
1731.91284	2461.2125
1735.14537	2416.7125
1738.37576	2329.9125
1741.60403	2347.1125
1744.83017	2333.2125
1748.05418	2308.8125
1751.27607	2309.0125
1754.49584	2298.5125
1757.71349	2295.7125
1760.92903	2292.4125
1764.14244	2264.5125
1767.35375	2265.2125
1770.56294	2240.6125
1773.77002	2218.3125
1776.97499	2194.6125
1780.17785	2174.6125
1783.37861	2149.2125
1786.57727	2144.8125
1789.77382	2123.9125
1792.96828	2125.7125
1796.16064	2127.2125
1799.3509	2112.9125
1802.53907	2094.2125
1805.72514	2086.5125
1808.90913	2074.9125
1812.09102	2068.6125
1815.27083	2048.5125
1818.44856	2037.0125
1821.6242	2025.5125
1824.79776	2012.8125
1827.96924	2001.8125
1831.13864	2003.9125
1834.30597	1998.2125
1837.47122	1978.9125
1840.6344	1973.9125
1843.7955	1980.7125
1846.95454	1967.5125
1850.11151	1959.9125
1853.26642	1967.7125
1856.41926	1956.5125
1859.57004	1965.6125
1862.71876	1951.9125
1865.86542	1953.3125
1869.01003	1963.5125
1872.15258	1950.7125
1875.29308	1944.4125
1878.43152	1943.7125
1881.56792	1950.3125
1884.70227	1945.4125
1887.83457	1955.7125
1890.96482	1950.2125
1894.09304	1940.2125
1897.21921	1941.4125
1900.34335	1944.3125
1903.46544	1939.0125
1906.58551	1951.0125
1909.70353	1950.2125
1912.81953	1943.9125
1915.93349	1947.5125
1919.04543	1929.0125
1922.15534	1914.6125
1925.26322	1915.7125
1928.36908	1903.4125
1931.47292	1893.7125
1934.57473	1882.7125
1937.67453	1872.7125
1940.77232	1854.9125
1943.86808	1836.6125
1946.96184	1829.1125
1950.05358	1825.9125
1953.14331	1821.3125
1956.23103	1816.2125
1959.31675	1811.4125
1962.40046	1801.8125
1965.48217	1801.6125
1968.56188	1805.2125
1971.63959	1800.6125
1974.7153	1798.3125
1977.78901	1787.7125
1980.86073	1781.4125
1983.93046	1767.6125
1986.99819	1755.0125
1990.06394	1749.4125
1993.1277	1737.8125
1996.18947	1725.0125
1999.24925	1726.5125
2002.30706	1705.2125
2005.36288	1687.5125
2008.41672	1694.0125
2011.46859	1676.2125
2014.51848	1683.5125
2017.56639	1672.2125
2020.61233	1660.6125
2023.6563	1662.9125
2026.6983	1648.3125
2029.73833	1630.1125
2032.7764	1632.4125
2035.8125	1631.2125
2038.84664	1621.4125
2041.87881	1623.0125
2044.90903	1626.8125
2047.93729	1611.3125
2050.96359	1608.6125
2053.98794	1606.0125
2057.01034	1608.6125
2060.03078	1600.5125
2063.04927	1626.0125
2066.06582	1589.8125
2069.08042	1590.5125
2072.09307	1570.6125
2075.10378	1571.1125
2078.11255	1575.2125
2081.11938	1568.5125
2084.12426	1565.2125
2087.12722	1569.1125
2090.12824	1559.4125
2093.12732	1564.2125
2096.12447	1564.2125
2099.11969	1559.4125
2102.11299	1549.5125
2105.10435	1559.0125
2108.09379	1548.4125
2111.08131	1557.5125
2114.0669	1556.6125
2117.05057	1550.5125
2120.03233	1547.1125
2123.01216	1555.9125
2125.99008	1566.1125
2128.96609	1552.9125
2131.94018	1553.4125
2134.91236	1548.6125
2137.88263	1539.6125
2140.851	1544.4125
2143.81746	1545.2125
2146.78201	1539.3125
2149.74466	1532.0125
2152.7054	1521.4125
2155.66425	1523.9125
2158.6212	1515.3125
2161.57625	1508.8125
2164.52941	1514.4125
2167.48067	1502.2125
2170.43004	1498.9125
2173.37752	1500.1125
2176.32311	1512.8125
2179.26681	1502.6125
2182.20863	1503.6125
2185.14856	1505.2125
2188.08661	1507.6125
2191.02278	1510.2125
2193.95707	1497.6125
2196.88948	1481.5125
2199.82001	1485.6125
2202.74867	1486.3125
2205.67545	1473.6125
2208.60037	1486.7125
2211.52341	1473.6125
2214.44458	1471.0125
2217.36388	1462.7125
2220.28132	1456.8125
2223.1969	1441.3125
2226.11061	1444.8125
2229.02246	1445.1125
2231.93245	1431.3125
2234.84058	1428.2125
2237.74686	1439.7125
2240.65128	1421.3125
2243.55385	1425.5125
2246.45456	1430.5125
2249.35343	1415.4125
2252.25044	1435.1125
2255.14561	1429.9125
2258.03893	1434.4125
2260.93041	1434.6125
2263.82004	1423.4125
2266.70783	1424.3125
2269.59378	1414.1125
2272.4779	1415.6125
2275.36017	1405.9125
2278.24061	1403.4125
2281.11922	1400.3125
2283.996	1396.6125
2286.87094	1384.9125
2289.74405	1379.6125
2292.61534	1369.9125
2295.4848	1375.3125
2298.35243	1362.4125
2301.21824	1364.5125
2304.08223	1359.1125
2306.94439	1357.1125
2309.80474	1355.9125
2312.66327	1362.1125
2315.51999	1355.1125
2318.37489	1358.1125
2321.22797	1353.4125
2324.07925	1346.6125
2326.92871	1349.0125
2329.77637	1347.1125
2332.62222	1343.2125
2335.46626	1349.9125
2338.3085	1345.5125
2341.14893	1347.0125
2343.98756	1345.6125
2346.8244	1342.8125
2349.65943	1352.4125
2352.49267	1361.9125
2355.32411	1356.0125
2358.15376	1367.2125
2360.98161	1378.6125
2363.80768	1387.1125
2366.63195	1396.8125
2369.45444	1407.9125
2372.27514	1405.0125
2375.09405	1414.9125
2377.91118	1410.3125
2380.72652	1393.6125
2383.54009	1379.2125
2386.35187	1365.2125
2389.16188	1349.8125
2391.97011	1332.0125
2394.77657	1327.3125
2397.58125	1322.3125
2400.38416	1312.4125
2403.18529	1305.6125
2405.98466	1299.2125
2408.78226	1293.3125
2411.57809	1294.9125
2414.37216	1288.6125
2417.16446	1293.5125
2419.955	1292.6125
2422.74378	1291.7125
2425.5308	1289.8125
2428.31606	1285.5125
2431.09956	1291.2125
2433.88131	1290.7125
2436.6613	1299.1125
2439.43954	1304.4125
2442.21603	1311.6125
2444.99077	1299.3125
2447.76377	1307.5125
2450.53501	1313.7125
2453.30451	1319.3125
2456.07226	1319.9125
2458.83827	1317.4125
2461.60254	1323.7125
2464.36507	1315.9125
2467.12586	1313.4125
2469.88492	1319.6125
2472.64224	1314.9125
2475.39782	1325.7125
2478.15167	1345.4125
2480.90379	1342.6125
2483.65417	1357.9125
2486.40283	1375.9125
2489.14976	1379.1125
2491.89497	1387.3125
2494.63845	1395.1125
2497.3802	1382.4125
2500.12024	1384.4125
2502.85855	1380.5125
2505.59514	1365.0125
2508.33002	1334.1125
2511.06318	1330.1125
2513.79462	1305.8125
2516.52435	1301.9125
2519.25237	1292.7125
2521.97867	1286.3125
2524.70327	1274.6125
2527.42616	1279.7125
2530.14734	1276.2125
2532.86681	1271.9125
2535.58458	1271.7125
2538.30065	1283.1125
2541.01501	1273.4125
2543.72768	1283.6125
2546.43864	1287.2125
2549.14791	1296.6125
2551.85548	1288.6125
2554.56136	1288.3125
2557.26554	1293.6125
2559.96803	1290.6125
2562.66883	1289.3125
2565.36794	1289.1125
2568.06536	1294.5125
2570.7611	1289.1125
2573.45514	1286.5125
2576.14751	1281.1125
2578.83819	1274.4125
2581.52719	1277.3125
2584.21451	1267.8125
2586.90015	1268.3125
2589.58411	1261.2125
2592.2664	1267.5125
2594.94701	1267.1125
2597.62594	1275.0125
2600.30321	1265.6125
2602.9788	1274.4125
2605.65273	1279.4125
2608.32498	1267.1125
2610.99557	1273.5125
2613.66449	1281.9125
2616.33175	1273.9125
2618.99734	1286.6125
2621.66128	1273.4125
2624.32355	1278.6125
2626.98416	1266.0125
2629.64311	1270.1125
2632.30041	1262.7125
2634.95605	1258.5125
2637.61004	1255.8125
2640.26238	1259.2125
2642.91306	1249.9125
2645.56209	1246.3125
2648.20948	1251.4125
2650.85521	1255.8125
2653.4993	1266.1125
2656.14175	1264.4125
2658.78255	1280.4125
2661.42171	1284.0125
2664.05923	1271.8125
2666.6951	1289.1125
2669.32934	1294.6125
2671.96194	1293.3125
2674.59291	1304.7125
2677.22224	1308.5125
2679.84993	1292.1125
2682.476	1299.1125
2685.10043	1302.9125
2687.72324	1302.8125
2690.34441	1300.9125
2692.96396	1301.7125
2695.58188	1310.9125
2698.19818	1316.0125
2700.81285	1305.2125
2703.4259	1319.1125
2706.03733	1330.1125
2708.64714	1336.2125
2711.25533	1337.2125
2713.86191	1336.8125
2716.46687	1346.8125
2719.07021	1352.0125
2721.67194	1352.4125
2724.27206	1345.4125
2726.87057	1350.1125
2729.46747	1360.2125
2732.06276	1353.5125
2734.65644	1343.1125
2737.24852	1338.2125
2739.83899	1335.1125
2742.42786	1334.7125
2745.01513	1333.7125
2747.60079	1325.9125
2750.18486	1330.1125
2752.76733	1316.8125
2755.3482	1311.2125
2757.92747	1320.2125
2760.50515	1315.6125
2763.08123	1315.5125
2765.65573	1316.9125
2768.22863	1317.8125
2770.79994	1325.0125
2773.36967	1335.7125
2775.9378	1334.6125
2778.50435	1340.9125
2781.06932	1352.3125
2783.6327	1357.6125
2786.1945	1371.1125
2788.75471	1377.6125
2791.31335	1378.7125
2793.87041	1387.8125
2796.42589	1394.0125
2798.97979	1414.2125
2801.53212	1409.7125
2804.08288	1414.3125
2806.63206	1424.9125
2809.17967	1431.9125
2811.72571	1447.6125
2814.27018	1446.1125
2816.81308	1471.3125
2819.35442	1475.3125
2821.89419	1482.4125
2824.43239	1487.2125
2826.96904	1497.7125
2829.50412	1500.7125
2832.03763	1505.0125
2834.56959	1521.0125
2837.1	1537.6125
2839.62884	1550.5125
2842.15613	1580.5125
2844.68186	1613.2125
2847.20604	1651.7125
2849.72867	1697.3125
2852.24974	1705.1125
2854.76927	1701.3125
2857.28724	1715.6125
2859.80367	1697.3125
2862.31855	1702.2125
2864.83189	1684.4125
2867.34368	1685.0125
2869.85393	1685.9125
2872.36264	1670.8125
2874.8698	1671.0125
2877.37543	1660.1125
2879.87952	1645.6125
2882.38207	1640.7125
2884.88308	1635.6125
2887.38256	1639.2125
2889.88051	1630.1125
2892.37692	1637.8125
2894.8718	1634.4125
2897.36515	1635.8125
2899.85698	1650.6125
2902.34727	1646.9125
2904.83604	1647.9125
2907.32328	1652.2125
2909.809	1649.6125
2912.29319	1642.6125
2914.77587	1630.0125
2917.25702	1629.3125
2919.73665	1620.5125
2922.21476	1615.1125
2924.69136	1603.5125
2927.16644	1597.3125
2929.64	1594.5125
2932.11205	1582.2125
2934.58258	1559.5125
2937.05161	1543.1125
2939.51912	1528.2125
2941.98513	1512.0125
2944.44962	1473.4125
2946.91261	1450.3125
2949.37409	1429.6125
2951.83407	1409.7125
2954.29254	1399.9125
2956.74951	1385.2125
2959.20498	1376.7125
2961.65895	1383.2125
2964.11142	1368.6125
2966.56239	1362.7125
2969.01186	1342.0125
2971.45984	1334.8125
2973.90632	1324.1125
2976.35131	1319.5125
2978.7948	1310.4125
2981.23681	1300.7125
2983.67732	1290.1125
2986.11635	1286.0125
2988.55388	1272.3125
2990.98993	1268.7125
2993.4245	1264.6125
2995.85758	1252.6125
2998.28917	1249.9125
3000.71928	1247.4125
3003.14791	1246.0125
3005.57506	1238.5125
3008.00073	1247.0125
3010.42493	1246.8125
3012.84764	1239.4125
3015.26888	1246.3125
3017.68865	1236.3125
3020.10694	1240.6125
3022.52376	1230.0125
3024.9391	1223.0125
3027.35298	1228.6125
3029.76539	1223.0125
3032.17632	1217.9125
3034.5858	1217.2125
3036.9938	1209.9125
3039.40034	1212.1125
3041.80542	1205.0125
3044.20903	1204.7125
3046.61118	1202.9125
3049.01187	1202.0125
3051.4111	1201.5125
3053.80888	1199.1125
3056.20519	1199.1125
3058.60005	1192.6125
3060.99345	1197.2125
3063.3854	1199.6125
3065.7759	1196.1125
3068.16494	1190.0125
3070.55254	1196.6125
3072.93868	1186.5125
3075.32338	1185.6125
3077.70662	1186.7125
3080.08842	1168.4125
3082.46878	1169.4125
3084.84769	1161.2125
3087.22515	1162.6125
3089.60118	1160.7125
3091.97576	1156.2125
3094.3489	1155.6125
3096.72061	1163.1125
3099.09087	1156.3125
3101.4597	1148.4125
3103.82709	1158.6125
3106.19305	1146.8125
3108.55757	1157.4125
3110.92066	1148.7125
3113.28232	1155.2125
3115.64255	1152.8125
3118.00134	1156.8125
3120.35871	1159.3125
