Data from AgNPs_FTO_APTES_UA_20uM_CRN_20uM_R6G_10uM_NaF_0.1M_Addition_RamanShift__5__14-55-52-239.txt Node

Date: Thu Feb 17 14:55:52 GMT 2022
User: TCL
Spectrometer: QEP01345
Trigger mode: 4
Integration Time (sec): 7.000000E0
Scans to average: 10
Electric dark correction enabled: true
Nonlinearity correction enabled: false
Boxcar width: 0
XAxis mode: Raman Shifts
Number of Pixels in Spectrum: 1044
>>>>>Begin Spectral Data<<<<<
46.04893	-0.3
50.45542	-0.8
54.85868	-3.5
59.25871	-1.9
63.6555	123.6
68.04907	124.5
72.43941	132.4
76.82654	134
81.21044	137.9
85.59113	140.4
89.96862	145.3
94.34289	152.1
98.71396	155
103.08183	162.8
107.4465	164.1
111.80798	165.9
116.16626	172.3
120.52136	182
124.87327	187.7
129.222	201.1
133.56755	219.4
137.90993	232.8
142.24913	257.6
146.58517	291.5
150.91804	350.6
155.24774	412.4
159.57429	520.7
163.89768	680.8
168.21792	909.5
172.53501	1252.1
176.84895	1765.7
181.15975	2499.1
185.46741	3518.9
189.77193	4878.1
194.07331	6549.6
198.37157	8472
202.6667	10456.9
206.9587	12474.9
211.24758	14392.4
215.53334	16373.1
219.81599	18411.9
224.09553	20632
228.37195	23140
232.64527	25855.1
236.91549	28839.4
241.18261	31812.2
245.44663	34641.2
249.70755	37169.3
253.96539	39434.1
258.22014	41320
262.4718	42853.1
266.72039	43947.8
270.96589	44545.1
275.20832	44606.2
279.44768	44404.5
283.68397	43955.2
287.91719	43614.6
292.14735	43397.4
296.37445	43343.9
300.59849	43422.2
304.81948	43630
309.03742	43637.1
313.25231	43494.6
317.46415	43051.6
321.67296	42398.2
325.87872	41834.8
330.08145	41553.4
334.28114	41524.8
338.47781	41875.8
342.67145	42345.9
346.86207	43000.3
351.04966	43725.9
355.23424	44466.3
359.4158	45002.8
363.59435	45491.1
367.76989	45919.5
371.94243	46211.9
376.11196	46439.3
380.27849	46756.6
384.44203	47023.5
388.60257	47419.5
392.76012	47789.3
396.91468	48311.7
401.06626	48841.7
405.21485	49188.7
409.36047	49197.6
413.50311	48769.7
417.64277	48494.2
421.77947	48413.8
425.9132	48531.1
430.04396	48806.5
434.17176	49117.4
438.2966	49601.9
442.41849	50412.1
446.53742	51749.8
450.6534	53079.9
454.76644	54095.1
458.87653	54487
462.98368	54126.7
467.08789	53488
471.18916	52746.9
475.2875	51905.6
479.38291	51441.3
483.4754	50969.4
487.56496	50582.8
491.6516	50089.2
495.73531	49625.8
499.81612	49493.1
503.89401	49688.8
507.96899	49932.7
512.04106	49972.8
516.11023	49792.4
520.1765	49702.2
524.23987	49504.5
528.30034	49381.4
532.35792	49199.5
536.41261	48872.6
540.46441	48413.7
544.51333	48433.2
548.55936	48810
552.60252	49653.6
556.64279	50592.6
560.6802	51276.7
564.71473	51579.3
568.7464	52015.8
572.7752	53082.8
576.80114	54115.4
580.82422	55224.3
584.84444	56424.9
588.86181	58117.8
592.87633	59618.9
596.888	59664
600.89682	58231
604.9028	58243.1
608.90594	61092.5
612.90624	64293.6
616.90371	61310.4
620.89834	54150.9
624.89015	50997.5
628.87913	50554.4
632.86528	50653.1
636.84862	50561.3
640.82913	50136.7
644.80683	49293.1
648.78172	48642
652.75379	48652.9
656.72306	49174
660.68952	49865.2
664.65319	49600.7
668.61405	49076.1
672.57211	49017.9
676.52738	49195.2
680.47986	49228.3
684.42955	48970.1
688.37646	48860.2
692.32058	49221
696.26192	49709.1
700.20048	50354
704.13626	50654.3
708.06928	50620.5
711.99952	50405.5
715.927	50339.2
719.85171	50423.1
723.77365	50445.9
727.69284	50023.8
731.60928	49572.3
735.52295	49419.5
739.43388	49472.3
743.34206	49573.1
747.24749	49737.5
751.15017	50124.8
755.05012	50745.5
758.94733	51769.7
762.8418	53627.8
766.73354	56420.8
770.62254	59098
774.50882	59676.1
778.39237	57753.8
782.27321	54747.4
786.15132	52232.1
790.02671	50749
793.89938	49908.3
797.76935	49601.3
801.6366	49445.8
805.50115	49388.1
809.36299	49205.9
813.22213	48998.9
817.07857	48906.6
820.93231	48847.3
824.78336	48815.1
828.63172	48701
832.47738	48682.4
836.32036	48757.7
840.16066	48880.2
843.99827	49021.1
847.8332	49033.9
851.66546	48994
855.49504	49105.4
859.32195	49145.9
863.1462	49113.4
866.96777	48991.3
870.78668	48900.8
874.60293	48965.7
878.41652	49047.8
882.22745	49166.8
886.03573	49280.1
889.84136	49227.6
893.64433	49039.8
897.44466	48830
901.24235	48715.1
905.0374	48656.8
908.8298	48664.9
912.61957	48673.5
916.40671	49040.6
920.19121	49600.8
923.97308	49933.2
927.75233	49869.7
931.52895	49541
935.30295	48998.8
939.07433	48578.2
942.84309	48224.8
946.60924	48013.6
950.37278	48018.4
954.13371	47992.7
957.89203	47847.6
961.64774	47825.7
965.40086	47704.8
969.15137	47693.3
972.89929	47632.3
976.64461	47577.2
980.38733	47574.9
984.12747	47734.1
987.86502	48076.5
991.59999	48410.8
995.33237	48972.1
999.06217	49688.4
1002.78939	50678.9
1006.51404	51492
1010.23611	52183.8
1013.95561	52696.3
1017.67255	52747.2
1021.38692	52420.6
1025.09872	51827
1028.80796	51468.6
1032.51465	51898.2
1036.21877	52473.7
1039.92035	52696.8
1043.61937	52502.9
1047.31584	52040.2
1051.00976	51520.6
1054.70114	51255.8
1058.38998	51225.5
1062.07627	51460.4
1065.76003	51836.7
1069.44126	52149.7
1073.11995	52868.3
1076.79611	53372.6
1080.46974	53715.4
1084.14085	54059.3
1087.80943	54414.4
1091.47549	54803.8
1095.13903	54753.8
1098.80005	54230.9
1102.45857	53517.9
1106.11456	52994.7
1109.76805	52877.7
1113.41903	53028.6
1117.06751	53277.7
1120.71348	53516.8
1124.35696	53907.1
1127.99793	54245.7
1131.63641	54376.1
1135.2724	54165.4
1138.90589	54001.2
1142.5369	53994.4
1146.16542	54135.7
1149.79145	54366.6
1153.415	54645.8
1157.03607	55221.1
1160.65467	56279.1
1164.27079	58080.8
1167.88443	60211.3
1171.49561	62759.4
1175.10432	66044.3
1178.71056	70127.2
1182.31434	73920.4
1185.91565	75698.7
1189.51451	75244.4
1193.11091	73569.5
1196.70485	71455.3
1200.29634	69436.8
1203.88538	67984.6
1207.47197	67193.5
1211.05612	66239.4
1214.63782	65154.4
1218.21708	64074.1
1221.79391	63242.6
1225.36829	62746.2
1228.94024	62234.9
1232.50976	61221.8
1236.07685	60264.6
1239.6415	59722.9
1243.20374	59734.5
1246.76355	60192.7
1250.32093	60998.3
1253.8759	61998.7
1257.42845	63242.7
1260.97859	64541.5
1264.52631	65904.4
1268.07163	67396.3
1271.61453	68862.3
1275.15503	70380.7
1278.69312	71914.7
1282.22882	73191.4
1285.76211	74690.2
1289.29301	76625.7
1292.82151	79041.4
1296.34761	82281.6
1299.87133	86226
1303.39266	90750.3
1306.9116	95152.7
1310.42815	98888.2
1313.94233	100925.9
1317.45412	100670.2
1320.96354	98952
1324.47058	97103
1327.97525	95443.8
1331.47754	93944
1334.97747	92987
1338.47502	92462.2
1341.97022	91971.7
1345.46305	91560.7
1348.95352	91087.6
1352.44163	91214.6
1355.92738	92650.7
1359.41078	95837.5
1362.89183	98359.9
1366.37053	96666.6
1369.84688	90121.6
1373.32088	81998.5
1376.79254	76448.9
1380.26186	74244
1383.72883	74243.8
1387.19347	74594.2
1390.65578	74105
1394.11575	73689.2
1397.57339	73959.6
1401.0287	74804.5
1404.48168	75625
1407.93234	75715.1
1411.38068	74864.1
1414.82669	73166
1418.27039	71086.7
1421.71177	68908.3
1425.15083	67018.4
1428.58758	66265.5
1432.02203	66677.5
1435.45416	67991.7
1438.88399	69680.6
1442.31151	70987.4
1445.73673	71544.1
1449.15965	71894.9
1452.58027	71963.1
1455.9986	71696.2
1459.41463	71851.9
1462.82837	72639.9
1466.23982	73950
1469.64898	75134
1473.05586	76133.4
1476.46045	76476.5
1479.86276	76070.6
1483.26279	75350.8
1486.66054	74898.7
1490.05602	75096
1493.44922	75709.8
1496.84016	76312.6
1500.22882	77502.5
1503.61521	79403.9
1506.99934	81775.7
1510.38121	83361.3
1513.76081	83294.8
1517.13816	81531.4
1520.51324	79051.3
1523.88607	77364.1
1527.25665	76666.8
1530.62498	76788
1533.99105	76877.7
1537.35488	76583.6
1540.71647	75501.4
1544.07581	74139.9
1547.4329	72541.8
1550.78776	71266.8
1554.14038	70239.4
1557.49077	69610.3
1560.83892	69235.8
1564.18484	69246.3
1567.52853	69322.3
1570.86999	69858.8
1574.20922	70805.8
1577.54624	71352.8
1580.88103	71291.1
1584.2136	71516.6
1587.54395	73052.6
1590.87208	76144.8
1594.19801	80350.7
1597.52172	84512
1600.84321	85893.5
1604.16251	83040.5
1607.47959	77929.1
1610.79447	72431.9
1614.10715	67381.6
1617.41763	63340.4
1620.7259	60567.2
1624.03199	59130.1
1627.33587	59149.7
1630.63757	60360.8
1633.93707	63189.2
1637.23439	68119.3
1640.52951	75211.6
1643.82246	83259.8
1647.11321	89288.2
1650.40179	89864.5
1653.68819	83989.7
1656.97241	74630.6
1660.25446	65811.7
1663.53433	59478.8
1666.81203	55469.7
1670.08756	52970.5
1673.36092	51337.1
1676.63211	50337.8
1679.90115	49540.9
1683.16801	48901.8
1686.43272	48411.3
1689.69527	48134.8
1692.95567	47894.6
1696.2139	47751
1699.46999	47670.8
1702.72392	47595.8
1705.97571	47478.9
1709.22535	47315.4
1712.47284	47422.4
1715.71819	47394.5
1718.96139	47323.2
1722.20246	47196.9
1725.44139	46947.8
1728.67818	46766.5
1731.91284	46465.7
1735.14537	46376.6
1738.37576	46249.1
1741.60403	46123.5
1744.83017	46118.8
1748.05418	45904.6
1751.27607	45761.2
1754.49584	45726.7
1757.71349	45863.9
1760.92903	45762.6
1764.14244	45713.6
1767.35375	45666.7
1770.56294	45598.9
1773.77002	45550.1
1776.97499	45525.6
1780.17785	45371.4
1783.37861	45360.7
1786.57727	45338.6
1789.77382	45279.1
1792.96828	45261.9
1796.16064	45087.3
1799.3509	45039.7
1802.53907	44924.5
1805.72514	44819.7
1808.90913	44746.2
1812.09102	44681.2
1815.27083	44646.4
1818.44856	44598.6
1821.6242	44495.6
1824.79776	44472.1
1827.96924	44447.8
1831.13864	44465.9
1834.30597	44502.7
1837.47122	44428.7
1840.6344	44365.2
1843.7955	44390.8
1846.95454	44361.6
1850.11151	44344.3
1853.26642	44269.7
1856.41926	44248.3
1859.57004	44214
1862.71876	44201.2
1865.86542	44118.2
1869.01003	44119.4
1872.15258	44108.4
1875.29308	44111.4
1878.43152	44002.4
1881.56792	44021.8
1884.70227	43905.4
1887.83457	43864.8
1890.96482	43852.5
1894.09304	43837.7
1897.21921	43832
1900.34335	43790.5
1903.46544	43735.5
1906.58551	43669.8
1909.70353	43662.6
1912.81953	43585.8
1915.93349	43534.2
1919.04543	43407.7
1922.15534	43424.6
1925.26322	43298.8
1928.36908	43194.4
1931.47292	43198
1934.57473	43140.6
1937.67453	43040.6
1940.77232	42928.8
1943.86808	42809.5
1946.96184	42730.2
1950.05358	42698.3
1953.14331	42589.3
1956.23103	42476.2
1959.31675	42357.2
1962.40046	42223.5
1965.48217	42125.4
1968.56188	42003.3
1971.63959	41933.7
1974.7153	41745.9
1977.78901	41640.1
1980.86073	41560
1983.93046	41445
1986.99819	41326.5
1990.06394	41277.3
1993.1277	41230.4
1996.18947	41003.9
1999.24925	40921.7
2002.30706	40829.8
2005.36288	40739.6
2008.41672	40538.6
2011.46859	40468.8
2014.51848	40401.6
2017.56639	40274.1
2020.61233	40129.5
2023.6563	40078.6
2026.6983	40037.6
2029.73833	39956.1
2032.7764	39941.2
2035.8125	39875.9
2038.84664	39735.7
2041.87881	39649.2
2044.90903	39602.3
2047.93729	39501.3
2050.96359	39504.5
2053.98794	39499.6
2057.01034	39491.4
2060.03078	39485.1
2063.04927	39461.7
2066.06582	39390.5
2069.08042	39433.9
2072.09307	39390.6
2075.10378	39334.3
2078.11255	39285.2
2081.11938	39316.8
2084.12426	39260.9
2087.12722	39274.9
2090.12824	39276.9
2093.12732	39257.3
2096.12447	39331.4
2099.11969	39352.7
2102.11299	39387
2105.10435	39367.3
2108.09379	39425.4
2111.08131	39467.9
2114.0669	39466.8
2117.05057	39541
2120.03233	39569.3
2123.01216	39604.9
2125.99008	39641.2
2128.96609	39606.5
2131.94018	39635.3
2134.91236	39665.9
2137.88263	39712.9
2140.851	39721.7
2143.81746	39806
2146.78201	39736.6
2149.74466	39815.4
2152.7054	39785.7
2155.66425	39779.5
2158.6212	39759.3
2161.57625	39810.6
2164.52941	39802
2167.48067	39718.6
2170.43004	39727.7
2173.37752	39745.3
2176.32311	39786.3
2179.26681	39826.9
2182.20863	39868.3
2185.14856	39834.4
2188.08661	39778.2
2191.02278	39803
2193.95707	39804.2
2196.88948	39766.5
2199.82001	39754.9
2202.74867	39686.8
2205.67545	39685.5
2208.60037	39636.3
2211.52341	39596.6
2214.44458	39552.4
2217.36388	39542.5
2220.28132	39420.3
2223.1969	39348.4
2226.11061	39360.7
2229.02246	39207.3
2231.93245	39229
2234.84058	39155.1
2237.74686	39100
2240.65128	39024.3
2243.55385	39016.5
2246.45456	38981.1
2249.35343	38954.4
2252.25044	38872.2
2255.14561	38803.5
2258.03893	38761.1
2260.93041	38682.7
2263.82004	38649.4
2266.70783	38550.4
2269.59378	38410
2272.4779	38418.4
2275.36017	38307.5
2278.24061	38202.8
2281.11922	38144.2
2283.996	38124.2
2286.87094	38087
2289.74405	38010.4
2292.61534	38075.6
2295.4848	38063.6
2298.35243	38072.5
2301.21824	38001.5
2304.08223	37980.2
2306.94439	37990.1
2309.80474	38007.8
2312.66327	38015.6
2315.51999	37930.6
2318.37489	37930.9
2321.22797	37894.6
2324.07925	37862.8
2326.92871	37775.4
2329.77637	37730.4
2332.62222	37656.6
2335.46626	37713.1
2338.3085	37660.1
2341.14893	37702.6
2343.98756	37685.3
2346.8244	37678.9
2349.65943	37610.6
2352.49267	37594.1
2355.32411	37612.3
2358.15376	37626.8
2360.98161	37572.9
2363.80768	37512.4
2366.63195	37461.2
2369.45444	37441.7
2372.27514	37393.5
2375.09405	37325.7
2377.91118	37264.2
2380.72652	37182.6
2383.54009	37134.9
2386.35187	37149.3
2389.16188	37020.6
2391.97011	36951.8
2394.77657	36864.7
2397.58125	36842.1
2400.38416	36797.9
2403.18529	36724.3
2405.98466	36677.8
2408.78226	36670.5
2411.57809	36569.7
2414.37216	36585.3
2417.16446	36549.7
2419.955	36494.9
2422.74378	36558.4
2425.5308	36480.2
2428.31606	36478.6
2431.09956	36418.4
2433.88131	36394.2
2436.6613	36440.2
2439.43954	36474.7
2442.21603	36429.2
2444.99077	36342.5
2447.76377	36344.5
2450.53501	36345.3
2453.30451	36338.2
2456.07226	36233.8
2458.83827	36275
2461.60254	36250.4
2464.36507	36186.8
2467.12586	36201.8
2469.88492	36169.2
2472.64224	36199.6
2475.39782	36200.8
2478.15167	36243.4
2480.90379	36291.7
2483.65417	36313.5
2486.40283	36274.4
2489.14976	36229.8
2491.89497	36228.4
2494.63845	36235.4
2497.3802	36197.8
2500.12024	36206.5
2502.85855	36122
2505.59514	36182
2508.33002	36156.5
2511.06318	36103.4
2513.79462	36059
2516.52435	35995.1
2519.25237	35948.2
2521.97867	35919
2524.70327	35972.5
2527.42616	35909.7
2530.14734	35855.7
2532.86681	35836
2535.58458	35883
2538.30065	35802.5
2541.01501	35780.6
2543.72768	35741.5
2546.43864	35728.8
2549.14791	35675.6
2551.85548	35617.9
2554.56136	35587.8
2557.26554	35566.7
2559.96803	35492.4
2562.66883	35464
2565.36794	35393.4
2568.06536	35445
2570.7611	35369.1
2573.45514	35362.9
2576.14751	35315.8
2578.83819	35315.6
2581.52719	35250.7
2584.21451	35222.1
2586.90015	35215.2
2589.58411	35067.5
2592.2664	35077.8
2594.94701	35015.8
2597.62594	35046.4
2600.30321	34995.9
2602.9788	35008
2605.65273	34920.9
2608.32498	34939.4
2610.99557	34897.7
2613.66449	34952.7
2616.33175	34927.7
2618.99734	34970.7
2621.66128	34905.9
2624.32355	34847.5
2626.98416	34780.9
2629.64311	34760.1
2632.30041	34723.4
2634.95605	34684.7
2637.61004	34703
2640.26238	34670.7
2642.91306	34678
2645.56209	34649.2
2648.20948	34656.1
2650.85521	34644.4
2653.4993	34644.8
2656.14175	34631.6
2658.78255	34655.9
2661.42171	34676.1
2664.05923	34674.4
2666.6951	34620.9
2669.32934	34691.6
2671.96194	34650.1
2674.59291	34677.4
2677.22224	34658.7
2679.84993	34666.1
2682.476	34652.8
2685.10043	34653.1
2687.72324	34622.3
2690.34441	34565.4
2692.96396	34562.1
2695.58188	34604.8
2698.19818	34558
2700.81285	34582.4
2703.4259	34537.1
2706.03733	34623.3
2708.64714	34636.3
2711.25533	34583.8
2713.86191	34621.4
2716.46687	34727.3
2719.07021	34733
2721.67194	34828.9
2724.27206	34796.6
2726.87057	34767.5
2729.46747	34858.6
2732.06276	34876.1
2734.65644	34801.5
2737.24852	34794.4
2739.83899	34693.7
2742.42786	34778
2745.01513	34739.7
2747.60079	34725.8
2750.18486	34645.1
2752.76733	34601.7
2755.3482	34565.9
2757.92747	34546.9
2760.50515	34491.9
2763.08123	34540.8
2765.65573	34428.2
2768.22863	34467.6
2770.79994	34398.1
2773.36967	34426.1
2775.9378	34398.2
2778.50435	34426.9
2781.06932	34375.2
2783.6327	34346.3
2786.1945	34287
2788.75471	34317
2791.31335	34253
2793.87041	34208
2796.42589	34104.3
2798.97979	34065.6
2801.53212	33954.7
2804.08288	33905.8
2806.63206	33830.9
2809.17967	33781.2
2811.72571	33671.1
2814.27018	33631.6
2816.81308	33549
2819.35442	33532.5
2821.89419	33483.8
2824.43239	33479.2
2826.96904	33445.5
2829.50412	33433.5
2832.03763	33339.4
2834.56959	33297.2
2837.1	33255.2
2839.62884	33254.5
2842.15613	33194
2844.68186	33245.8
2847.20604	33205.9
2849.72867	33139.8
2852.24974	33086.3
2854.76927	33067.6
2857.28724	33061.9
2859.80367	33024.3
2862.31855	32955.7
2864.83189	32954.4
2867.34368	32929.4
2869.85393	32936.9
2872.36264	32877.5
2874.8698	32859.2
2877.37543	32841.2
2879.87952	32848.5
2882.38207	32797.1
2884.88308	32774.2
2887.38256	32728.9
2889.88051	32779.7
2892.37692	32800
2894.8718	32822.5
2897.36515	32857.9
2899.85698	32832.7
2902.34727	32863.7
2904.83604	32860.5
2907.32328	32997.6
2909.809	33001.7
2912.29319	33011.3
2914.77587	33003.8
2917.25702	33006.3
2919.73665	32991.8
2922.21476	33017.3
2924.69136	32929.6
2927.16644	32920.8
2929.64	32887.2
2932.11205	32847.5
2934.58258	32756.7
2937.05161	32760.9
2939.51912	32790.1
2941.98513	32795.1
2944.44962	32754.4
2946.91261	32698.3
2949.37409	32759.2
2951.83407	32748.5
2954.29254	32663.7
2956.74951	32705.3
2959.20498	32739.6
2961.65895	32667.7
2964.11142	32644.1
2966.56239	32650.8
2969.01186	32645.6
2971.45984	32556.5
2973.90632	32527.3
2976.35131	32477
2978.7948	32449
2981.23681	32394.7
2983.67732	32359.1
2986.11635	32313.2
2988.55388	32208.8
2990.98993	32162.2
2993.4245	32052.7
2995.85758	31990.5
2998.28917	31903.1
3000.71928	31886.4
3003.14791	31836.1
3005.57506	31756.9
3008.00073	31690
3010.42493	31659.6
3012.84764	31592.5
3015.26888	31602.7
3017.68865	31557
3020.10694	31516.9
3022.52376	31421.6
3024.9391	31400
3027.35298	31368.6
3029.76539	31315.5
3032.17632	31348.9
3034.5858	31287.7
3036.9938	31263.8
3039.40034	31243.6
3041.80542	31283.8
3044.20903	31188.9
3046.61118	31163.3
3049.01187	31084.3
3051.4111	31033.6
3053.80888	30978.2
3056.20519	30942.6
3058.60005	30896.3
3060.99345	30891.2
3063.3854	30800.5
3065.7759	30667.6
3068.16494	30622.9
3070.55254	30503.7
3072.93868	30415.1
3075.32338	30375.9
3077.70662	30308.4
3080.08842	30236.7
3082.46878	30221.4
3084.84769	30167.6
3087.22515	30148.3
3089.60118	30150.1
3091.97576	30140.1
3094.3489	30081.6
3096.72061	30093.1
3099.09087	30142.9
3101.4597	30134.1
3103.82709	30097
3106.19305	30059.2
3108.55757	30053.1
3110.92066	29942.7
3113.28232	29899.3
3115.64255	29837.5
3118.00134	29773.6
3120.35871	29738.1
3122.71466	29647.4
3125.06917	29626
3127.42226	29504.8
3129.77393	29515.2
3132.12417	29436.1
3134.47299	29397
3136.82039	29351.7
3139.16636	29378.3
3141.51092	29311.9
3143.85406	29302.6
3146.19579	29322.2
3148.53609	29362.3
3150.87499	29350.7
3153.21246	29323.8
3155.54853	29409.7
3157.88318	29363
3160.21642	29397.5
3162.54826	29405.6
3164.87868	29348.6
3167.2077	29389.8
3169.5353	29404.2
3171.86151	29370.6
3174.18631	29282.6
3176.5097	29272.7
3178.83169	29226.9
3181.15228	29182.4
3183.47147	29086.2
3185.78926	29106.6
3188.10565	29066.5
3190.42065	29045.5
3192.73424	29013.4
3195.04645	28887.7
3197.35725	28973.3
3199.66667	28948.8
3201.97469	29006.4
3204.28132	28954.5
3206.58656	28974.1
3208.8904	29007.5
3211.19287	28912.1
3213.49394	28943
3215.79363	28924.8
3218.09193	28944.3
3220.38884	28960.4
3222.68438	29005.5
3224.97853	28990
3227.2713	29007.8
3229.56269	28948.1
3231.8527	28922.2
3234.14133	28819.9
3236.42858	28755.9
3238.71446	28739.1
3240.99896	28688.4
3243.28209	28654.5
3245.56384	28585.9
3247.84423	28629.7
3250.12324	28561.8
3252.40088	28497.7
3254.67715	28463.7
3256.95205	28447
3259.22558	28455.3
3261.49775	28420.7
3263.76855	28339.3
3266.03799	28291.3
3268.30606	28275.5
3270.57277	28229.8
3272.83812	28162.6
3275.10211	28111.6
3277.36474	28065.8
3279.62601	28034.1
3281.88593	28061.4
3284.14448	28059.7
3286.40168	28109.5
3288.65753	28056.1
3290.91202	28042.2
3293.16516	27994.5
3295.41695	27941.2
3297.66738	27760.1
3299.91647	27601.4
3302.16421	27475.5
3304.4106	27288.2
3306.65564	27145.3
3308.89933	26953.4
3311.14169	26798.8
3313.38269	26560.9
3315.62236	26405
3317.86068	26198.3
3320.09766	26001
3322.3333	25814
3324.5676	25754.1
3326.80056	25319
3329.03219	25180
3331.26248	6.5
3333.49143	1
3335.71905	-0.4
