Data from AgNPs_FTO_APTES_UA_20uM_CRN_2uM_R6G_10uM_NaF_0.1M_Addition_RamanShift__2__12-42-52-064.txt Node

Date: Thu Feb 17 12:42:52 GMT 2022
User: TCL
Spectrometer: QEP01345
Trigger mode: 4
Integration Time (sec): 7.000000E0
Scans to average: 10
Electric dark correction enabled: true
Nonlinearity correction enabled: false
Boxcar width: 0
XAxis mode: Raman Shifts
Number of Pixels in Spectrum: 1044
>>>>>Begin Spectral Data<<<<<
46.04893	-0.8
50.45542	-0.2
54.85868	-3.6
59.25871	-1.1
63.6555	123.3
68.04907	125
72.43941	129.5
76.82654	128.5
81.21044	136.5
85.59113	138.9
89.96862	144.4
94.34289	145
98.71396	152.1
103.08183	157.3
107.4465	159.5
111.80798	165.2
116.16626	171.9
120.52136	183.4
124.87327	186.5
129.222	199.2
133.56755	215
137.90993	228.5
142.24913	250.7
146.58517	290.9
150.91804	343.2
155.24774	409.4
159.57429	511.9
163.89768	670.8
168.21792	892.8
172.53501	1231
176.84895	1728.1
181.15975	2448.3
185.46741	3446.2
189.77193	4750
194.07331	6397.4
198.37157	8229.3
202.6667	10164.5
206.9587	12105.4
211.24758	14032.2
215.53334	15903
219.81599	17942.7
224.09553	20179.7
228.37195	22649.6
232.64527	25378.3
236.91549	28180.4
241.18261	31077.9
245.44663	33736.9
249.70755	36093.9
253.96539	38269.9
258.22014	40009.4
262.4718	41482.9
266.72039	42554.5
270.96589	43103.4
275.20832	43105
279.44768	42817.5
283.68397	42349.5
287.91719	41952.3
292.14735	41666.8
296.37445	41605.2
300.59849	41713.2
304.81948	42007.6
309.03742	42124.3
313.25231	42020.5
317.46415	41617.7
321.67296	40937.4
325.87872	40421.8
330.08145	40086.9
334.28114	40160.3
338.47781	40468.5
342.67145	40974.2
346.86207	41604.5
351.04966	42465.3
355.23424	43247.2
359.4158	43947.3
363.59435	44474.4
367.76989	44844.4
371.94243	45098.2
376.11196	45399.1
380.27849	45676
384.44203	46009
388.60257	46340.3
392.76012	46751.1
396.91468	47250.1
401.06626	47822.3
405.21485	48248.1
409.36047	48117.8
413.50311	47730.7
417.64277	47426.6
421.77947	47454.4
425.9132	47649.3
430.04396	47935.4
434.17176	48229.9
438.2966	48683.2
442.41849	49655.8
446.53742	51105.2
450.6534	52691.8
454.76644	53769.4
458.87653	54068.8
462.98368	53560.6
467.08789	52718.6
471.18916	51793.2
475.2875	50901.3
479.38291	50246.4
483.4754	49934.8
487.56496	49497.5
491.6516	49028.5
495.73531	48610.3
499.81612	48272.9
503.89401	48528.3
507.96899	48739.2
512.04106	48656.7
516.11023	48404.9
520.1765	48218.2
524.23987	48064.8
528.30034	48014.2
532.35792	47755.6
536.41261	47335.5
540.46441	46808
544.51333	46688.1
548.55936	47016.8
552.60252	47935.4
556.64279	49099.3
560.6802	50064.1
564.71473	50513
568.7464	51250.9
572.7752	52491.7
576.80114	53716.6
580.82422	54896.6
584.84444	56536.5
588.86181	58989.8
592.87633	61357.7
596.888	61377.2
600.89682	58966.6
604.9028	58159.3
608.90594	61202.3
612.90624	64807.7
616.90371	61426.1
620.89834	53400
624.89015	49754.6
628.87913	49291.8
632.86528	49373
636.84862	49194.5
640.82913	48473.3
644.80683	47536.5
648.78172	46951.8
652.75379	46984.5
656.72306	47658.6
660.68952	48434.4
664.65319	48151.5
668.61405	47421.4
672.57211	47310.6
676.52738	47572.2
680.47986	47544.1
684.42955	47197.5
688.37646	47078.8
692.32058	47451.8
696.26192	48154
700.20048	48848
704.13626	49298.3
708.06928	49231.3
711.99952	48987.2
715.927	48991.7
719.85171	49233
723.77365	49162.4
727.69284	48643
731.60928	48062.3
735.52295	47948.3
739.43388	48019.1
743.34206	48234.2
747.24749	48444.2
751.15017	48796.1
755.05012	49469.2
758.94733	50579.7
762.8418	52560.3
766.73354	55556.9
770.62254	58362.5
774.50882	58836.9
778.39237	56774.6
782.27321	53690.2
786.15132	51076.3
790.02671	49484.2
793.89938	48642
797.76935	48315.1
801.6366	48206.7
805.50115	48117.6
809.36299	47954.9
813.22213	47706.1
817.07857	47547.5
820.93231	47417.1
824.78336	47235.2
828.63172	47187.5
832.47738	47207.9
836.32036	47318.7
840.16066	47486.9
843.99827	47586.8
847.8332	47616.1
851.66546	47543.7
855.49504	47570.2
859.32195	47630.3
863.1462	47569.9
866.96777	47526.1
870.78668	47501.4
874.60293	47509.9
878.41652	47559.4
882.22745	47716
886.03573	47826.9
889.84136	47826.8
893.64433	47655
897.44466	47423.2
901.24235	47309.9
905.0374	47183.8
908.8298	47131.1
912.61957	47219.7
916.40671	47546.3
920.19121	48096.5
923.97308	48621.5
927.75233	48738.4
931.52895	48407.6
935.30295	47902.1
939.07433	47270.1
942.84309	46835.8
946.60924	46713.8
950.37278	46669.7
954.13371	46720.6
957.89203	46637.8
961.64774	46524
965.40086	46526
969.15137	46533.9
972.89929	46364.1
976.64461	46396.8
980.38733	46444.8
984.12747	46609
987.86502	46987
991.59999	47499
995.33237	48106.3
999.06217	49102
1002.78939	50312.5
1006.51404	51319.6
1010.23611	52175.5
1013.95561	52721
1017.67255	52763.4
1021.38692	52224.4
1025.09872	51373.7
1028.80796	51032.7
1032.51465	51527.8
1036.21877	52192.6
1039.92035	52417.5
1043.61937	52125.6
1047.31584	51520.6
1051.00976	50769.9
1054.70114	50469.5
1058.38998	50445.2
1062.07627	50676.2
1065.76003	51054.6
1069.44126	51572.1
1073.11995	52324.7
1076.79611	52964.6
1080.46974	53466.7
1084.14085	53929.7
1087.80943	54526.4
1091.47549	54959.2
1095.13903	54846.5
1098.80005	54228.6
1102.45857	53326.9
1106.11456	52724.8
1109.76805	52535.6
1113.41903	52673.7
1117.06751	52914.6
1120.71348	53277.1
1124.35696	53645.1
1127.99793	54009.2
1131.63641	54181.6
1135.2724	54005.8
1138.90589	53774.6
1142.5369	53857.3
1146.16542	54028.8
1149.79145	54342.4
1153.415	54822.4
1157.03607	55500.1
1160.65467	56804.7
1164.27079	58877.8
1167.88443	61515.4
1171.49561	64510.8
1175.10432	68298.8
1178.71056	73199.9
1182.31434	77595.3
1185.91565	79501.7
1189.51451	78542.9
1193.11091	76257.6
1196.70485	73491.3
1200.29634	71318.2
1203.88538	69738.7
1207.47197	68913
1211.05612	68185.1
1214.63782	67081.8
1218.21708	66054.5
1221.79391	65171.4
1225.36829	64708.3
1228.94024	64119.6
1232.50976	62998.2
1236.07685	61729
1239.6415	61009.7
1243.20374	60945.1
1246.76355	61411.6
1250.32093	62411.8
1253.8759	63511
1257.42845	64961.7
1260.97859	66581.6
1264.52631	68330.2
1268.07163	70303.5
1271.61453	72270.4
1275.15503	73986.1
1278.69312	75773.5
1282.22882	77468.7
1285.76211	79622.7
1289.29301	82333.6
1292.82151	85539.8
1296.34761	89417.3
1299.87133	94339.7
1303.39266	99785.8
1306.9116	105248.7
1310.42815	109816.2
1313.94233	112237.4
1317.45412	111587.5
1320.96354	109077.8
1324.47058	106491.2
1327.97525	104179.7
1331.47754	102400.4
1334.97747	101000.8
1338.47502	99775.3
1341.97022	98527.3
1345.46305	96967.8
1348.95352	95960.6
1352.44163	96233.6
1355.92738	98906
1359.41078	103626.2
1362.89183	107370
1366.37053	106006.6
1369.84688	98247.6
1373.32088	88207.5
1376.79254	81458.9
1380.26186	79087.3
1383.72883	79143.7
1387.19347	79363.7
1390.65578	78617.9
1394.11575	78351.7
1397.57339	79062.8
1401.0287	80322
1404.48168	81381
1407.93234	81545.9
1411.38068	80572.1
1414.82669	78578.1
1418.27039	76151.9
1421.71177	73570.5
1425.15083	71444.5
1428.58758	70490.8
1432.02203	71219.1
1435.45416	73103.7
1438.88399	75138.7
1442.31151	76561
1445.73673	77211.8
1449.15965	77377.8
1452.58027	77145.6
1455.9986	76631.9
1459.41463	76736.7
1462.82837	77708.3
1466.23982	79056.6
1469.64898	80462.3
1473.05586	81513.1
1476.46045	81917.7
1479.86276	81639
1483.26279	81004.4
1486.66054	80517.1
1490.05602	80839.1
1493.44922	81466.3
1496.84016	82019.1
1500.22882	82997.3
1503.61521	84611.4
1506.99934	86685.3
1510.38121	88287.8
1513.76081	88369
1517.13816	86509
1520.51324	83681.8
1523.88607	81674
1527.25665	81011
1530.62498	81296.6
1533.99105	81383.6
1537.35488	80824.4
1540.71647	79499.3
1544.07581	77744.7
1547.4329	75986.9
1550.78776	74358.3
1554.14038	73169
1557.49077	72430.4
1560.83892	72120.8
1564.18484	71991.5
1567.52853	72180.8
1570.86999	72753.2
1574.20922	73834.8
1577.54624	74646
1580.88103	74896.6
1584.2136	75527.1
1587.54395	78081.7
1590.87208	82297.5
1594.19801	87791.6
1597.52172	93022.5
1600.84321	94575.9
1604.16251	90587.8
1607.47959	83456.5
1610.79447	75993.8
1614.10715	69652.9
1617.41763	64870.5
1620.7259	61802.6
1624.03199	60625.1
1627.33587	60778.7
1630.63757	62601.9
1633.93707	66266.6
1637.23439	72378.5
1640.52951	81426.8
1643.82246	92125.9
1647.11321	99999.1
1650.40179	100447.7
1653.68819	92478.7
1656.97241	80314
1660.25446	69345.4
1663.53433	61586.3
1666.81203	56856.3
1670.08756	53964.9
1673.36092	52136.1
1676.63211	50905.7
1679.90115	50105.1
1683.16801	49393.5
1686.43272	48997.1
1689.69527	48650.4
1692.95567	48327.3
1696.2139	48160.1
1699.46999	48093.4
1702.72392	47951.2
1705.97571	47906.3
1709.22535	47898.3
1712.47284	47818.5
1715.71819	47798.8
1718.96139	47731.9
1722.20246	47605.2
1725.44139	47438.3
1728.67818	47245.2
1731.91284	46981.9
1735.14537	46764.6
1738.37576	46647.9
1741.60403	46517.5
1744.83017	46332.6
1748.05418	46246.7
1751.27607	46150
1754.49584	46068.1
1757.71349	46097.7
1760.92903	46073.7
1764.14244	46049.6
1767.35375	46019.8
1770.56294	45991
1773.77002	45993
1776.97499	45948.1
1780.17785	45848.3
1783.37861	45743.4
1786.57727	45670.1
1789.77382	45598.4
1792.96828	45604.2
1796.16064	45581.9
1799.3509	45517.4
1802.53907	45446.7
1805.72514	45330
1808.90913	45201.6
1812.09102	45203.1
1815.27083	45110
1818.44856	45062.7
1821.6242	45021.7
1824.79776	44941.4
1827.96924	44991.8
1831.13864	44928.4
1834.30597	45047.9
1837.47122	44916
1840.6344	44838.8
1843.7955	44937.9
1846.95454	44924.6
1850.11151	44885.7
1853.26642	44891.7
1856.41926	44882.6
1859.57004	44824.4
1862.71876	44745
1865.86542	44758.1
1869.01003	44689.2
1872.15258	44647.6
1875.29308	44672.7
1878.43152	44573.8
1881.56792	44626.3
1884.70227	44652.9
1887.83457	44634.3
1890.96482	44639.1
1894.09304	44518.2
1897.21921	44503.3
1900.34335	44440.9
1903.46544	44359.9
1906.58551	44375.8
1909.70353	44370.1
1912.81953	44324.9
1915.93349	44241.9
1919.04543	44140
1922.15534	44133.4
1925.26322	44047.1
1928.36908	44059.4
1931.47292	43925.7
1934.57473	43833.6
1937.67453	43821.8
1940.77232	43724.1
1943.86808	43526.1
1946.96184	43431.8
1950.05358	43311
1953.14331	43177.6
1956.23103	43142.4
1959.31675	43004.7
1962.40046	42931.6
1965.48217	42680.6
1968.56188	42645.9
1971.63959	42546.1
1974.7153	42450.4
1977.78901	42317.2
1980.86073	42191.5
1983.93046	42142
1986.99819	42008.5
1990.06394	41939.9
1993.1277	41905.5
1996.18947	41762.9
1999.24925	41700.7
2002.30706	41548.7
2005.36288	41428.4
2008.41672	41336
2011.46859	41233.6
2014.51848	41111.7
2017.56639	40966.5
2020.61233	40952.8
2023.6563	40830.5
2026.6983	40796.9
2029.73833	40696.1
2032.7764	40616
2035.8125	40619.2
2038.84664	40493.8
2041.87881	40475.2
2044.90903	40421.6
2047.93729	40305.2
2050.96359	40339.9
2053.98794	40305.9
2057.01034	40332.3
2060.03078	40304.4
2063.04927	40287.4
2066.06582	40254.9
2069.08042	40225.4
2072.09307	40170.2
2075.10378	40085.5
2078.11255	40130.9
2081.11938	40200.7
2084.12426	40155.6
2087.12722	40130.1
2090.12824	40129.6
2093.12732	40151.7
2096.12447	40092.4
2099.11969	40144.1
2102.11299	40126.7
2105.10435	40179.4
2108.09379	40175.2
2111.08131	40228.8
2114.0669	40176.3
2117.05057	40170.2
2120.03233	40234.9
2123.01216	40298.3
2125.99008	40428.5
2128.96609	40449.9
2131.94018	40437.6
2134.91236	40546.5
2137.88263	40602.5
2140.851	40646.7
2143.81746	40640.3
2146.78201	40662.4
2149.74466	40636.5
2152.7054	40675.2
2155.66425	40724.5
2158.6212	40737.8
2161.57625	40688.2
2164.52941	40730.7
2167.48067	40720
2170.43004	40674
2173.37752	40726.2
2176.32311	40771.9
2179.26681	40745.8
2182.20863	40752.2
2185.14856	40803.3
2188.08661	40812.1
2191.02278	40762
2193.95707	40753.2
2196.88948	40741.2
2199.82001	40745
2202.74867	40713.9
2205.67545	40642.8
2208.60037	40568.9
2211.52341	40564.2
2214.44458	40586.6
2217.36388	40515.8
2220.28132	40539.9
2223.1969	40410.5
2226.11061	40352.6
2229.02246	40253.5
2231.93245	40161.8
2234.84058	40132.7
2237.74686	40155.6
2240.65128	40113.9
2243.55385	40044.6
2246.45456	40012.2
2249.35343	39912.1
2252.25044	39858.9
2255.14561	39813.7
2258.03893	39787.1
2260.93041	39765.2
2263.82004	39602.8
2266.70783	39526.9
2269.59378	39467.3
2272.4779	39434.9
2275.36017	39329.7
2278.24061	39304.8
2281.11922	39241.8
2283.996	39183.4
2286.87094	39222.8
2289.74405	39163.6
2292.61534	39162.4
2295.4848	39118.6
2298.35243	39138.8
2301.21824	39093.6
2304.08223	39108.1
2306.94439	39108.2
2309.80474	39133.3
2312.66327	39147.9
2315.51999	39060.4
2318.37489	39052.5
2321.22797	38987.3
2324.07925	38988.9
2326.92871	38917.1
2329.77637	38851.8
2332.62222	38805.9
2335.46626	38787.5
2338.3085	38848.8
2341.14893	38829.3
2343.98756	38836.9
2346.8244	38804.2
2349.65943	38797.4
2352.49267	38795.5
2355.32411	38798.1
2358.15376	38746.8
2360.98161	38735.5
2363.80768	38671.2
2366.63195	38660.2
2369.45444	38664.2
2372.27514	38668.9
2375.09405	38629.3
2377.91118	38540
2380.72652	38421.9
2383.54009	38348.4
2386.35187	38290.2
2389.16188	38179
2391.97011	38187.8
2394.77657	38112.3
2397.58125	38140
2400.38416	38045.7
2403.18529	37975.2
2405.98466	37929.4
2408.78226	37891.5
2411.57809	37818.8
2414.37216	37755.8
2417.16446	37755.8
2419.955	37741.3
2422.74378	37744.2
2425.5308	37711.8
2428.31606	37752.3
2431.09956	37753.1
2433.88131	37715.6
2436.6613	37704.3
2439.43954	37724.7
2442.21603	37645.3
2444.99077	37625.2
2447.76377	37680.7
2450.53501	37619.2
2453.30451	37656
2456.07226	37625
2458.83827	37561.7
2461.60254	37566.6
2464.36507	37575
2467.12586	37594.6
2469.88492	37580.3
2472.64224	37574.9
2475.39782	37588.7
2478.15167	37639.4
2480.90379	37634.9
2483.65417	37635.2
2486.40283	37679.3
2489.14976	37670
2491.89497	37676.4
2494.63845	37687.7
2497.3802	37649
2500.12024	37627.1
2502.85855	37613.2
2505.59514	37597.1
2508.33002	37559.8
2511.06318	37497.7
2513.79462	37514.1
2516.52435	37484.1
2519.25237	37470.9
2521.97867	37451.5
2524.70327	37441.7
2527.42616	37400.7
2530.14734	37411.8
2532.86681	37367.5
2535.58458	37316.8
2538.30065	37332.8
2541.01501	37332.7
2543.72768	37326.2
2546.43864	37294.3
2549.14791	37263.7
2551.85548	37219.3
2554.56136	37163.5
2557.26554	37067.6
2559.96803	37067.9
2562.66883	37048.5
2565.36794	37032.8
2568.06536	36984.5
2570.7611	36936.5
2573.45514	36915.2
2576.14751	36888.5
2578.83819	36869
2581.52719	36869.6
2584.21451	36854.4
2586.90015	36808.7
2589.58411	36714.7
2592.2664	36782.8
2594.94701	36711.4
2597.62594	36741.7
2600.30321	36688.9
2602.9788	36730.1
2605.65273	36613.8
2608.32498	36714
2610.99557	36678.1
2613.66449	36697.7
2616.33175	36647
2618.99734	36606.2
2621.66128	36551.1
2624.32355	36533.1
2626.98416	36444.2
2629.64311	36436
2632.30041	36440.2
2634.95605	36388.5
2637.61004	36369.5
2640.26238	36373.9
2642.91306	36332.2
2645.56209	36287
2648.20948	36340.6
2650.85521	36300.5
2653.4993	36366.6
2656.14175	36375.9
2658.78255	36375.2
2661.42171	36471.4
2664.05923	36478.5
2666.6951	36444.4
2669.32934	36460.7
2671.96194	36530.4
2674.59291	36518.4
2677.22224	36589
2679.84993	36520.9
2682.476	36448.3
2685.10043	36461.7
2687.72324	36392.5
2690.34441	36469.4
2692.96396	36454.6
2695.58188	36476.9
2698.19818	36402.5
2700.81285	36403.3
2703.4259	36400.6
2706.03733	36495.9
2708.64714	36475.4
2711.25533	36480.7
2713.86191	36500
2716.46687	36607.2
2719.07021	36587.9
2721.67194	36610.8
2724.27206	36570.8
2726.87057	36663.5
2729.46747	36675.5
2732.06276	36640.3
2734.65644	36721.7
2737.24852	36704.9
2739.83899	36650.8
2742.42786	36640.6
2745.01513	36629.6
2747.60079	36651.9
2750.18486	36623.3
2752.76733	36583.7
2755.3482	36567.7
2757.92747	36551.3
2760.50515	36476.3
2763.08123	36499.3
2765.65573	36479.2
2768.22863	36463.2
2770.79994	36422.4
2773.36967	36459.1
2775.9378	36488.4
2778.50435	36457.2
2781.06932	36458.6
2783.6327	36378.9
2786.1945	36367.8
2788.75471	36331.3
2791.31335	36262.2
2793.87041	36264.4
2796.42589	36133.1
2798.97979	36175
2801.53212	36034
2804.08288	36000.4
2806.63206	35946
2809.17967	35914.7
2811.72571	35770.7
2814.27018	35741.1
2816.81308	35586.6
2819.35442	35531.2
2821.89419	35472.3
2824.43239	35511.5
2826.96904	35501.1
2829.50412	35477.4
2832.03763	35383.9
2834.56959	35393.2
2837.1	35317.1
2839.62884	35287.1
2842.15613	35257.4
2844.68186	35303.9
2847.20604	35246.7
2849.72867	35263
2852.24974	35207.4
2854.76927	35149.4
2857.28724	35154.8
2859.80367	35163
2862.31855	35098.4
2864.83189	35024.8
2867.34368	34995.7
2869.85393	34965.5
2872.36264	34913.2
2874.8698	34902.7
2877.37543	34875.8
2879.87952	34854.6
2882.38207	34904.9
2884.88308	34875.3
2887.38256	34904.2
2889.88051	34929.6
2892.37692	34936.8
2894.8718	34913.5
2897.36515	35005.9
2899.85698	34969.3
2902.34727	35056.3
2904.83604	35051.1
2907.32328	35100.1
2909.809	35132.6
2912.29319	35196.1
2914.77587	35160.3
2917.25702	35174.4
2919.73665	35107.1
2922.21476	35106.6
2924.69136	35066.1
2927.16644	35115.9
2929.64	35086.2
2932.11205	35014.3
2934.58258	34928.4
2937.05161	35041.6
2939.51912	35025.4
2941.98513	34940.5
2944.44962	34876.6
2946.91261	34822.5
2949.37409	34926.9
2951.83407	34865.6
2954.29254	34845.1
2956.74951	34867.3
2959.20498	34861.2
2961.65895	34838.1
2964.11142	34854.9
2966.56239	34832.3
2969.01186	34819.4
2971.45984	34646.2
2973.90632	34595.9
2976.35131	34611.4
2978.7948	34556.8
2981.23681	34529.8
2983.67732	34468.3
2986.11635	34366.8
2988.55388	34326.8
2990.98993	34305.9
2993.4245	34232.7
2995.85758	34115.9
2998.28917	34031.6
3000.71928	33962.4
3003.14791	33884.8
3005.57506	33912.7
3008.00073	33825.3
3010.42493	33799.2
3012.84764	33666.6
3015.26888	33728.7
3017.68865	33659.2
3020.10694	33546.3
3022.52376	33487.7
3024.9391	33488.9
3027.35298	33453.1
3029.76539	33422.6
3032.17632	33420.7
3034.5858	33426.1
3036.9938	33379.5
3039.40034	33343.6
3041.80542	33315.6
3044.20903	33269.8
3046.61118	33188.6
3049.01187	33124.1
3051.4111	33128.4
3053.80888	32978.9
3056.20519	32991.4
3058.60005	32928.2
3060.99345	32868.3
3063.3854	32807.1
3065.7759	32711.6
3068.16494	32626.4
3070.55254	32513.2
3072.93868	32432.6
3075.32338	32374.3
3077.70662	32314.4
3080.08842	32251.5
3082.46878	32153.7
3084.84769	32062.9
3087.22515	32104.9
3089.60118	32100.3
3091.97576	32053.6
3094.3489	32039.7
3096.72061	32078.7
3099.09087	32015.9
3101.4597	32016.3
3103.82709	32044
3106.19305	31943.8
3108.55757	31965
3110.92066	31946.7
3113.28232	31905.8
3115.64255	31791.3
3118.00134	31707.4
3120.35871	31630
3122.71466	31528.1
3125.06917	31488.1
3127.42226	31435.9
3129.77393	31422.4
3132.12417	31384.4
3134.47299	31378.7
3136.82039	31320.7
3139.16636	31353.5
3141.51092	31321.6
3143.85406	31318
3146.19579	31324
3148.53609	31331.9
3150.87499	31300
3153.21246	31298.4
3155.54853	31321.8
3157.88318	31285.4
3160.21642	31335.7
3162.54826	31292.9
3164.87868	31230
3167.2077	31166.6
3169.5353	31169.1
3171.86151	31139.6
3174.18631	31197.3
3176.5097	31161.8
3178.83169	31148.7
3181.15228	31068.3
3183.47147	30943.2
3185.78926	30986.7
3188.10565	30968.1
3190.42065	30899.4
3192.73424	30843.1
3195.04645	30827.6
3197.35725	30790.8
3199.66667	30754.1
3201.97469	30735.8
3204.28132	30699.9
3206.58656	30716.5
3208.8904	30694
3211.19287	30748.8
3213.49394	30763.4
3215.79363	30740.2
3218.09193	30772.2
3220.38884	30749.8
3222.68438	30787.9
3224.97853	30690.5
3227.2713	30672.4
3229.56269	30676.7
3231.8527	30653.4
3234.14133	30650.5
3236.42858	30525.2
3238.71446	30471
3240.99896	30428.9
3243.28209	30460.3
3245.56384	30394.3
3247.84423	30352.6
3250.12324	30329
3252.40088	30318.7
3254.67715	30331.1
3256.95205	30254.5
3259.22558	30233.8
3261.49775	30205.3
3263.76855	30163.2
3266.03799	30087
3268.30606	30044.9
3270.57277	30019.4
3272.83812	29978.2
3275.10211	29828.7
3277.36474	29851.4
3279.62601	29838.3
3281.88593	29809.3
3284.14448	29820.5
3286.40168	29830.6
3288.65753	29750.5
3290.91202	29794.6
3293.16516	29714.3
3295.41695	29698.6
3297.66738	29497
3299.91647	29344.4
3302.16421	29139.2
3304.4106	29030.8
3306.65564	28839.5
3308.89933	28618.4
3311.14169	28472.9
3313.38269	28256.3
3315.62236	28104.5
3317.86068	27830.7
3320.09766	27602.9
3322.3333	27433.2
3324.5676	27302.7
3326.80056	26886.4
3329.03219	26742.5
3331.26248	7.1
3333.49143	0.3
3335.71905	-0
