Data from AgNPs_FTO_APTES_UA_20uM_CRN_10uM_R6G_10uM_NaF_0.1M_Addition_RamanShift__0__14-10-22-179.txt Node

Date: Thu Feb 17 14:10:22 GMT 2022
User: TCL
Spectrometer: QEP01345
Trigger mode: 4
Integration Time (sec): 7.000000E0
Scans to average: 10
Electric dark correction enabled: true
Nonlinearity correction enabled: false
Boxcar width: 0
XAxis mode: Raman Shifts
Number of Pixels in Spectrum: 1044
>>>>>Begin Spectral Data<<<<<
46.04893	1.6125
50.45542	-0.0875
54.85868	-2.9875
59.25871	-0.0875
63.6555	37.7125
68.04907	39.0125
72.43941	40.9125
76.82654	40.4125
81.21044	45.6125
85.59113	45.1125
89.96862	45.5125
94.34289	43.4125
98.71396	49.0125
103.08183	49.3125
107.4465	53.1125
111.80798	50.1125
116.16626	53.1125
120.52136	62.2125
124.87327	58.4125
129.222	63.4125
133.56755	69.4125
137.90993	69.2125
142.24913	80.4125
146.58517	89.3125
150.91804	109.7125
155.24774	127.1125
159.57429	165.6125
163.89768	212.8125
168.21792	282.5125
172.53501	397.5125
176.84895	553.1125
181.15975	783.8125
185.46741	1099.0125
189.77193	1517.2125
194.07331	2040.1125
198.37157	2637.5125
202.6667	3267.2125
206.9587	3886.6125
211.24758	4510.1125
215.53334	5135.5125
219.81599	5805.6125
224.09553	6517.8125
228.37195	7327.6125
232.64527	8210.6125
236.91549	9127.2125
241.18261	10044.4125
245.44663	10895.9125
249.70755	11675.9125
253.96539	12353.9125
258.22014	12974.7125
262.4718	13453.1125
266.72039	13806.5125
270.96589	13993.4125
275.20832	14023.4125
279.44768	13940.0125
283.68397	13773.0125
287.91719	13622.8125
292.14735	13539.2125
296.37445	13530.9125
300.59849	13658.9125
304.81948	13793.6125
309.03742	13898.2125
313.25231	13859.9125
317.46415	13638.3125
321.67296	13248.5125
325.87872	12981.3125
330.08145	12843.7125
334.28114	12875.8125
338.47781	12989.3125
342.67145	13166.9125
346.86207	13462.4125
351.04966	13804.8125
355.23424	14118.7125
359.4158	14416.6125
363.59435	14639.1125
367.76989	14726.6125
371.94243	14846.9125
376.11196	14976.3125
380.27849	15057.5125
384.44203	15093.0125
388.60257	15133.1125
392.76012	15216.6125
396.91468	15309.7125
401.06626	15588.9125
405.21485	15749.5125
409.36047	15721.4125
413.50311	15525.7125
417.64277	15354.3125
421.77947	15361.2125
425.9132	15509.0125
430.04396	15696.0125
434.17176	15796.2125
438.2966	15858.6125
442.41849	16045.0125
446.53742	16414.2125
450.6534	16846.5125
454.76644	17147.7125
458.87653	17188.0125
462.98368	17001.8125
467.08789	16697.1125
471.18916	16438.0125
475.2875	16241.8125
479.38291	16092.8125
483.4754	16009.9125
487.56496	15912.8125
491.6516	15788.2125
495.73531	15626.6125
499.81612	15485.6125
503.89401	15509.6125
507.96899	15489.2125
512.04106	15500.2125
516.11023	15552.1125
520.1765	15502.6125
524.23987	15488.3125
528.30034	15439.7125
532.35792	15377.8125
536.41261	15228.4125
540.46441	15071.7125
544.51333	14986.9125
548.55936	15080.3125
552.60252	15349.9125
556.64279	15642.7125
560.6802	15915.5125
564.71473	16049.0125
568.7464	16306.8125
572.7752	16629.3125
576.80114	16795.0125
580.82422	16809.7125
584.84444	17056.4125
588.86181	17563.1125
592.87633	18152.2125
596.888	18386.4125
600.89682	18079.2125
604.9028	18312.0125
608.90594	19874.1125
612.90624	21890.4125
616.90371	20911.8125
620.89834	17493.3125
624.89015	15951.2125
628.87913	15702.2125
632.86528	15718.6125
636.84862	15744.0125
640.82913	15543.4125
644.80683	15233.0125
648.78172	14977.5125
652.75379	15023.1125
656.72306	15302.5125
660.68952	15626.6125
664.65319	15554.7125
668.61405	15196.1125
672.57211	15129.9125
676.52738	15181.7125
680.47986	15191.1125
684.42955	15142.0125
688.37646	15151.4125
692.32058	15286.4125
696.26192	15544.0125
700.20048	15872.6125
704.13626	16138.6125
708.06928	16148.2125
711.99952	16014.4125
715.927	15903.6125
719.85171	15884.9125
723.77365	15811.4125
727.69284	15634.3125
731.60928	15491.2125
735.52295	15463.7125
739.43388	15490.4125
743.34206	15553.7125
747.24749	15587.2125
751.15017	15632.8125
755.05012	15814.0125
758.94733	16133.1125
762.8418	16840.5125
766.73354	17996.1125
770.62254	19189.9125
774.50882	19653.6125
778.39237	19030.3125
782.27321	17762.8125
786.15132	16651.0125
790.02671	15945.1125
793.89938	15648.9125
797.76935	15489.1125
801.6366	15437.6125
805.50115	15387.4125
809.36299	15347.8125
813.22213	15333.5125
817.07857	15337.5125
820.93231	15349.0125
824.78336	15321.1125
828.63172	15344.6125
832.47738	15338.6125
836.32036	15362.1125
840.16066	15371.9125
843.99827	15385.1125
847.8332	15365.4125
851.66546	15349.8125
855.49504	15349.1125
859.32195	15337.7125
863.1462	15336.0125
866.96777	15320.2125
870.78668	15315.1125
874.60293	15357.1125
878.41652	15360.2125
882.22745	15426.7125
886.03573	15441.7125
889.84136	15419.1125
893.64433	15334.6125
897.44466	15300.0125
901.24235	15262.7125
905.0374	15257.5125
908.8298	15232.1125
912.61957	15237.5125
916.40671	15307.9125
920.19121	15444.4125
923.97308	15543.5125
927.75233	15598.6125
931.52895	15538.5125
935.30295	15428.5125
939.07433	15254.4125
942.84309	15098.6125
946.60924	14995.8125
950.37278	15004.1125
954.13371	14997.4125
957.89203	14995.1125
961.64774	14941.7125
965.40086	14916.0125
969.15137	14893.6125
972.89929	14871.4125
976.64461	14868.5125
980.38733	14875.5125
984.12747	14948.2125
987.86502	15071.0125
991.59999	15210.0125
995.33237	15359.9125
999.06217	15595.4125
1002.78939	15869.1125
1006.51404	16110.3125
1010.23611	16336.4125
1013.95561	16462.4125
1017.67255	16437.1125
1021.38692	16287.5125
1025.09872	16090.1125
1028.80796	15972.5125
1032.51465	16086.7125
1036.21877	16225.2125
1039.92035	16245.1125
1043.61937	16214.7125
1047.31584	16087.1125
1051.00976	15970.5125
1054.70114	15930.7125
1058.38998	15936.1125
1062.07627	16013.8125
1065.76003	16116.1125
1069.44126	16258.3125
1073.11995	16428.9125
1076.79611	16593.8125
1080.46974	16756.3125
1084.14085	16953.2125
1087.80943	17163.6125
1091.47549	17276.1125
1095.13903	17277.8125
1098.80005	17051.1125
1102.45857	16817.7125
1106.11456	16717.6125
1109.76805	16725.2125
1113.41903	16807.7125
1117.06751	16959.3125
1120.71348	17145.9125
1124.35696	17342.4125
1127.99793	17490.4125
1131.63641	17476.5125
1135.2724	17271.2125
1138.90589	17051.8125
1142.5369	16952.9125
1146.16542	16918.8125
1149.79145	16966.0125
1153.415	17061.2125
1157.03607	17177.1125
1160.65467	17428.9125
1164.27079	17920.8125
1167.88443	18595.5125
1171.49561	19480.0125
1175.10432	20731.1125
1178.71056	22352.0125
1182.31434	23785.2125
1185.91565	24269.3125
1189.51451	23862.3125
1193.11091	22920.3125
1196.70485	21959.4125
1200.29634	21232.6125
1203.88538	20752.7125
1207.47197	20358.9125
1211.05612	19990.5125
1214.63782	19669.3125
1218.21708	19504.3125
1221.79391	19392.6125
1225.36829	19414.7125
1228.94024	19288.7125
1232.50976	19026.0125
1236.07685	18742.3125
1239.6415	18640.3125
1243.20374	18713.7125
1246.76355	18876.3125
1250.32093	19192.3125
1253.8759	19560.4125
1257.42845	20053.9125
1260.97859	20426.0125
1264.52631	20857.6125
1268.07163	21224.5125
1271.61453	21576.2125
1275.15503	21883.1125
1278.69312	22142.2125
1282.22882	22480.8125
1285.76211	22929.6125
1289.29301	23599.0125
1292.82151	24394.8125
1296.34761	25336.1125
1299.87133	26531.1125
1303.39266	27953.8125
1306.9116	29602.4125
1310.42815	31238.9125
1313.94233	32236.9125
1317.45412	32138.3125
1320.96354	31254.8125
1324.47058	30249.7125
1327.97525	29293.4125
1331.47754	28320.2125
1334.97747	27833.6125
1338.47502	27599.7125
1341.97022	27419.0125
1345.46305	27270.1125
1348.95352	27336.1125
1352.44163	27854.8125
1355.92738	29118.7125
1359.41078	31095.5125
1362.89183	32930.3125
1366.37053	32626.6125
1369.84688	29685.6125
1373.32088	26302.5125
1376.79254	24157.4125
1380.26186	23451.1125
1383.72883	23402.8125
1387.19347	23535.4125
1390.65578	23237.5125
1394.11575	22857.6125
1397.57339	22783.3125
1401.0287	22959.4125
1404.48168	23142.6125
1407.93234	23187.9125
1411.38068	22993.6125
1414.82669	22583.1125
1418.27039	21991.5125
1421.71177	21309.3125
1425.15083	20662.6125
1428.58758	20380.9125
1432.02203	20431.3125
1435.45416	20835.0125
1438.88399	21257.3125
1442.31151	21609.2125
1445.73673	21934.5125
1449.15965	22106.8125
1452.58027	22025.7125
1455.9986	21856.7125
1459.41463	21809.3125
1462.82837	21976.3125
1466.23982	22277.2125
1469.64898	22714.4125
1473.05586	23040.6125
1476.46045	23274.2125
1479.86276	23319.9125
1483.26279	23355.9125
1486.66054	23365.1125
1490.05602	23480.8125
1493.44922	23740.7125
1496.84016	24129.5125
1500.22882	24696.3125
1503.61521	25666.0125
1506.99934	26939.0125
1510.38121	28032.8125
1513.76081	28338.5125
1517.13816	27480.8125
1520.51324	25971.8125
1523.88607	24554.6125
1527.25665	23770.3125
1530.62498	23440.3125
1533.99105	23284.8125
1537.35488	23036.1125
1540.71647	22700.0125
1544.07581	22303.0125
1547.4329	22002.9125
1550.78776	21626.7125
1554.14038	21392.0125
1557.49077	21314.3125
1560.83892	21306.2125
1564.18484	21410.0125
1567.52853	21606.8125
1570.86999	21917.7125
1574.20922	22278.0125
1577.54624	22407.3125
1580.88103	22244.7125
1584.2136	22049.3125
1587.54395	22373.6125
1590.87208	23258.0125
1594.19801	24575.4125
1597.52172	26011.4125
1600.84321	26574.0125
1604.16251	25685.2125
1607.47959	24026.5125
1610.79447	22162.3125
1614.10715	20566.9125
1617.41763	19405.9125
1620.7259	18709.1125
1624.03199	18402.6125
1627.33587	18485.2125
1630.63757	18943.0125
1633.93707	19907.5125
1637.23439	21424.1125
1640.52951	23666.3125
1643.82246	26507.7125
1647.11321	29055.9125
1650.40179	29969.2125
1653.68819	28652.7125
1656.97241	25562.2125
1660.25446	22446.9125
1663.53433	20207.4125
1666.81203	18755.7125
1670.08756	17772.3125
1673.36092	17040.5125
1676.63211	16506.5125
1679.90115	16138.4125
1683.16801	15954.9125
1686.43272	15834.3125
1689.69527	15957.5125
1692.95567	16268.5125
1696.2139	16890.4125
1699.46999	17505.0125
1702.72392	17557.1125
1705.97571	16923.3125
1709.22535	16164.6125
1712.47284	15684.2125
1715.71819	15427.5125
1718.96139	15263.3125
1722.20246	15178.2125
1725.44139	15064.1125
1728.67818	14989.0125
1731.91284	14921.7125
1735.14537	14868.4125
1738.37576	14786.3125
1741.60403	14871.4125
1744.83017	14882.6125
1748.05418	14974.4125
1751.27607	15164.7125
1754.49584	15529.0125
1757.71349	15916.9125
1760.92903	16135.5125
1764.14244	16069.4125
1767.35375	16028.0125
1770.56294	16011.0125
1773.77002	15823.3125
1776.97499	15424.0125
1780.17785	14982.3125
1783.37861	14745.8125
1786.57727	14547.1125
1789.77382	14465.8125
1792.96828	14426.2125
1796.16064	14351.6125
1799.3509	14320.7125
1802.53907	14288.0125
1805.72514	14254.0125
1808.90913	14195.0125
1812.09102	14176.9125
1815.27083	14156.7125
1818.44856	14126.8125
1821.6242	14099.7125
1824.79776	14082.7125
1827.96924	14054.0125
1831.13864	14051.4125
1834.30597	14040.8125
1837.47122	13998.5125
1840.6344	13969.2125
1843.7955	13996.4125
1846.95454	13993.0125
1850.11151	13975.8125
1853.26642	13967.7125
1856.41926	13970.8125
1859.57004	13955.2125
1862.71876	13934.1125
1865.86542	13938.2125
1869.01003	13903.4125
1872.15258	13902.2125
1875.29308	13928.2125
1878.43152	13863.7125
1881.56792	13887.6125
1884.70227	13895.6125
1887.83457	13882.3125
1890.96482	13878.3125
1894.09304	13869.9125
1897.21921	13830.4125
1900.34335	13836.8125
1903.46544	13821.9125
1906.58551	13811.7125
1909.70353	13802.3125
1912.81953	13814.5125
1915.93349	13806.7125
1919.04543	13730.7125
1922.15534	13746.5125
1925.26322	13730.5125
1928.36908	13721.4125
1931.47292	13676.4125
1934.57473	13666.8125
1937.67453	13647.1125
1940.77232	13609.9125
1943.86808	13559.4125
1946.96184	13537.1125
1950.05358	13501.3125
1953.14331	13482.0125
1956.23103	13438.1125
1959.31675	13398.3125
1962.40046	13358.1125
1965.48217	13324.9125
1968.56188	13294.3125
1971.63959	13234.9125
1974.7153	13231.9125
1977.78901	13174.9125
1980.86073	13144.1125
1983.93046	13088.5125
1986.99819	13066.9125
1990.06394	13027.4125
1993.1277	13031.3125
1996.18947	12979.1125
1999.24925	12961.4125
2002.30706	12926.6125
2005.36288	12876.4125
2008.41672	12850.5125
2011.46859	12822.8125
2014.51848	12771.2125
2017.56639	12733.4125
2020.61233	12720.1125
2023.6563	12692.2125
2026.6983	12632.7125
2029.73833	12622.6125
2032.7764	12623.3125
2035.8125	12583.5125
2038.84664	12564.1125
2041.87881	12543.8125
2044.90903	12532.6125
2047.93729	12548.3125
2050.96359	12555.7125
2053.98794	12526.7125
2057.01034	12542.7125
2060.03078	12509.4125
2063.04927	12482.7125
2066.06582	12469.9125
2069.08042	12489.1125
2072.09307	12437.2125
2075.10378	12439.8125
2078.11255	12432.1125
2081.11938	12462.5125
2084.12426	12447.6125
2087.12722	12431.4125
2090.12824	12406.9125
2093.12732	12442.8125
2096.12447	12448.5125
2099.11969	12411.2125
2102.11299	12412.2125
2105.10435	12449.8125
2108.09379	12468.0125
2111.08131	12453.0125
2114.0669	12458.9125
2117.05057	12478.9125
2120.03233	12470.6125
2123.01216	12521.6125
2125.99008	12515.6125
2128.96609	12507.8125
2131.94018	12516.0125
2134.91236	12562.3125
2137.88263	12561.5125
2140.851	12555.2125
2143.81746	12585.7125
2146.78201	12589.3125
2149.74466	12595.0125
2152.7054	12586.6125
2155.66425	12580.2125
2158.6212	12582.9125
2161.57625	12572.8125
2164.52941	12569.5125
2167.48067	12566.1125
2170.43004	12577.4125
2173.37752	12561.4125
2176.32311	12602.7125
2179.26681	12589.4125
2182.20863	12587.3125
2185.14856	12594.9125
2188.08661	12568.5125
2191.02278	12587.7125
2193.95707	12560.2125
2196.88948	12572.6125
2199.82001	12571.4125
2202.74867	12556.2125
2205.67545	12520.2125
2208.60037	12503.9125
2211.52341	12527.0125
2214.44458	12485.8125
2217.36388	12497.9125
2220.28132	12475.8125
2223.1969	12403.5125
2226.11061	12414.2125
2229.02246	12364.7125
2231.93245	12373.4125
2234.84058	12363.2125
2237.74686	12321.3125
2240.65128	12333.9125
2243.55385	12320.8125
2246.45456	12305.2125
2249.35343	12298.3125
2252.25044	12266.1125
2255.14561	12273.1125
2258.03893	12343.2125
2260.93041	12468.1125
2263.82004	12310.5125
2266.70783	12246.6125
2269.59378	12183.5125
2272.4779	12173.0125
2275.36017	12114.5125
2278.24061	12075.4125
2281.11922	12075.9125
2283.996	12067.7125
2286.87094	12049.0125
2289.74405	12045.7125
2292.61534	12005.0125
2295.4848	11967.8125
2298.35243	12002.4125
2301.21824	12003.9125
2304.08223	11977.2125
2306.94439	12003.5125
2309.80474	12003.0125
2312.66327	12004.4125
2315.51999	11997.4125
2318.37489	11998.5125
2321.22797	11991.6125
2324.07925	11978.2125
2326.92871	11957.9125
2329.77637	11949.1125
2332.62222	11934.1125
2335.46626	11958.8125
2338.3085	11919.8125
2341.14893	11921.0125
2343.98756	11902.0125
2346.8244	11886.1125
2349.65943	11881.5125
2352.49267	11888.0125
2355.32411	11885.4125
2358.15376	11861.4125
2360.98161	11868.5125
2363.80768	11839.9125
2366.63195	11838.9125
2369.45444	11826.4125
2372.27514	11822.2125
2375.09405	11793.4125
2377.91118	11789.5125
2380.72652	11763.9125
2383.54009	11726.0125
2386.35187	11729.7125
2389.16188	11681.0125
2391.97011	11638.0125
2394.77657	11620.4125
2397.58125	11611.8125
2400.38416	11624.6125
2403.18529	11612.2125
2405.98466	11572.4125
2408.78226	11564.4125
2411.57809	11567.5125
2414.37216	11542.0125
2417.16446	11531.3125
2419.955	11523.2125
2422.74378	11496.9125
2425.5308	11512.0125
2428.31606	11506.3125
2431.09956	11490.5125
2433.88131	11445.4125
2436.6613	11479.2125
2439.43954	11479.0125
2442.21603	11459.7125
2444.99077	11439.6125
2447.76377	11455.3125
2450.53501	11434.3125
2453.30451	11414.7125
2456.07226	11417.6125
2458.83827	11392.7125
2461.60254	11390.2125
2464.36507	11380.3125
2467.12586	11383.8125
2469.88492	11398.3125
2472.64224	11407.6125
2475.39782	11520.4125
2478.15167	11581.0125
2480.90379	11490.5125
2483.65417	11432.3125
2486.40283	11461.2125
2489.14976	11420.6125
2491.89497	11418.0125
2494.63845	11575.6125
2497.3802	11620.1125
2500.12024	11454.0125
2502.85855	11447.9125
2505.59514	11400.6125
2508.33002	11377.3125
2511.06318	11331.5125
2513.79462	11312.2125
2516.52435	11297.5125
2519.25237	11282.2125
2521.97867	11291.8125
2524.70327	11274.1125
2527.42616	11278.1125
2530.14734	11250.0125
2532.86681	11225.8125
2535.58458	11230.5125
2538.30065	11212.5125
2541.01501	11204.8125
2543.72768	11215.2125
2546.43864	11204.6125
2549.14791	11180.2125
2551.85548	11154.5125
2554.56136	11120.1125
2557.26554	11124.9125
2559.96803	11090.3125
2562.66883	11114.7125
2565.36794	11095.7125
2568.06536	11045.8125
2570.7611	11031.7125
2573.45514	11036.3125
2576.14751	11023.0125
2578.83819	11009.4125
2581.52719	11013.9125
2584.21451	10985.4125
2586.90015	10958.0125
2589.58411	10988.8125
2592.2664	10961.5125
2594.94701	10941.2125
2597.62594	10949.6125
2600.30321	10927.1125
2602.9788	10932.2125
2605.65273	10903.5125
2608.32498	10913.4125
2610.99557	10906.4125
2613.66449	10903.1125
2616.33175	10905.4125
2618.99734	10869.1125
2621.66128	10896.4125
2624.32355	10868.2125
2626.98416	10842.4125
2629.64311	10832.8125
2632.30041	10849.9125
2634.95605	10811.6125
2637.61004	10781.6125
2640.26238	10790.5125
2642.91306	10755.1125
2645.56209	10757.6125
2648.20948	10807.9125
2650.85521	10800.0125
2653.4993	10747.8125
2656.14175	10732.5125
2658.78255	10764.2125
2661.42171	10759.7125
2664.05923	10778.2125
2666.6951	10763.7125
2669.32934	10799.4125
2671.96194	10777.3125
2674.59291	10789.4125
2677.22224	10794.6125
2679.84993	10793.0125
2682.476	10799.7125
2685.10043	10769.9125
2687.72324	10756.1125
2690.34441	10770.6125
2692.96396	10745.7125
2695.58188	10744.0125
2698.19818	10769.0125
2700.81285	10779.9125
2703.4259	11061.2125
2706.03733	11746.9125
2708.64714	11314.6125
2711.25533	11053.8125
2713.86191	10951.6125
2716.46687	10942.0125
2719.07021	10889.7125
2721.67194	10807.9125
2724.27206	10788.7125
2726.87057	10784.8125
2729.46747	10778.2125
2732.06276	10768.8125
2734.65644	10770.4125
2737.24852	10820.9125
2739.83899	10774.7125
2742.42786	10800.7125
2745.01513	10779.5125
2747.60079	10770.3125
2750.18486	10747.6125
2752.76733	10742.9125
2755.3482	10697.2125
2757.92747	10709.2125
2760.50515	10703.1125
2763.08123	10697.0125
2765.65573	10677.7125
2768.22863	10703.7125
2770.79994	10670.1125
2773.36967	10669.6125
2775.9378	10677.6125
2778.50435	10653.3125
2781.06932	10653.6125
2783.6327	10669.0125
2786.1945	10662.9125
2788.75471	10662.5125
2791.31335	10623.0125
2793.87041	10611.4125
2796.42589	10559.8125
2798.97979	10574.2125
2801.53212	10537.4125
2804.08288	10524.1125
2806.63206	10500.2125
2809.17967	10494.8125
2811.72571	10448.9125
2814.27018	10424.7125
2816.81308	10397.8125
2819.35442	10369.1125
2821.89419	10368.8125
2824.43239	10360.3125
2826.96904	10378.6125
2829.50412	10394.5125
2832.03763	10350.9125
2834.56959	10361.1125
2837.1	10300.7125
2839.62884	10321.7125
2842.15613	10283.5125
2844.68186	10283.2125
2847.20604	10289.3125
2849.72867	10292.4125
2852.24974	10288.3125
2854.76927	10389.4125
2857.28724	10553.3125
2859.80367	10408.9125
2862.31855	10340.4125
2864.83189	10308.3125
2867.34368	10239.7125
2869.85393	10234.2125
2872.36264	10220.2125
2874.8698	10203.6125
2877.37543	10189.3125
2879.87952	10153.5125
2882.38207	10166.7125
2884.88308	10147.6125
2887.38256	10153.3125
2889.88051	10131.1125
2892.37692	10141.3125
2894.8718	10144.0125
2897.36515	10158.8125
2899.85698	10137.4125
2902.34727	10163.3125
2904.83604	10179.8125
2907.32328	10199.0125
2909.809	10179.0125
2912.29319	10182.2125
2914.77587	10185.2125
2917.25702	10209.9125
2919.73665	10170.3125
2922.21476	10161.1125
2924.69136	10177.4125
2927.16644	10134.5125
2929.64	10122.8125
2932.11205	10149.4125
2934.58258	10097.4125
2937.05161	10131.2125
2939.51912	10114.0125
2941.98513	10105.3125
2944.44962	10103.2125
2946.91261	10092.5125
2949.37409	10088.8125
2951.83407	10085.8125
2954.29254	10071.4125
2956.74951	10078.2125
2959.20498	10085.2125
2961.65895	10069.6125
2964.11142	10080.9125
2966.56239	10070.2125
2969.01186	10073.2125
2971.45984	10037.8125
2973.90632	10023.5125
2976.35131	10018.6125
2978.7948	9994.9125
2981.23681	9967.2125
2983.67732	9972.0125
2986.11635	9919.7125
2988.55388	9906.8125
2990.98993	9916.2125
2993.4245	9891.9125
2995.85758	9859.0125
2998.28917	9841.3125
3000.71928	9830.0125
3003.14791	9803.8125
3005.57506	9807.7125
3008.00073	9743.0125
3010.42493	9771.9125
3012.84764	9741.4125
3015.26888	9747.2125
3017.68865	9718.5125
3020.10694	9698.8125
3022.52376	9694.6125
3024.9391	9664.0125
3027.35298	9649.9125
