Data from AgNPs_FTO_APTES_UA_20uM_CRN_2uM_R6G_10uM_NaF_0.1M_Addition_RamanShift__26__13-10-52-101.txt Node

Date: Thu Feb 17 13:10:52 GMT 2022
User: TCL
Spectrometer: QEP01345
Trigger mode: 4
Integration Time (sec): 7.000000E0
Scans to average: 10
Electric dark correction enabled: true
Nonlinearity correction enabled: false
Boxcar width: 0
XAxis mode: Raman Shifts
Number of Pixels in Spectrum: 1044
>>>>>Begin Spectral Data<<<<<
46.04893	-0.05
50.45542	-1.35
54.85868	-2.85
59.25871	-0.85
63.6555	123.85
68.04907	123.55
72.43941	130.05
76.82654	129.75
81.21044	133.65
85.59113	142.45
89.96862	141.25
94.34289	149.75
98.71396	153.25
103.08183	152.95
107.4465	160.15
111.80798	163.15
116.16626	173.55
120.52136	179.45
124.87327	187.05
129.222	197.15
133.56755	212.75
137.90993	228.15
142.24913	249.85
146.58517	284.75
150.91804	334.75
155.24774	396.25
159.57429	499.85
163.89768	649.35
168.21792	863.45
172.53501	1190.75
176.84895	1655.75
181.15975	2339.45
185.46741	3293.55
189.77193	4543.15
194.07331	6089.35
198.37157	7876.55
202.6667	9729.15
206.9587	11605.45
211.24758	13441.95
215.53334	15304.55
219.81599	17251.65
224.09553	19482.75
228.37195	21932.65
232.64527	24697.25
236.91549	27527.55
241.18261	30385.15
245.44663	33077.75
249.70755	35380.85
253.96539	37431.25
258.22014	39275.55
262.4718	40816.05
266.72039	41917.65
270.96589	42559.75
275.20832	42766.05
279.44768	42567.65
283.68397	42349.65
287.91719	42077.35
292.14735	41903.35
296.37445	42026.65
300.59849	42257.45
304.81948	42568.95
309.03742	42690.05
313.25231	42331.75
317.46415	41333.15
321.67296	40011.55
325.87872	39026.25
330.08145	38539.65
334.28114	38619.25
338.47781	39078.25
342.67145	39786.25
346.86207	40608.35
351.04966	41755.95
355.23424	43015.45
359.4158	44036.95
363.59435	44731.65
367.76989	45172.25
371.94243	45484.15
376.11196	45681.25
380.27849	45872.05
384.44203	46080.65
388.60257	46153.95
392.76012	46403.05
396.91468	46906.65
401.06626	47681.45
405.21485	48350.55
409.36047	48262.15
413.50311	47575.25
417.64277	46877.15
421.77947	46638.75
425.9132	46799.45
430.04396	47161.45
434.17176	47575.05
438.2966	48186.25
442.41849	49091.45
446.53742	50396.05
450.6534	51884.65
454.76644	53096.75
458.87653	53582.35
462.98368	53355.35
467.08789	52686.25
471.18916	51793.75
475.2875	50855.55
479.38291	50241.95
483.4754	49759.15
487.56496	49229.65
491.6516	48505.95
495.73531	47953.65
499.81612	47661.15
503.89401	47870.35
507.96899	47985.55
512.04106	48025.85
516.11023	47977.15
520.1765	47933.45
524.23987	47795.35
528.30034	47477.05
532.35792	47137.95
536.41261	46618.35
540.46441	46240.75
544.51333	46239.95
548.55936	46774.35
552.60252	47689.65
556.64279	48740.95
560.6802	49366.45
564.71473	49733.05
568.7464	50608.25
572.7752	51585.55
576.80114	51863.45
580.82422	51932.35
584.84444	52122.25
588.86181	52636.35
592.87633	53358.45
596.888	53862.45
600.89682	54238.45
604.9028	56727.05
608.90594	63116.85
612.90624	70112.85
616.90371	66676.85
620.89834	55563.15
624.89015	50623.45
628.87913	49948.65
632.86528	49783.35
636.84862	49511.15
640.82913	48667.05
644.80683	47426.75
648.78172	46556.45
652.75379	46609.45
656.72306	47492.05
660.68952	48639.65
664.65319	48500.85
668.61405	47633.95
672.57211	47259.45
676.52738	47184.55
680.47986	47240.55
684.42955	47186.35
688.37646	47174.55
692.32058	47499.35
696.26192	47920.55
700.20048	48452.65
704.13626	48778.75
708.06928	48675.65
711.99952	48321.35
715.927	48207.05
719.85171	48355.85
723.77365	48168.45
727.69284	47795.65
731.60928	47457.75
735.52295	47425.95
739.43388	47597.25
743.34206	47962.95
747.24749	48247.55
751.15017	48775.65
755.05012	49542.55
758.94733	51020.85
762.8418	53735.45
766.73354	57961.15
770.62254	62002.85
774.50882	63117.15
778.39237	60434.15
782.27321	55632.85
786.15132	51741.85
790.02671	49514.55
793.89938	48496.75
797.76935	48066.45
801.6366	47967.25
805.50115	47792.95
809.36299	47633.05
813.22213	47478.65
817.07857	47419.35
820.93231	47540.95
824.78336	47464.35
828.63172	47610.65
832.47738	47651.75
836.32036	47810.75
840.16066	47984.35
843.99827	48164.55
847.8332	48080.75
851.66546	47886.55
855.49504	47768.05
859.32195	47707.85
863.1462	47572.15
866.96777	47402.25
870.78668	47341.85
874.60293	47372.55
878.41652	47412.75
882.22745	47631.15
886.03573	47775.45
889.84136	47709.45
893.64433	47485.05
897.44466	47374.35
901.24235	47280.05
905.0374	47213.55
908.8298	47256.95
912.61957	47344.55
916.40671	47748.55
920.19121	48360.85
923.97308	48918.65
927.75233	49164.65
931.52895	48994.55
935.30295	48524.85
939.07433	47784.75
942.84309	47207.55
946.60924	47047.25
950.37278	46879.55
954.13371	46643.25
957.89203	46427.55
961.64774	46269.95
965.40086	46144.15
969.15137	46002.65
972.89929	45842.65
976.64461	45804.55
980.38733	45797.05
984.12747	45992.45
987.86502	46349.65
991.59999	46962.85
995.33237	47952.75
999.06217	49611.75
1002.78939	51534.05
1006.51404	52843.35
1010.23611	53603.15
1013.95561	54034.85
1017.67255	54102.15
1021.38692	53733.35
1025.09872	53397.25
1028.80796	54027.65
1032.51465	55774.35
1036.21877	57188.05
1039.92035	57269.05
1043.61937	56358.95
1047.31584	54683.75
1051.00976	52846.55
1054.70114	51910.45
1058.38998	51583.05
1062.07627	51647.45
1065.76003	51808.95
1069.44126	52090.25
1073.11995	52398.85
1076.79611	52729.85
1080.46974	53103.05
1084.14085	53612.05
1087.80943	54238.55
1091.47549	54416.65
1095.13903	53982.15
1098.80005	53140.95
1102.45857	52347.15
1106.11456	51942.95
1109.76805	51948.95
1113.41903	52502.05
1117.06751	53161.85
1120.71348	53862.95
1124.35696	54485.65
1127.99793	54978.65
1131.63641	54988.85
1135.2724	54283.85
1138.90589	53703.55
1142.5369	53281.35
1146.16542	53095.65
1149.79145	53161.95
1153.415	53563.45
1157.03607	54264.75
1160.65467	55173.95
1164.27079	56724.65
1167.88443	58950.35
1171.49561	62212.05
1175.10432	66866.45
1178.71056	72697.65
1182.31434	78155.15
1185.91565	80859.15
1189.51451	80555.65
1193.11091	77759.95
1196.70485	74111.85
1200.29634	70964.45
1203.88538	68542.15
1207.47197	66533.85
1211.05612	64864.05
1214.63782	63899.45
1218.21708	63861.75
1221.79391	64161.15
1225.36829	64245.05
1228.94024	63599.85
1232.50976	62626.85
1236.07685	61948.85
1239.6415	61816.35
1243.20374	61927.85
1246.76355	62412.65
1250.32093	63386.45
1253.8759	64786.65
1257.42845	66524.15
1260.97859	68047.35
1264.52631	69164.95
1268.07163	70436.65
1271.61453	72072.35
1275.15503	73921.45
1278.69312	75912.05
1282.22882	77480.45
1285.76211	78962.15
1289.29301	80518.85
1292.82151	82469.75
1296.34761	85065.35
1299.87133	88810.05
1303.39266	93832.65
1306.9116	100297.95
1310.42815	106938.95
1313.94233	111060.75
1317.45412	110945.55
1320.96354	108065.05
1324.47058	104571.95
1327.97525	101351.75
1331.47754	99402.05
1334.97747	99202.35
1338.47502	100445.45
1341.97022	102065.25
1345.46305	102434.95
1348.95352	101722.05
1352.44163	100935.65
1355.92738	102600.25
1359.41078	107606.25
1362.89183	112377.45
1366.37053	109670.55
1369.84688	99766.35
1373.32088	89272.65
1376.79254	82397.35
1380.26186	79020.55
1383.72883	77745.85
1387.19347	77134.15
1390.65578	76560.05
1394.11575	76690.45
1397.57339	77655.55
1401.0287	79352.35
1404.48168	81377.75
1407.93234	83208.25
1411.38068	84350.25
1414.82669	83955.65
1418.27039	81685.35
1421.71177	78470.35
1425.15083	75538.75
1428.58758	74011.55
1432.02203	73857.05
1435.45416	74514.25
1438.88399	75365.75
1442.31151	76204.25
1445.73673	77107.05
1449.15965	77967.65
1452.58027	78442.05
1455.9986	78371.35
1459.41463	78560.25
1462.82837	79288.45
1466.23982	80660.25
1469.64898	82142.85
1473.05586	83142.65
1476.46045	83668.85
1479.86276	84105.25
1483.26279	84448.05
1486.66054	84881.25
1490.05602	85976.15
1493.44922	87174.55
1496.84016	88216.55
1500.22882	89665.55
1503.61521	92189.95
1506.99934	95478.65
1510.38121	98646.05
1513.76081	99419.55
1517.13816	96670.75
1520.51324	91878.85
1523.88607	87568.25
1527.25665	84742.15
1530.62498	83332.35
1533.99105	82558.85
1537.35488	82094.35
1540.71647	81665.45
1544.07581	81159.05
1547.4329	80316.35
1550.78776	79335.35
1554.14038	78531.15
1557.49077	78139.25
1560.83892	78020.35
1564.18484	78029.25
1567.52853	77786.15
1570.86999	77570.45
1574.20922	77694.45
1577.54624	77834.85
1580.88103	77136.15
1584.2136	76713.95
1587.54395	78194.55
1590.87208	82011.15
1594.19801	87751.85
1597.52172	93905.85
1600.84321	96535.85
1604.16251	93785.55
1607.47959	87443.55
1610.79447	80331.65
1614.10715	73920.95
1617.41763	68805.55
1620.7259	65408.55
1624.03199	63899.55
1627.33587	63970.65
1630.63757	65468.95
1633.93707	68726.45
1637.23439	73270.35
1640.52951	79102.35
1643.82246	85469.95
1647.11321	90488.15
1650.40179	91510.05
1653.68819	86649.35
1656.97241	77521.45
1660.25446	68363.15
1663.53433	61731.55
1666.81203	57408.35
1670.08756	54719.15
1673.36092	53031.95
1676.63211	51911.75
1679.90115	51058.65
1683.16801	50398.55
1686.43272	50015.05
1689.69527	49689.85
1692.95567	49392.15
1696.2139	49283.15
1699.46999	49298.95
1702.72392	49112.75
1705.97571	49070.95
1709.22535	49018.65
1712.47284	48984.25
1715.71819	48941.55
1718.96139	48909.75
1722.20246	48723.35
1725.44139	48615.65
1728.67818	48416.05
1731.91284	48208.25
1735.14537	47996.35
1738.37576	47892.05
1741.60403	47732.65
1744.83017	47593.25
1748.05418	47511.45
1751.27607	47421.65
1754.49584	47397.55
1757.71349	47436.95
1760.92903	47366.75
1764.14244	47333.55
1767.35375	47312.65
1770.56294	47272.95
1773.77002	47228.85
1776.97499	47292.95
1780.17785	47205.65
1783.37861	47157.95
1786.57727	47049.85
1789.77382	47009.35
1792.96828	47074.95
1796.16064	47014.15
1799.3509	47015.65
1802.53907	46931.55
1805.72514	46812.45
1808.90913	46767.55
1812.09102	46715.25
1815.27083	46581.45
1818.44856	46553.15
1821.6242	46529.05
1824.79776	46471.55
1827.96924	46448.15
1831.13864	46480.75
1834.30597	46466.95
1837.47122	46405.35
1840.6344	46329.55
1843.7955	46435.15
1846.95454	46424.55
1850.11151	46425.45
1853.26642	46411.35
1856.41926	46434.45
1859.57004	46416.35
1862.71876	46403.55
1865.86542	46420.95
1869.01003	46410.35
1872.15258	46419.05
1875.29308	46433.85
1878.43152	46387.45
1881.56792	46390.95
1884.70227	46470.75
1887.83457	46529.25
1890.96482	46500.95
1894.09304	46469.35
1897.21921	46423.05
1900.34335	46393.15
1903.46544	46413.05
1906.58551	46460.55
1909.70353	46475.25
1912.81953	46402.05
1915.93349	46358.75
1919.04543	46333.95
1922.15534	46282.35
1925.26322	46204.25
1928.36908	46152.95
1931.47292	46043.65
1934.57473	45931.45
1937.67453	45811.35
1940.77232	45719.35
1943.86808	45560.45
1946.96184	45458.85
1950.05358	45303.55
1953.14331	45173.65
1956.23103	45055.45
1959.31675	44900.65
1962.40046	44835.55
1965.48217	44639.95
1968.56188	44508.65
1971.63959	44429.95
1974.7153	44341.55
1977.78901	44155.55
1980.86073	43986.95
1983.93046	43958.95
1986.99819	43852.65
1990.06394	43766.25
1993.1277	43637.65
1996.18947	43492.55
1999.24925	43380.75
2002.30706	43282.45
2005.36288	43180.35
2008.41672	43068.75
2011.46859	42946.15
2014.51848	42854.95
2017.56639	42733.65
2020.61233	42642.25
2023.6563	42540.15
2026.6983	42485.45
2029.73833	42371.95
2032.7764	42350.25
2035.8125	42250.85
2038.84664	42229.65
2041.87881	42211.15
2044.90903	42135.35
2047.93729	42048.55
2050.96359	42031.05
2053.98794	41963.05
2057.01034	42003.35
2060.03078	41942.85
2063.04927	41967.75
2066.06582	41905.15
2069.08042	41880.85
2072.09307	41832.75
2075.10378	41761.35
2078.11255	41670.55
2081.11938	41746.35
2084.12426	41721.35
2087.12722	41642.15
2090.12824	41579.85
2093.12732	41632.85
2096.12447	41616.35
2099.11969	41576.25
2102.11299	41581.65
2105.10435	41608.05
2108.09379	41636.05
2111.08131	41651.25
2114.0669	41641.85
2117.05057	41679.35
2120.03233	41732.15
2123.01216	41772.15
2125.99008	41811.35
2128.96609	41862.75
2131.94018	41911.95
2134.91236	41936.65
2137.88263	42065.25
2140.851	42053.45
2143.81746	42067.35
2146.78201	42043.15
2149.74466	42107.35
2152.7054	42112.05
2155.66425	42137.45
2158.6212	42143.45
2161.57625	42088.65
2164.52941	42121.55
2167.48067	42017.85
2170.43004	42037.35
2173.37752	42056.45
2176.32311	42117.95
2179.26681	42134.05
2182.20863	42109.75
2185.14856	42188.55
2188.08661	42201.85
2191.02278	42175.35
2193.95707	42172.85
2196.88948	42116.05
2199.82001	42188.75
2202.74867	42104.65
2205.67545	42113.25
2208.60037	42106.15
2211.52341	42081.25
2214.44458	42023.85
2217.36388	41995.25
2220.28132	41979.05
2223.1969	41931.35
2226.11061	41786.65
2229.02246	41674.25
2231.93245	41653.75
2234.84058	41534.05
2237.74686	41533.85
2240.65128	41533.05
2243.55385	41415.95
2246.45456	41378.35
2249.35343	41350.65
2252.25044	41342.95
2255.14561	41226.35
2258.03893	41249.05
2260.93041	41131.75
2263.82004	41063.85
2266.70783	40960.25
2269.59378	40881.55
2272.4779	40785.55
2275.36017	40707.75
2278.24061	40637.35
2281.11922	40565.75
2283.996	40561.35
2286.87094	40526.25
2289.74405	40466.65
2292.61534	40527.05
2295.4848	40408.65
2298.35243	40464.75
2301.21824	40437.35
2304.08223	40479.85
2306.94439	40512.25
2309.80474	40529.45
2312.66327	40597.45
2315.51999	40516.05
2318.37489	40507.95
2321.22797	40480.35
2324.07925	40532.55
2326.92871	40453.55
2329.77637	40398.25
2332.62222	40368.85
2335.46626	40415.55
2338.3085	40432.65
2341.14893	40477.35
2343.98756	40481.85
2346.8244	40463.75
2349.65943	40527.95
2352.49267	40526.15
2355.32411	40506.95
2358.15376	40460.05
2360.98161	40508.65
2363.80768	40354.95
2366.63195	40304.05
2369.45444	40286.25
2372.27514	40180.35
2375.09405	40180.75
2377.91118	40060.05
2380.72652	39962.95
2383.54009	39796.95
2386.35187	39768.35
2389.16188	39644.95
2391.97011	39639.75
2394.77657	39608.95
2397.58125	39599.55
2400.38416	39512.15
2403.18529	39398.15
2405.98466	39314.65
2408.78226	39275.05
2411.57809	39154.65
2414.37216	39069.55
2417.16446	39072.45
2419.955	39057.25
2422.74378	39043.95
2425.5308	39033.15
2428.31606	38997.95
2431.09956	38999.65
2433.88131	38953.45
2436.6613	38976.15
2439.43954	38956.05
2442.21603	38954.45
2444.99077	38869.25
2447.76377	38882.15
2450.53501	38830.45
2453.30451	38881.95
2456.07226	38774.05
2458.83827	38744.85
2461.60254	38765.95
2464.36507	38754.25
2467.12586	38766.45
2469.88492	38766.75
2472.64224	38859.25
2475.39782	38795.55
2478.15167	38804.75
2480.90379	38874.95
2483.65417	38949.35
2486.40283	38971.25
2489.14976	38997.95
2491.89497	38984.45
2494.63845	39073.25
2497.3802	39050.15
2500.12024	39035.85
2502.85855	38985.45
2505.59514	39020.75
2508.33002	38934.65
2511.06318	38873.85
2513.79462	38824.85
2516.52435	38819.75
2519.25237	38760.35
2521.97867	38736.75
2524.70327	38727.45
2527.42616	38664.65
2530.14734	38704.75
2532.86681	38630.65
2535.58458	38640.85
2538.30065	38625.85
2541.01501	38690.45
2543.72768	38632.75
2546.43864	38624.85
2549.14791	38528.35
2551.85548	38530.25
2554.56136	38423.15
2557.26554	38376.95
2559.96803	38331.85
2562.66883	38320.65
2565.36794	38243.25
2568.06536	38259.65
2570.7611	38191.95
2573.45514	38164.55
2576.14751	38150.55
2578.83819	38106.65
2581.52719	38214.15
2584.21451	38156.05
2586.90015	38146.25
2589.58411	38136.05
2592.2664	38130.05
2594.94701	38119.75
2597.62594	38124.85
2600.30321	38093.65
2602.9788	38147.85
2605.65273	38127.05
2608.32498	38216.35
2610.99557	38107.05
2613.66449	38187.15
2616.33175	38207.85
2618.99734	38148.65
2621.66128	38155.55
2624.32355	38088.75
2626.98416	38171.65
2629.64311	38129.25
2632.30041	38147.95
2634.95605	38096.65
2637.61004	38057.15
2640.26238	38028.15
2642.91306	37973.95
2645.56209	37906.05
2648.20948	37873.35
2650.85521	37895.05
2653.4993	37855.35
2656.14175	37843.75
2658.78255	37904.35
2661.42171	37890.05
2664.05923	37985.05
2666.6951	37973.35
2669.32934	37988.55
2671.96194	38055.25
2674.59291	38106.15
2677.22224	38096.55
2679.84993	38152.25
2682.476	38094.25
2685.10043	38076.35
2687.72324	38018.25
2690.34441	38026.15
2692.96396	37957.95
2695.58188	38060.55
2698.19818	37955.85
2700.81285	37905.25
2703.4259	37887.55
2706.03733	37944.35
2708.64714	37917.85
2711.25533	37968.05
2713.86191	37969.35
2716.46687	38054.45
2719.07021	38007.15
2721.67194	38022.65
2724.27206	38028.05
2726.87057	38068.95
2729.46747	38126.05
2732.06276	38105.65
2734.65644	38109.25
2737.24852	38143.25
2739.83899	38121.25
2742.42786	38142.05
2745.01513	38094.05
2747.60079	38079.05
2750.18486	38129.95
2752.76733	38080.95
2755.3482	38076.45
2757.92747	38045.05
2760.50515	37962.05
2763.08123	38015.35
2765.65573	37978.05
2768.22863	38021.75
2770.79994	37894.85
2773.36967	37958.85
2775.9378	37970.45
2778.50435	37962.95
2781.06932	37932.65
2783.6327	37986.15
2786.1945	37950.85
2788.75471	37882.35
2791.31335	37812.85
2793.87041	37745.85
2796.42589	37734.75
2798.97979	37683.85
2801.53212	37544.35
2804.08288	37505.25
2806.63206	37415.35
2809.17967	37417.35
2811.72571	37282.55
2814.27018	37240.85
2816.81308	37175.95
2819.35442	37149.25
2821.89419	37137.05
2824.43239	37156.35
2826.96904	37171.15
2829.50412	37201.95
2832.03763	37074.15
2834.56959	37066.85
2837.1	37012.15
2839.62884	36974.85
2842.15613	36941.55
2844.68186	37000.25
2847.20604	36887.95
2849.72867	36914.05
2852.24974	36837.55
2854.76927	36750.95
2857.28724	36772.65
2859.80367	36789.45
2862.31855	36686.85
2864.83189	36655.75
2867.34368	36553.95
2869.85393	36605.55
2872.36264	36585.05
2874.8698	36563.35
2877.37543	36529.85
2879.87952	36505.95
2882.38207	36601.75
2884.88308	36517.25
2887.38256	36575.45
2889.88051	36547.05
2892.37692	36594.65
2894.8718	36569.25
2897.36515	36631.55
2899.85698	36629.75
2902.34727	36686.65
2904.83604	36715.55
2907.32328	36782.35
2909.809	36819.05
2912.29319	36829.85
2914.77587	36822.75
2917.25702	36755.25
2919.73665	36721.95
2922.21476	36751.55
2924.69136	36653.65
2927.16644	36665.55
2929.64	36602.85
2932.11205	36579.05
2934.58258	36526.55
2937.05161	36608.55
2939.51912	36593.05
2941.98513	36518.05
2944.44962	36462.65
2946.91261	36396.95
2949.37409	36492.15
2951.83407	36455.95
2954.29254	36396.45
2956.74951	36417.25
2959.20498	36400.05
2961.65895	36358.45
2964.11142	36347.35
2966.56239	36285.85
2969.01186	36246.35
2971.45984	36127.45
2973.90632	36078.85
2976.35131	36013.85
2978.7948	35977.05
2981.23681	35915.65
2983.67732	35915.35
2986.11635	35798.85
2988.55388	35687.75
2990.98993	35669.85
2993.4245	35609.65
2995.85758	35573.95
2998.28917	35385.35
3000.71928	35333.45
3003.14791	35267.75
3005.57506	35301.15
3008.00073	35228.55
3010.42493	35149.55
3012.84764	35053.55
3015.26888	35036.05
3017.68865	34947.25
3020.10694	34872.35
3022.52376	34780.85
3024.9391	34784.65
3027.35298	34744.25
3029.76539	34691.85
3032.17632	34697.35
3034.5858	34649.65
3036.9938	34628.15
3039.40034	34623.55
3041.80542	34570.55
3044.20903	34546.25
3046.61118	34532.55
3049.01187	34419.05
3051.4111	34348.95
3053.80888	34290.55
3056.20519	34226.15
3058.60005	34135.05
3060.99345	34060.85
3063.3854	33952.85
3065.7759	33808.05
3068.16494	33691.25
3070.55254	33581.45
3072.93868	33478.75
3075.32338	33377.95
3077.70662	33352.85
3080.08842	33225.65
3082.46878	33147.45
3084.84769	33129.65
3087.22515	33088.05
3089.60118	33077.15
3091.97576	33043.55
3094.3489	33042.05
3096.72061	32979.55
3099.09087	33023.35
3101.4597	32943.15
3103.82709	33009.05
3106.19305	32932.25
3108.55757	32973.25
3110.92066	32849.65
3113.28232	32879.35
3115.64255	32736.85
3118.00134	32652.05
3120.35871	32555.75
3122.71466	32443.75
3125.06917	32405.85
3127.42226	32351.45
3129.77393	32385.35
3132.12417	32296.15
3134.47299	32281.95
3136.82039	32234.85
3139.16636	32219.05
3141.51092	32202.85
3143.85406	32150.75
3146.19579	32133.95
3148.53609	32168.15
3150.87499	32148.55
3153.21246	32162.05
3155.54853	32170.65
3157.88318	32137.75
3160.21642	32133.35
3162.54826	32100.15
3164.87868	32039.25
3167.2077	32008.05
3169.5353	31992.35
3171.86151	31980.75
3174.18631	31984.65
3176.5097	31983.65
3178.83169	31894.65
3181.15228	31854.95
3183.47147	31776.25
3185.78926	31807.25
3188.10565	31805.85
3190.42065	31751.85
3192.73424	31691.85
3195.04645	31655.75
3197.35725	31637.15
3199.66667	31635.65
3201.97469	31642.75
3204.28132	31600.65
3206.58656	31587.45
3208.8904	31596.45
3211.19287	31663.05
3213.49394	31632.75
3215.79363	31628.15
3218.09193	31658.45
3220.38884	31633.95
3222.68438	31675.45
3224.97853	31565.65
3227.2713	31577.75
3229.56269	31554.25
3231.8527	31563.75
3234.14133	31481.25
