Data from AgNPs_FTO_APTES_UA_20uM_CRN_10uM_R6G_10uM_NaF_0.1M_Addition_RamanShift__25__14-39-32-217.txt Node

Date: Thu Feb 17 14:39:32 GMT 2022
User: TCL
Spectrometer: QEP01345
Trigger mode: 4
Integration Time (sec): 7.000000E0
Scans to average: 10
Electric dark correction enabled: true
Nonlinearity correction enabled: false
Boxcar width: 0
XAxis mode: Raman Shifts
Number of Pixels in Spectrum: 1044
>>>>>Begin Spectral Data<<<<<
46.04893	-0.075
50.45542	0.025
54.85868	-4.575
59.25871	0.025
63.6555	125.025
68.04907	125.725
72.43941	129.925
76.82654	133.525
81.21044	134.025
85.59113	145.925
89.96862	147.725
94.34289	148.025
98.71396	152.125
103.08183	161.125
107.4465	160.525
111.80798	166.625
116.16626	174.125
120.52136	178.825
124.87327	189.325
129.222	203.625
133.56755	214.725
137.90993	228.425
142.24913	252.025
146.58517	286.825
150.91804	338.225
155.24774	401.525
159.57429	506.625
163.89768	654.825
168.21792	875.225
172.53501	1208.825
176.84895	1691.825
181.15975	2382.225
185.46741	3338.225
189.77193	4641.225
194.07331	6230.025
198.37157	8063.625
202.6667	9990.325
206.9587	11910.625
211.24758	13756.325
215.53334	15659.025
219.81599	17610.525
224.09553	19839.725
228.37195	22307.125
232.64527	25035.525
236.91549	27883.925
241.18261	30866.425
245.44663	33646.825
249.70755	36086.525
253.96539	38310.625
258.22014	40149.425
262.4718	41715.825
266.72039	42887.025
270.96589	43484.025
275.20832	43649.525
279.44768	43461.925
283.68397	43081.325
287.91719	42704.525
292.14735	42472.525
296.37445	42528.325
300.59849	42686.725
304.81948	42893.925
309.03742	42976.725
313.25231	42698.525
317.46415	41933.025
321.67296	40894.925
325.87872	40047.125
330.08145	39721.225
334.28114	39846.825
338.47781	40226.925
342.67145	40834.825
346.86207	41631.125
351.04966	42615.025
355.23424	43641.825
359.4158	44579.825
363.59435	45244.625
367.76989	45677.425
371.94243	46039.925
376.11196	46314.425
380.27849	46553.825
384.44203	46767.425
388.60257	46937.925
392.76012	47202.925
396.91468	47647.825
401.06626	48349.025
405.21485	48953.725
409.36047	48949.325
413.50311	48278.825
417.64277	47714.125
421.77947	47501.125
425.9132	47660.725
430.04396	47962.525
434.17176	48371.625
438.2966	48911.725
442.41849	49757.725
446.53742	50851.025
450.6534	52151.225
454.76644	53171.225
458.87653	53709.225
462.98368	53447.425
467.08789	52828.525
471.18916	52010.525
475.2875	51143.425
479.38291	50558.925
483.4754	50102.625
487.56496	49584.425
491.6516	49067.425
495.73531	48705.525
499.81612	48594.425
503.89401	48781.025
507.96899	48882.425
512.04106	48923.325
516.11023	48973.125
520.1765	49071.025
524.23987	49101.125
528.30034	48813.025
532.35792	48563.025
536.41261	48156.325
540.46441	47807.525
544.51333	47782.425
548.55936	48175.925
552.60252	48901.325
556.64279	49648.125
560.6802	50120.625
564.71473	50212.825
568.7464	50697.925
572.7752	51346.325
576.80114	51545.725
580.82422	51761.525
584.84444	52260.925
588.86181	52834.325
592.87633	53598.025
596.888	54141.325
600.89682	54497.925
604.9028	56668.525
608.90594	62084.425
612.90624	68034.225
616.90371	65165.525
620.89834	55790.325
624.89015	51736.225
628.87913	51160.825
632.86528	50989.925
636.84862	50595.625
640.82913	49922.525
644.80683	48952.725
648.78172	48273.725
652.75379	48230.325
656.72306	48970.125
660.68952	49955.325
664.65319	49880.125
668.61405	49164.725
672.57211	48863.125
676.52738	48876.525
680.47986	48882.625
684.42955	48791.825
688.37646	48820.925
692.32058	49099.525
696.26192	49499.725
700.20048	49951.525
704.13626	50169.525
708.06928	50059.325
711.99952	49652.625
715.927	49586.525
719.85171	49762.025
723.77365	49621.525
727.69284	49408.325
731.60928	49060.325
735.52295	49060.225
739.43388	49226.625
743.34206	49560.225
747.24749	49813.325
751.15017	50100.925
755.05012	50783.025
758.94733	51900.525
762.8418	54060.825
766.73354	57509.125
770.62254	61030.625
774.50882	62241.725
778.39237	60050.925
782.27321	55970.225
786.15132	52648.025
790.02671	50697.225
793.89938	49919.325
797.76935	49562.925
801.6366	49429.825
805.50115	49301.625
809.36299	49159.925
813.22213	49011.525
817.07857	48992.425
820.93231	48951.525
824.78336	49018.025
828.63172	49058.325
832.47738	49195.025
836.32036	49335.325
840.16066	49491.525
843.99827	49660.925
847.8332	49611.425
851.66546	49448.625
855.49504	49332.325
859.32195	49318.625
863.1462	49132.225
866.96777	49052.925
870.78668	49037.025
874.60293	49122.325
878.41652	49125.225
882.22745	49229.825
886.03573	49359.525
889.84136	49256.925
893.64433	49080.625
897.44466	48971.325
901.24235	48878.525
905.0374	48899.925
908.8298	48798.925
912.61957	48901.225
916.40671	49243.925
920.19121	49751.625
923.97308	50218.425
927.75233	50441.425
931.52895	50361.825
935.30295	49959.725
939.07433	49380.825
942.84309	48847.825
946.60924	48609.425
950.37278	48473.525
954.13371	48297.225
957.89203	48091.525
961.64774	47949.925
965.40086	47789.725
969.15137	47686.725
972.89929	47547.425
976.64461	47521.625
980.38733	47514.725
984.12747	47675.825
987.86502	48042.125
991.59999	48571.725
995.33237	49495.325
999.06217	50901.925
1002.78939	52585.925
1006.51404	53561.125
1010.23611	54053.025
1013.95561	54459.025
1017.67255	54582.025
1021.38692	54295.625
1025.09872	54166.625
1028.80796	54854.325
1032.51465	56437.325
1036.21877	57729.625
1039.92035	57732.325
1043.61937	56927.325
1047.31584	55424.525
1051.00976	53759.625
1054.70114	52890.425
1058.38998	52617.825
1062.07627	52625.625
1065.76003	52757.325
1069.44126	52851.125
1073.11995	53067.325
1076.79611	53390.125
1080.46974	53698.625
1084.14085	54130.025
1087.80943	54602.825
1091.47549	54729.425
1095.13903	54380.425
1098.80005	53655.825
1102.45857	53060.225
1106.11456	52767.425
1109.76805	52919.525
1113.41903	53463.525
1117.06751	54036.425
1120.71348	54597.525
1124.35696	55099.825
1127.99793	55497.425
1131.63641	55428.425
1135.2724	54840.825
1138.90589	54319.425
1142.5369	53926.225
1146.16542	53696.325
1149.79145	53630.325
1153.415	53977.525
1157.03607	54439.325
1160.65467	55169.825
1164.27079	56498.025
1167.88443	58386.825
1171.49561	61055.925
1175.10432	64764.725
1178.71056	69769.325
1182.31434	74347.725
1185.91565	76755.825
1189.51451	76395.325
1193.11091	73886.525
1196.70485	70542.025
1200.29634	67828.125
1203.88538	65778.225
1207.47197	64119.725
1211.05612	62696.325
1214.63782	61812.725
1218.21708	61833.025
1221.79391	62167.725
1225.36829	62321.625
1228.94024	61975.425
1232.50976	61100.125
1236.07685	60486.825
1239.6415	60337.025
1243.20374	60504.525
1246.76355	60999.925
1250.32093	61925.725
1253.8759	63081.025
1257.42845	64551.925
1260.97859	65770.925
1264.52631	66586.125
1268.07163	67706.925
1271.61453	69034.425
1275.15503	70565.225
1278.69312	72257.525
1282.22882	73648.825
1285.76211	74762.325
1289.29301	75731.325
1292.82151	77110.625
1296.34761	78999.525
1299.87133	81943.025
1303.39266	86196.225
1306.9116	91563.625
1310.42815	97230.625
1313.94233	100545.025
1317.45412	100221.525
1320.96354	97487.225
1324.47058	94163.025
1327.97525	91138.125
1331.47754	89244.425
1334.97747	89015.425
1338.47502	90206.225
1341.97022	91656.925
1345.46305	92357.925
1348.95352	92283.325
1352.44163	92318.325
1355.92738	94276.825
1359.41078	98896.125
1362.89183	103202.425
1366.37053	100923.025
1369.84688	92231.725
1373.32088	82981.125
1376.79254	76820.625
1380.26186	73760.125
1383.72883	72507.625
1387.19347	71818.425
1390.65578	71144.525
1394.11575	70846.825
1397.57339	71229.925
1401.0287	72402.325
1404.48168	73822.125
1407.93234	75298.825
1411.38068	76397.525
1414.82669	76447.025
1418.27039	75025.725
1421.71177	72730.725
1425.15083	70649.825
1428.58758	69428.925
1432.02203	69380.525
1435.45416	69961.825
1438.88399	70630.825
1442.31151	71289.325
1445.73673	71890.825
1449.15965	72387.025
1452.58027	72653.825
1455.9986	72488.425
1459.41463	72509.425
1462.82837	73145.525
1466.23982	74252.925
1469.64898	75606.925
1473.05586	76771.025
1476.46045	77450.225
1479.86276	77925.825
1483.26279	78380.725
1486.66054	78683.025
1490.05602	79633.425
1493.44922	80692.425
1496.84016	81546.525
1500.22882	82706.225
1503.61521	84956.025
1506.99934	88109.325
1510.38121	90768.325
1513.76081	91347.525
1517.13816	88848.425
1520.51324	84698.825
1523.88607	80904.025
1527.25665	78445.925
1530.62498	77221.825
1533.99105	76492.525
1537.35488	76052.525
1540.71647	75733.025
1544.07581	75327.725
1547.4329	74869.325
1550.78776	74146.225
1554.14038	73395.725
1557.49077	73130.625
1560.83892	73074.625
1564.18484	72890.825
1567.52853	72774.625
1570.86999	72856.625
1574.20922	72964.725
1577.54624	72903.025
1580.88103	72203.525
1584.2136	71743.725
1587.54395	72751.525
1590.87208	75595.125
1594.19801	80180.725
1597.52172	85313.625
1600.84321	87730.325
1604.16251	85665.325
1607.47959	80784.625
1610.79447	75175.125
1614.10715	70035.825
1617.41763	65965.225
1620.7259	63253.725
1624.03199	61917.125
1627.33587	61851.225
1630.63757	63097.825
1633.93707	65639.925
1637.23439	69246.225
1640.52951	73813.125
1643.82246	78924.625
1647.11321	82869.125
1650.40179	83641.425
1653.68819	79779.425
1656.97241	72377.825
1660.25446	65142.225
1663.53433	59702.025
1666.81203	56328.225
1670.08756	54256.825
1673.36092	52763.325
1676.63211	51832.125
1679.90115	51080.025
1683.16801	50560.025
1686.43272	50148.925
1689.69527	49912.025
1692.95567	49714.125
1696.2139	49571.225
1699.46999	49527.325
1702.72392	49462.525
1705.97571	49397.725
1709.22535	49351.125
1712.47284	49338.725
1715.71819	49334.525
1718.96139	49260.025
1722.20246	49187.525
1725.44139	48998.025
1728.67818	48806.125
1731.91284	48692.325
1735.14537	48437.625
1738.37576	48325.925
1741.60403	48196.725
1744.83017	48088.525
1748.05418	47911.725
1751.27607	47897.725
1754.49584	47879.225
1757.71349	47894.225
1760.92903	47872.825
1764.14244	47848.325
1767.35375	47759.225
1770.56294	47703.425
1773.77002	47741.125
1776.97499	47719.425
1780.17785	47617.825
1783.37861	47606.625
1786.57727	47536.625
1789.77382	47482.525
1792.96828	47509.525
1796.16064	47536.125
1799.3509	47433.225
1802.53907	47375.625
1805.72514	47290.725
1808.90913	47186.025
1812.09102	47109.125
1815.27083	47069.325
1818.44856	46958.325
1821.6242	46957.625
1824.79776	46889.725
1827.96924	46964.825
1831.13864	46868.725
1834.30597	46872.525
1837.47122	46828.025
1840.6344	46710.325
1843.7955	46745.925
1846.95454	46812.325
1850.11151	46817.825
1853.26642	46788.225
1856.41926	46811.625
1859.57004	46794.525
1862.71876	46757.525
1865.86542	46743.625
1869.01003	46771.625
1872.15258	46713.325
1875.29308	46783.825
1878.43152	46686.525
1881.56792	46739.425
1884.70227	46776.125
1887.83457	46753.825
1890.96482	46719.325
1894.09304	46642.925
1897.21921	46629.625
1900.34335	46553.525
1903.46544	46578.225
1906.58551	46532.325
1909.70353	46586.125
1912.81953	46498.325
1915.93349	46519.325
1919.04543	46431.525
1922.15534	46383.425
1925.26322	46308.125
1928.36908	46257.125
1931.47292	46255.825
1934.57473	46126.025
1937.67453	46078.325
1940.77232	45960.725
1943.86808	45846.225
1946.96184	45702.525
1950.05358	45584.625
1953.14331	45444.625
1956.23103	45314.425
1959.31675	45223.525
1962.40046	45084.225
1965.48217	44933.325
1968.56188	44835.225
1971.63959	44681.725
1974.7153	44587.925
1977.78901	44453.025
1980.86073	44334.625
1983.93046	44282.725
1986.99819	44072.225
1990.06394	43994.825
1993.1277	43913.425
1996.18947	43791.525
1999.24925	43665.225
2002.30706	43611.825
2005.36288	43484.225
2008.41672	43370.225
2011.46859	43248.025
2014.51848	43154.525
2017.56639	43042.925
2020.61233	42961.825
2023.6563	42864.125
2026.6983	42752.925
2029.73833	42669.225
2032.7764	42586.925
2035.8125	42539.325
2038.84664	42515.525
2041.87881	42454.125
2044.90903	42403.825
2047.93729	42353.225
2050.96359	42370.925
2053.98794	42245.525
2057.01034	42289.425
2060.03078	42212.925
2063.04927	42168.725
2066.06582	42212.225
2069.08042	42167.925
2072.09307	42096.625
2075.10378	42022.525
2078.11255	41924.425
2081.11938	41991.525
2084.12426	42015.425
2087.12722	41984.525
2090.12824	41936.325
2093.12732	41988.925
2096.12447	41982.425
2099.11969	41931.125
2102.11299	41905.625
2105.10435	41947.525
2108.09379	41991.925
2111.08131	42035.425
2114.0669	41989.525
2117.05057	42029.325
2120.03233	42118.925
2123.01216	42156.025
2125.99008	42251.925
2128.96609	42278.025
2131.94018	42298.325
2134.91236	42329.525
2137.88263	42385.225
2140.851	42375.725
2143.81746	42459.925
2146.78201	42491.625
2149.74466	42524.425
2152.7054	42550.425
2155.66425	42523.825
2158.6212	42503.425
2161.57625	42477.725
2164.52941	42427.625
2167.48067	42454.725
2170.43004	42432.725
2173.37752	42408.425
2176.32311	42501.325
2179.26681	42499.225
2182.20863	42512.425
2185.14856	42577.925
2188.08661	42547.025
2191.02278	42593.825
2193.95707	42523.725
2196.88948	42489.325
2199.82001	42527.825
2202.74867	42484.225
2205.67545	42481.525
2208.60037	42439.725
2211.52341	42419.625
2214.44458	42417.325
2217.36388	42392.525
2220.28132	42331.125
2223.1969	42169.225
2226.11061	42178.525
2229.02246	42023.325
2231.93245	42008.325
2234.84058	41903.825
2237.74686	41810.225
2240.65128	41801.725
2243.55385	41747.425
2246.45456	41809.525
2249.35343	41732.725
2252.25044	41711.025
2255.14561	41647.025
2258.03893	41570.925
2260.93041	41511.125
2263.82004	41467.425
2266.70783	41323.725
2269.59378	41281.025
2272.4779	41156.625
2275.36017	41159.725
2278.24061	41065.225
2281.11922	40965.025
2283.996	40855.825
2286.87094	40905.125
2289.74405	40908.025
2292.61534	40847.725
2295.4848	40777.625
2298.35243	40797.725
2301.21824	40787.425
2304.08223	40834.725
2306.94439	40853.425
2309.80474	40867.025
2312.66327	40943.325
2315.51999	40955.425
2318.37489	40885.425
2321.22797	40879.525
2324.07925	40839.525
2326.92871	40779.625
2329.77637	40774.425
2332.62222	40723.525
2335.46626	40763.725
2338.3085	40713.725
2341.14893	40747.125
2343.98756	40699.525
2346.8244	40743.525
2349.65943	40774.825
2352.49267	40778.325
2355.32411	40793.425
2358.15376	40794.725
2360.98161	40714.525
2363.80768	40627.825
2366.63195	40601.425
2369.45444	40528.225
2372.27514	40479.025
2375.09405	40441.625
2377.91118	40337.925
2380.72652	40236.125
2383.54009	40109.125
2386.35187	40058.025
2389.16188	40027.125
2391.97011	39910.425
2394.77657	39888.525
2397.58125	39810.225
2400.38416	39784.525
2403.18529	39653.725
2405.98466	39673.825
2408.78226	39508.225
2411.57809	39468.925
2414.37216	39370.125
2417.16446	39427.525
2419.955	39333.625
2422.74378	39283.825
2425.5308	39268.125
2428.31606	39301.025
2431.09956	39232.825
2433.88131	39231.825
2436.6613	39257.725
2439.43954	39218.925
2442.21603	39179.025
2444.99077	39161.025
2447.76377	39133.425
2450.53501	39071.925
2453.30451	39059.325
2456.07226	39018.025
2458.83827	39020.425
2461.60254	39014.225
2464.36507	39016.025
2467.12586	38994.825
2469.88492	39001.025
2472.64224	39048.225
2475.39782	38999.125
2478.15167	39063.925
2480.90379	39068.325
2483.65417	39151.025
2486.40283	39141.325
2489.14976	39158.125
2491.89497	39179.425
2494.63845	39187.825
2497.3802	39167.325
2500.12024	39193.925
2502.85855	39154.525
2505.59514	39147.925
2508.33002	39051.825
2511.06318	39007.625
2513.79462	38910.725
2516.52435	38916.225
2519.25237	38868.025
2521.97867	38851.725
2524.70327	38825.025
2527.42616	38842.725
2530.14734	38828.125
2532.86681	38737.225
2535.58458	38767.525
2538.30065	38727.225
2541.01501	38729.925
2543.72768	38773.225
2546.43864	38680.925
2549.14791	38689.725
2551.85548	38596.325
2554.56136	38491.825
2557.26554	38394.025
2559.96803	38409.425
2562.66883	38358.725
2565.36794	38390.925
2568.06536	38300.225
2570.7611	38278.525
2573.45514	38213.825
2576.14751	38209.625
2578.83819	38182.625
2581.52719	38195.325
2584.21451	38132.925
2586.90015	38127.525
2589.58411	38141.425
2592.2664	38125.425
2594.94701	38090.325
2597.62594	38093.225
2600.30321	38052.325
2602.9788	38048.725
2605.65273	38040.125
2608.32498	38047.125
2610.99557	38016.925
2613.66449	38062.725
2616.33175	38060.825
2618.99734	38013.325
2621.66128	38007.025
2624.32355	38014.225
2626.98416	38014.725
2629.64311	38009.425
2632.30041	38003.025
2634.95605	38011.325
2637.61004	37936.625
2640.26238	37884.725
2642.91306	37824.725
2645.56209	37725.125
2648.20948	37756.325
2650.85521	37695.625
2653.4993	37717.325
2656.14175	37678.325
2658.78255	37732.825
2661.42171	37762.125
2664.05923	37792.325
2666.6951	37789.725
2669.32934	37834.625
2671.96194	37815.325
2674.59291	37900.425
2677.22224	37907.025
2679.84993	37900.725
2682.476	37845.025
2685.10043	37825.925
2687.72324	37816.225
2690.34441	37804.425
2692.96396	37802.325
2695.58188	37837.425
2698.19818	37731.425
2700.81285	37682.025
2703.4259	37647.825
2706.03733	37778.325
2708.64714	37698.125
2711.25533	37740.325
2713.86191	37742.025
2716.46687	37840.125
2719.07021	37793.325
2721.67194	37806.125
2724.27206	37773.025
2726.87057	37801.325
2729.46747	37799.725
2732.06276	37787.325
2734.65644	37802.925
2737.24852	37929.125
2739.83899	37887.325
2742.42786	37898.425
2745.01513	37837.025
2747.60079	37855.025
2750.18486	37825.825
2752.76733	37830.925
2755.3482	37718.725
2757.92747	37748.525
2760.50515	37661.425
2763.08123	37696.725
2765.65573	37639.625
2768.22863	37717.425
2770.79994	37585.825
2773.36967	37652.825
2775.9378	37697.525
2778.50435	37706.125
2781.06932	37647.825
2783.6327	37578.425
2786.1945	37604.725
2788.75471	37539.025
2791.31335	37441.525
2793.87041	37469.625
2796.42589	37359.425
2798.97979	37346.725
2801.53212	37229.225
2804.08288	37212.425
2806.63206	37099.125
2809.17967	37051.225
2811.72571	36934.625
2814.27018	36879.025
2816.81308	36795.925
2819.35442	36759.725
2821.89419	36725.225
2824.43239	36748.225
2826.96904	36752.225
2829.50412	36809.625
2832.03763	36711.225
2834.56959	36682.725
2837.1	36637.625
2839.62884	36599.925
2842.15613	36537.025
2844.68186	36479.525
2847.20604	36485.525
2849.72867	36503.825
2852.24974	36423.325
2854.76927	36382.525
2857.28724	36323.125
2859.80367	36375.825
2862.31855	36332.125
2864.83189	36233.925
2867.34368	36209.925
2869.85393	36252.225
2872.36264	36170.825
2874.8698	36151.925
2877.37543	36157.125
2879.87952	36075.325
2882.38207	36158.225
2884.88308	36138.125
2887.38256	36144.525
2889.88051	36169.025
2892.37692	36170.725
2894.8718	36177.825
2897.36515	36251.025
2899.85698	36233.025
2902.34727	36277.125
2904.83604	36260.325
2907.32328	36326.825
2909.809	36333.025
2912.29319	36371.625
2914.77587	36363.825
2917.25702	36388.225
2919.73665	36365.425
2922.21476	36324.825
2924.69136	36227.725
2927.16644	36241.225
2929.64	36150.725
2932.11205	36124.725
2934.58258	36060.125
2937.05161	36134.625
2939.51912	36149.825
2941.98513	36132.825
2944.44962	36078.025
2946.91261	36050.025
2949.37409	36137.925
2951.83407	36108.225
2954.29254	36088.025
2956.74951	36021.325
2959.20498	36062.525
2961.65895	35967.225
2964.11142	36022.025
2966.56239	35922.625
2969.01186	35913.525
2971.45984	35835.125
2973.90632	35823.325
2976.35131	35748.625
2978.7948	35696.525
2981.23681	35617.325
2983.67732	35580.225
2986.11635	35512.025
2988.55388	35462.425
2990.98993	35450.925
2993.4245	35315.425
2995.85758	35331.925
2998.28917	35227.225
3000.71928	35184.725
3003.14791	35069.425
3005.57506	35070.325
3008.00073	34992.925
3010.42493	34926.925
3012.84764	34822.225
3015.26888	34839.825
3017.68865	34803.625
3020.10694	34727.525
3022.52376	34664.025
3024.9391	34647.425
3027.35298	34616.625
3029.76539	34599.025
3032.17632	34563.625
3034.5858	34511.125
3036.9938	34445.025
3039.40034	34473.925
3041.80542	34448.625
3044.20903	34361.225
3046.61118	34323.825
3049.01187	34219.225
3051.4111	34194.725
3053.80888	34042.425
3056.20519	34084.325
3058.60005	33925.325
3060.99345	33930.225
3063.3854	33823.825
3065.7759	33687.625
3068.16494	33628.325
3070.55254	33531.725
3072.93868	33428.425
3075.32338	33304.625
3077.70662	33254.625
3080.08842	33153.225
3082.46878	33116.925
3084.84769	33059.625
3087.22515	33090.725
3089.60118	33082.425
3091.97576	33016.025
3094.3489	32985.025
3096.72061	32991.025
3099.09087	33024.025
3101.4597	32974.325
3103.82709	32974.325
3106.19305	32893.125
3108.55757	32985.525
3110.92066	32875.125
3113.28232	32846.925
3115.64255	32755.425
3118.00134	32687.525
3120.35871	32543.125
3122.71466	32499.625
3125.06917	32466.625
