Data from AgNPs_FTO_APTES_UA_10uM_CRN_50uM_R6G_10uM_NaF_0.1M_Addition_RamanShift__6__16-42-24-815.txt Node

Date: Thu Feb 17 16:42:24 GMT 2022
User: TCL
Spectrometer: QEP01345
Trigger mode: 4
Integration Time (sec): 1.000000E1
Scans to average: 7
Electric dark correction enabled: true
Nonlinearity correction enabled: false
Boxcar width: 0
XAxis mode: Raman Shifts
Number of Pixels in Spectrum: 1044
>>>>>Begin Spectral Data<<<<<
46.04893	0.78571
50.45542	-0.5
54.85868	0.07143
59.25871	-3.21429
63.6555	77.64286
68.04907	78.21429
72.43941	83.92857
76.82654	87.92857
81.21044	89.92857
85.59113	93.07143
89.96862	100.92857
94.34289	98.92857
98.71396	106.5
103.08183	108.07143
107.4465	113.92857
111.80798	108.92857
116.16626	116.78571
120.52136	115.07143
124.87327	126.35714
129.222	126.35714
133.56755	133.21429
137.90993	146.64286
142.24913	154.92857
146.58517	174.78571
150.91804	199.35714
155.24774	239.92857
159.57429	291.5
163.89768	376.21429
168.21792	503.64286
172.53501	690.5
176.84895	971.35714
181.15975	1370.64286
185.46741	1931.92857
189.77193	2672.35714
194.07331	3617.78571
198.37157	4676.5
202.6667	5774.5
206.9587	6908.64286
211.24758	8019.07143
215.53334	9109.07143
219.81599	10268.64286
224.09553	11561.5
228.37195	13002.35714
232.64527	14586.78571
236.91549	16195.35714
241.18261	17792.21429
245.44663	19212.5
249.70755	20503.21429
253.96539	21558.78571
258.22014	22459.64286
262.4718	23230.92857
266.72039	23674.78571
270.96589	23900.5
275.20832	23837.64286
279.44768	23572.07143
283.68397	23244.5
287.91719	22977.21429
292.14735	22829.64286
296.37445	22880.35714
300.59849	23141.92857
304.81948	23540.78571
309.03742	23878.64286
313.25231	23940.64286
317.46415	23701.35714
321.67296	22974.92857
325.87872	22355.21429
330.08145	22052.92857
334.28114	22076.64286
338.47781	22296.07143
342.67145	22597.21429
346.86207	23106.07143
351.04966	23704.78571
355.23424	24315.64286
359.4158	24823.07143
363.59435	25156.64286
367.76989	25288.64286
371.94243	25327.92857
376.11196	25287.64286
380.27849	25259.92857
384.44203	25339.21429
388.60257	25404.64286
392.76012	25602.5
396.91468	25852.92857
401.06626	26266.64286
405.21485	26546.07143
409.36047	26341.07143
413.50311	25800.5
417.64277	25283.92857
421.77947	25020.07143
425.9132	24984.35714
430.04396	24981.78571
434.17176	25090.07143
438.2966	25219.35714
442.41849	25540.92857
446.53742	26009.21429
450.6534	26499.5
454.76644	26809.07143
458.87653	26905.78571
462.98368	26808.5
467.08789	26600.78571
471.18916	26332.35714
475.2875	25923.5
479.38291	25607.35714
483.4754	25283.64286
487.56496	25099.78571
491.6516	25016.5
495.73531	25050.21429
499.81612	25107.35714
503.89401	25259.21429
507.96899	25375.35714
512.04106	25472.78571
516.11023	25567.07143
520.1765	25652.92857
524.23987	25667.92857
528.30034	25621.5
532.35792	25576.78571
536.41261	25394.07143
540.46441	25120.35714
544.51333	24971.5
548.55936	25069.35714
552.60252	25306.35714
556.64279	25737.21429
560.6802	25906.35714
564.71473	25989.78571
568.7464	26146.78571
572.7752	26343.92857
576.80114	26446.64286
580.82422	26574.92857
584.84444	27111.5
588.86181	27790.78571
592.87633	28298.64286
596.888	28537.21429
600.89682	28347.21429
604.9028	29216.21429
608.90594	32586.92857
612.90624	36766.21429
616.90371	35314.78571
620.89834	29175.64286
624.89015	26200.5
628.87913	25716.92857
632.86528	25981.64286
636.84862	26252.21429
640.82913	26056.78571
644.80683	25440.07143
648.78172	25021.5
652.75379	25015.07143
656.72306	25420.5
660.68952	25967.07143
664.65319	25853.35714
668.61405	25347.5
672.57211	25146.78571
676.52738	25315.07143
680.47986	25263.21429
684.42955	25120.64286
688.37646	24999.92857
692.32058	24991.5
696.26192	25241.5
700.20048	25498.21429
704.13626	25699.07143
708.06928	25635.35714
711.99952	25480.35714
715.927	25455.35714
719.85171	25498.64286
723.77365	25552.5
727.69284	25353.5
731.60928	25164.07143
735.52295	25155.92857
739.43388	25169.64286
743.34206	25201.21429
747.24749	25274.21429
751.15017	25367.78571
755.05012	25505.78571
758.94733	26089.92857
762.8418	27391.64286
766.73354	29640.64286
770.62254	31928.21429
774.50882	32717.07143
778.39237	31684.21429
782.27321	29547.64286
786.15132	27495.07143
790.02671	26139.92857
793.89938	25432.5
797.76935	25159.64286
801.6366	25032.21429
805.50115	24928.92857
809.36299	24800.21429
813.22213	24738.64286
817.07857	24696.5
820.93231	24645.35714
824.78336	24654.21429
828.63172	24683.78571
832.47738	24665.78571
836.32036	24688.92857
840.16066	24662.92857
843.99827	24613.21429
847.8332	24620.07143
851.66546	24636.21429
855.49504	24656.35714
859.32195	24679.64286
863.1462	24652.5
866.96777	24749.78571
870.78668	24732.35714
874.60293	24764.92857
878.41652	24772.35714
882.22745	24891.5
886.03573	24913.64286
889.84136	24959.07143
893.64433	24918.64286
897.44466	24812.92857
901.24235	24755.35714
905.0374	24669.07143
908.8298	24561.92857
912.61957	24520.21429
916.40671	24571.92857
920.19121	24649.64286
923.97308	24849.64286
927.75233	25019.92857
931.52895	25079.35714
935.30295	24943.35714
939.07433	24533.07143
942.84309	24266.92857
946.60924	24068.21429
950.37278	24003.21429
954.13371	23927.35714
957.89203	23963.78571
961.64774	23931.92857
965.40086	23834.21429
969.15137	23879.92857
972.89929	23876.35714
976.64461	23826.5
980.38733	23836.5
984.12747	23887.64286
987.86502	23991.21429
991.59999	24108.78571
995.33237	24251.35714
999.06217	24461.35714
1002.78939	24782.5
1006.51404	25103.21429
1010.23611	25417.35714
1013.95561	25627.07143
1017.67255	25693.5
1021.38692	25555.35714
1025.09872	25300.5
1028.80796	25082.5
1032.51465	25037.92857
1036.21877	25118.07143
1039.92035	25205.78571
1043.61937	25306.21429
1047.31584	25321.64286
1051.00976	25292.5
1054.70114	25320.35714
1058.38998	25308.5
1062.07627	25382.92857
1065.76003	25490.92857
1069.44126	25805.21429
1073.11995	26110.07143
1076.79611	26497.21429
1080.46974	26808.64286
1084.14085	27007.21429
1087.80943	27215.21429
1091.47549	27319.5
1095.13903	27111.78571
1098.80005	26718.5
1102.45857	26332.07143
1106.11456	26098.5
1109.76805	25976.07143
1113.41903	26074.64286
1117.06751	26326.21429
1120.71348	26740.92857
1124.35696	27180.21429
1127.99793	27675.5
1131.63641	27760.5
1135.2724	27307.92857
1138.90589	26865.35714
1142.5369	26590.5
1146.16542	26378.78571
1149.79145	26218.5
1153.415	26160.07143
1157.03607	26195.35714
1160.65467	26480.78571
1164.27079	27088.92857
1167.88443	27927.35714
1171.49561	29179.21429
1175.10432	30962.64286
1178.71056	33316.07143
1182.31434	35345.64286
1185.91565	36269.07143
1189.51451	36036.64286
1193.11091	35115.92857
1196.70485	33835.07143
1200.29634	32593.78571
1203.88538	31401.92857
1207.47197	30247.64286
1211.05612	29274.35714
1214.63782	28559.64286
1218.21708	28208.35714
1221.79391	27950.21429
1225.36829	27929.64286
1228.94024	27955.78571
1232.50976	27955.35714
1236.07685	27870.5
1239.6415	27750.5
1243.20374	27756.78571
1246.76355	27849.07143
1250.32093	28059.64286
1253.8759	28403.64286
1257.42845	28844.64286
1260.97859	29463.07143
1264.52631	30197.92857
1268.07163	30751.78571
1271.61453	31338.5
1275.15503	31851.07143
1278.69312	32124.07143
1282.22882	32522.21429
1285.76211	33090.21429
1289.29301	33798.78571
1292.82151	34628.78571
1296.34761	35526.5
1299.87133	36716.78571
1303.39266	38363.35714
1306.9116	40576.64286
1310.42815	43088.5
1313.94233	44425.92857
1317.45412	43767.07143
1320.96354	42001.5
1324.47058	40158.21429
1327.97525	38477.5
1331.47754	37322.64286
1334.97747	36819.92857
1338.47502	36758.35714
1341.97022	37135.21429
1345.46305	37933.5
1348.95352	39248.5
1352.44163	41067.35714
1355.92738	43388.5
1359.41078	46349.64286
1362.89183	49048.35714
1366.37053	48188.5
1369.84688	43361.5
1373.32088	38075.5
1376.79254	34618.78571
1380.26186	32881.07143
1383.72883	31990.21429
1387.19347	31242.07143
1390.65578	30504.21429
1394.11575	29851.92857
1397.57339	29514.35714
1401.0287	29365.5
1404.48168	29314.92857
1407.93234	29368.21429
1411.38068	29415.78571
1414.82669	29424.21429
1418.27039	29316.35714
1421.71177	29086.92857
1425.15083	28698.64286
1428.58758	28552.78571
1432.02203	28600.07143
1435.45416	28923.64286
1438.88399	29212.78571
1442.31151	29262.92857
1445.73673	29234.07143
1449.15965	29297.92857
1452.58027	29255.35714
1455.9986	29159.07143
1459.41463	29220.78571
1462.82837	29491.07143
1466.23982	30064.78571
1469.64898	30625.5
1473.05586	31083.07143
1476.46045	31428.07143
1479.86276	31735.21429
1483.26279	32108.21429
1486.66054	32526.78571
1490.05602	33319.64286
1493.44922	34351.92857
1496.84016	35883.21429
1500.22882	38128.07143
1503.61521	41079.07143
1506.99934	44297.07143
1510.38121	46491.64286
1513.76081	46428.07143
1517.13816	43713.35714
1520.51324	39911.35714
1523.88607	36623.64286
1527.25665	34569.35714
1530.62498	33499.07143
1533.99105	32866.92857
1537.35488	32327.21429
1540.71647	31859.5
1544.07581	31420.21429
1547.4329	31035.21429
1550.78776	30711.78571
1554.14038	30569.78571
1557.49077	30587.64286
1560.83892	30810.07143
1564.18484	31257.78571
1567.52853	31887.78571
1570.86999	32381.21429
1574.20922	32758.78571
1577.54624	32692.5
1580.88103	31856.35714
1584.2136	30709.64286
1587.54395	30175.07143
1590.87208	30482.5
1594.19801	31564.64286
1597.52172	33025.5
1600.84321	33828.07143
1604.16251	33256.35714
1607.47959	32104.64286
1610.79447	30715.35714
1614.10715	29127.35714
1617.41763	27809.64286
1620.7259	26840.21429
1624.03199	26279.92857
1627.33587	26190.5
1630.63757	26528.64286
1633.93707	27316.64286
1637.23439	28757.78571
1640.52951	31123.78571
1643.82246	34316.21429
1647.11321	37743.5
1650.40179	39386.64286
1653.68819	37854.5
1656.97241	34030.21429
1660.25446	30021.64286
1663.53433	27163.78571
1666.81203	25454.21429
1670.08756	24464.78571
1673.36092	23900.64286
1676.63211	23533.35714
1679.90115	23165.35714
1683.16801	22927.92857
1686.43272	22725.64286
1689.69527	22618.92857
1692.95567	22539.92857
1696.2139	22413.21429
1699.46999	22385.07143
1702.72392	22359.78571
1705.97571	22337.5
1709.22535	22325.64286
1712.47284	22314.78571
1715.71819	22313.21429
1718.96139	22309.35714
1722.20246	22215.78571
1725.44139	22134.78571
1728.67818	22087.21429
1731.91284	21989.21429
1735.14537	21900.78571
1738.37576	21819.07143
1741.60403	21720.64286
1744.83017	21651.92857
1748.05418	21591.35714
1751.27607	21588.07143
1754.49584	21563.78571
1757.71349	21581.78571
1760.92903	21552.64286
1764.14244	21546.35714
1767.35375	21508.64286
1770.56294	21508.21429
1773.77002	21436.5
1776.97499	21388.5
1780.17785	21368.35714
1783.37861	21333.07143
1786.57727	21291.07143
1789.77382	21288.21429
1792.96828	21237.07143
1796.16064	21192.64286
1799.3509	21172.92857
1802.53907	21121.64286
1805.72514	21052.21429
1808.90913	21051.35714
1812.09102	21007.64286
1815.27083	20984.5
1818.44856	20932.07143
1821.6242	20914.35714
1824.79776	20869.78571
1827.96924	20831.21429
1831.13864	20838.92857
1834.30597	20830.78571
1837.47122	20801.21429
1840.6344	20788.07143
1843.7955	20805.07143
1846.95454	20789.92857
1850.11151	20758.78571
1853.26642	20768.07143
1856.41926	20709.5
1859.57004	20705.92857
1862.71876	20689.78571
1865.86542	20698.35714
1869.01003	20665.07143
1872.15258	20671.21429
1875.29308	20662.21429
1878.43152	20616.64286
1881.56792	20594.35714
1884.70227	20563.07143
1887.83457	20528.92857
1890.96482	20501.78571
1894.09304	20506.92857
1897.21921	20522.64286
1900.34335	20470.5
1903.46544	20404.5
1906.58551	20433.21429
1909.70353	20357.92857
1912.81953	20403.35714
1915.93349	20327.64286
1919.04543	20285.35714
1922.15534	20263.21429
1925.26322	20264.07143
1928.36908	20245.64286
1931.47292	20162.78571
1934.57473	20114.5
1937.67453	20093.5
1940.77232	20022.5
1943.86808	19997.78571
1946.96184	19914.92857
1950.05358	19869.35714
1953.14331	19887.64286
1956.23103	19820.64286
1959.31675	19763.64286
1962.40046	19707.07143
1965.48217	19696.92857
1968.56188	19582.78571
1971.63959	19550.07143
1974.7153	19483.92857
1977.78901	19467.5
1980.86073	19391.78571
1983.93046	19369.78571
1986.99819	19271.92857
1990.06394	19202.78571
1993.1277	19154.5
1996.18947	19126.07143
1999.24925	19046.92857
2002.30706	18999.5
2005.36288	18963.21429
2008.41672	18921.92857
2011.46859	18883.5
2014.51848	18776.21429
2017.56639	18752.21429
2020.61233	18726.92857
2023.6563	18647.35714
2026.6983	18584.5
2029.73833	18560.5
2032.7764	18509.78571
2035.8125	18412.21429
2038.84664	18447.92857
2041.87881	18387.21429
2044.90903	18410.21429
2047.93729	18319.5
2050.96359	18350.92857
2053.98794	18324.5
2057.01034	18313.21429
2060.03078	18277.07143
2063.04927	18272.78571
2066.06582	18300.21429
2069.08042	18282.21429
2072.09307	18256.92857
2075.10378	18213.78571
2078.11255	18221.64286
2081.11938	18282.21429
2084.12426	18199.78571
2087.12722	18196.64286
2090.12824	18183.35714
2093.12732	18168.35714
2096.12447	18184.92857
2099.11969	18240.92857
2102.11299	18277.35714
2105.10435	18244.07143
2108.09379	18276.64286
2111.08131	18270.92857
2114.0669	18288.5
2117.05057	18316.07143
2120.03233	18305.5
2123.01216	18347.07143
2125.99008	18344.35714
2128.96609	18396.35714
2131.94018	18424.92857
2134.91236	18391.64286
2137.88263	18417.07143
2140.851	18414.78571
2143.81746	18456.5
2146.78201	18445.78571
2149.74466	18429.35714
2152.7054	18480.07143
2155.66425	18429.21429
2158.6212	18423.92857
2161.57625	18435.64286
2164.52941	18370.35714
2167.48067	18388.78571
2170.43004	18426.64286
2173.37752	18438.21429
2176.32311	18447.35714
2179.26681	18445.35714
2182.20863	18452.64286
2185.14856	18456.35714
2188.08661	18419.78571
2191.02278	18391.35714
2193.95707	18444.21429
2196.88948	18408.07143
2199.82001	18369.64286
2202.74867	18319.92857
2205.67545	18327.5
2208.60037	18342.5
2211.52341	18300.5
2214.44458	18289.5
2217.36388	18208.21429
2220.28132	18177.64286
2223.1969	18171.5
2226.11061	18137.78571
2229.02246	18084.07143
2231.93245	18076.21429
2234.84058	18046.64286
2237.74686	18022.07143
2240.65128	18058.07143
2243.55385	18045.21429
2246.45456	17985.07143
2249.35343	17940.78571
2252.25044	17975.07143
2255.14561	17940.07143
2258.03893	17931.21429
2260.93041	17918.5
2263.82004	17826.78571
2266.70783	17845.78571
2269.59378	17746.64286
2272.4779	17764.64286
2275.36017	17726.64286
2278.24061	17719.21429
2281.11922	17645.21429
2283.996	17670.07143
2286.87094	17626.5
2289.74405	17590.92857
2292.61534	17601.35714
2295.4848	17555.21429
2298.35243	17545.92857
2301.21824	17549.5
2304.08223	17572.78571
2306.94439	17491.35714
2309.80474	17544.07143
2312.66327	17491.92857
2315.51999	17500.64286
2318.37489	17414.78571
2321.22797	17426.21429
2324.07925	17482.35714
2326.92871	17374.35714
2329.77637	17352.92857
2332.62222	17334.78571
2335.46626	17333.21429
2338.3085	17342.78571
2341.14893	17348.21429
2343.98756	17304.64286
2346.8244	17304.64286
2349.65943	17293.92857
2352.49267	17286.64286
2355.32411	17294.64286
2358.15376	17322.64286
2360.98161	17343.64286
2363.80768	17285.21429
2366.63195	17254.92857
2369.45444	17314.92857
2372.27514	17264.64286
2375.09405	17249.78571
2377.91118	17204.78571
2380.72652	17181.64286
2383.54009	17134.21429
2386.35187	17082.07143
2389.16188	17021.64286
2391.97011	16998.78571
2394.77657	17035.92857
2397.58125	17003.92857
2400.38416	16950.07143
2403.18529	16898.64286
2405.98466	16914.78571
2408.78226	16852.64286
2411.57809	16909.35714
2414.37216	16864.35714
2417.16446	16864.21429
2419.955	16825.78571
2422.74378	16837.07143
2425.5308	16794.78571
2428.31606	16828.64286
2431.09956	16800.35714
2433.88131	16724.64286
2436.6613	16797.78571
2439.43954	16804.35714
2442.21603	16784.07143
2444.99077	16743.5
2447.76377	16765.21429
2450.53501	16735.78571
2453.30451	16740.5
2456.07226	16743.64286
2458.83827	16702.64286
2461.60254	16668.92857
2464.36507	16682.92857
2467.12586	16618.5
2469.88492	16592.35714
2472.64224	16628.35714
2475.39782	16663.92857
2478.15167	16712.35714
2480.90379	16660.07143
2483.65417	16664.78571
2486.40283	16659.35714
2489.14976	16674.21429
2491.89497	16665.64286
2494.63845	16673.92857
2497.3802	16669.07143
2500.12024	16670.21429
2502.85855	16611.92857
2505.59514	16605.07143
2508.33002	16542.92857
2511.06318	16507.07143
2513.79462	16467.78571
2516.52435	16483.07143
2519.25237	16463.64286
2521.97867	16426.78571
2524.70327	16442.5
2527.42616	16358.5
2530.14734	16392.92857
2532.86681	16348.64286
2535.58458	16348.21429
2538.30065	16321.64286
2541.01501	16333.35714
2543.72768	16368.21429
2546.43864	16280.78571
2549.14791	16277.92857
2551.85548	16246.35714
2554.56136	16260.35714
2557.26554	16251.5
2559.96803	16199.78571
2562.66883	16161.35714
2565.36794	16168.78571
2568.06536	16113.35714
2570.7611	16114.35714
2573.45514	16100.78571
2576.14751	16080.07143
2578.83819	15998.35714
2581.52719	15996.07143
2584.21451	15955.78571
2586.90015	15995.64286
2589.58411	15932.21429
2592.2664	15924.64286
2594.94701	15895.92857
2597.62594	15881.21429
2600.30321	15840.35714
2602.9788	15837.78571
2605.65273	15816.07143
2608.32498	15821.64286
2610.99557	15808.78571
2613.66449	15771.35714
2616.33175	15773.07143
2618.99734	15771.21429
2621.66128	15748.64286
2624.32355	15695.5
2626.98416	15667.5
2629.64311	15679.5
2632.30041	15672.35714
2634.95605	15635.21429
2637.61004	15583.35714
2640.26238	15575.92857
2642.91306	15586.35714
2645.56209	15583.5
2648.20948	15577.5
2650.85521	15580.5
2653.4993	15557.5
2656.14175	15600.35714
2658.78255	15605.35714
2661.42171	15570.78571
2664.05923	15601.5
2666.6951	15597.5
2669.32934	15656.64286
2671.96194	15633.78571
2674.59291	15626.21429
2677.22224	15577.64286
2679.84993	15583.92857
2682.476	15582.07143
2685.10043	15571.64286
2687.72324	15552.21429
2690.34441	15599.5
2692.96396	15625.35714
2695.58188	15639.21429
2698.19818	15582.35714
2700.81285	15584.92857
2703.4259	15568.78571
2706.03733	15567.35714
2708.64714	15613.92857
2711.25533	15584.07143
2713.86191	15613.07143
2716.46687	15629.35714
2719.07021	15608.5
2721.67194	15610.92857
2724.27206	15646.78571
2726.87057	15658.21429
2729.46747	15667.92857
2732.06276	15642.21429
2734.65644	15602.5
2737.24852	15638.64286
2739.83899	15613.5
2742.42786	15599.5
2745.01513	15574.5
2747.60079	15551.78571
2750.18486	15517.35714
2752.76733	15487.07143
2755.3482	15477.21429
2757.92747	15498.64286
2760.50515	15477.07143
2763.08123	15472.35714
2765.65573	15453.35714
2768.22863	15455.64286
2770.79994	15409.21429
2773.36967	15390.92857
2775.9378	15366.92857
2778.50435	15369.21429
2781.06932	15335.35714
2783.6327	15321.07143
2786.1945	15295.21429
2788.75471	15268.07143
2791.31335	15226.64286
2793.87041	15250.64286
2796.42589	15245.5
2798.97979	15245.64286
2801.53212	15204.07143
2804.08288	15175.78571
2806.63206	15206.21429
2809.17967	15100.92857
2811.72571	15081.5
2814.27018	15058.35714
2816.81308	15034.35714
2819.35442	14982.35714
2821.89419	14982.78571
2824.43239	14984.78571
2826.96904	14970.64286
2829.50412	14924.21429
2832.03763	14934.5
2834.56959	14932.64286
2837.1	14913.07143
2839.62884	14939.78571
2842.15613	14907.64286
2844.68186	14918.64286
2847.20604	14948.5
2849.72867	14926.92857
2852.24974	14883.35714
2854.76927	14935.78571
2857.28724	14902.35714
2859.80367	14894.07143
2862.31855	14861.35714
2864.83189	14885.21429
2867.34368	14861.07143
2869.85393	14868.92857
2872.36264	14828.92857
2874.8698	14803.78571
2877.37543	14798.92857
2879.87952	14768.21429
2882.38207	14817.21429
2884.88308	14789.78571
2887.38256	14791.78571
2889.88051	14803.64286
2892.37692	14780.64286
2894.8718	14775.21429
2897.36515	14820.64286
2899.85698	14807.78571
2902.34727	14836.07143
2904.83604	14806.78571
2907.32328	14848.07143
2909.809	14827.78571
2912.29319	14850.35714
2914.77587	14813.07143
2917.25702	14840.07143
2919.73665	14823.07143
2922.21476	14822.78571
2924.69136	14795.07143
2927.16644	14823.78571
2929.64	14802.07143
2932.11205	14762.78571
2934.58258	14755.35714
2937.05161	14731.92857
2939.51912	14732.07143
2941.98513	14724.07143
2944.44962	14705.5
2946.91261	14648.35714
2949.37409	14692.07143
2951.83407	14663.35714
2954.29254	14673.92857
2956.74951	14635.35714
2959.20498	14644.07143
2961.65895	14675.07143
2964.11142	14661.5
2966.56239	14592.78571
2969.01186	14598.92857
2971.45984	14561.5
2973.90632	14589.21429
2976.35131	14553.92857
2978.7948	14534.07143
2981.23681	14517.07143
