Data from AgNPs_FTO_APTES_UA_20uM_CRN_20uM_R6G_10uM_NaF_0.1M_Addition_RamanShift__15__15-07-32-254.txt Node

Date: Thu Feb 17 15:07:32 GMT 2022
User: TCL
Spectrometer: QEP01345
Trigger mode: 4
Integration Time (sec): 7.000000E0
Scans to average: 10
Electric dark correction enabled: true
Nonlinearity correction enabled: false
Boxcar width: 0
XAxis mode: Raman Shifts
Number of Pixels in Spectrum: 1044
>>>>>Begin Spectral Data<<<<<
46.04893	0.275
50.45542	-1.325
54.85868	-4.025
59.25871	-0.225
63.6555	127.375
68.04907	128.975
72.43941	137.875
76.82654	137.675
81.21044	136.575
85.59113	146.975
89.96862	146.675
94.34289	152.675
98.71396	154.375
103.08183	162.675
107.4465	170.875
111.80798	170.175
116.16626	175.675
120.52136	182.275
124.87327	189.775
129.222	206.075
133.56755	218.575
137.90993	234.175
142.24913	258.875
146.58517	292.675
150.91804	344.975
155.24774	409.775
159.57429	508.275
163.89768	657.675
168.21792	876.375
172.53501	1213.775
176.84895	1701.675
181.15975	2419.875
185.46741	3434.075
189.77193	4766.975
194.07331	6418.975
198.37157	8311.275
202.6667	10320.275
206.9587	12322.075
211.24758	14228.775
215.53334	16151.775
219.81599	18150.275
224.09553	20277.075
228.37195	22609.875
232.64527	25244.175
236.91549	28082.475
241.18261	31136.575
245.44663	34059.575
249.70755	36838.575
253.96539	39355.975
258.22014	41552.875
262.4718	43189.975
266.72039	44371.675
270.96589	45057.475
275.20832	45193.375
279.44768	44974.075
283.68397	44519.775
287.91719	43995.475
292.14735	43517.675
296.37445	43239.075
300.59849	43047.475
304.81948	42917.475
309.03742	42821.075
313.25231	42632.875
317.46415	42330.875
321.67296	42058.575
325.87872	41869.475
330.08145	41902.075
334.28114	42123.375
338.47781	42535.375
342.67145	43021.775
346.86207	43574.775
351.04966	44228.775
355.23424	44940.975
359.4158	45617.175
363.59435	46210.975
367.76989	46795.375
371.94243	47213.375
376.11196	47637.875
380.27849	48057.175
384.44203	48375.775
388.60257	48736.875
392.76012	49094.875
396.91468	49475.875
401.06626	49939.975
405.21485	50321.375
409.36047	50440.475
413.50311	50371.075
417.64277	50137.875
421.77947	50070.975
425.9132	50150.075
430.04396	50422.575
434.17176	50718.275
438.2966	51086.475
442.41849	51516.775
446.53742	52099.375
450.6534	52728.575
454.76644	53210.275
458.87653	53622.875
462.98368	53786.175
467.08789	53801.675
471.18916	53750.075
475.2875	53475.375
479.38291	53357.775
483.4754	53231.375
487.56496	53115.575
491.6516	53098.275
495.73531	53132.875
499.81612	53123.975
503.89401	53409.175
507.96899	53588.975
512.04106	53686.075
516.11023	53798.875
520.1765	53891.575
524.23987	54031.975
528.30034	53981.975
532.35792	53937.175
536.41261	53933.675
540.46441	53720.075
544.51333	53765.875
548.55936	53951.275
552.60252	54316.175
556.64279	54693.575
560.6802	54847.475
564.71473	54999.475
568.7464	55090.675
572.7752	55188.875
576.80114	55379.975
580.82422	55575.675
584.84444	55833.275
588.86181	56040.175
592.87633	56198.675
596.888	56429.975
600.89682	56861.775
604.9028	58179.475
608.90594	60814.675
612.90624	63647.075
616.90371	62453.475
620.89834	58425.675
624.89015	56598.575
628.87913	56372.975
632.86528	56576.375
636.84862	56757.875
640.82913	56767.675
644.80683	56414.075
648.78172	56116.375
652.75379	56145.275
656.72306	56517.075
660.68952	57050.775
664.65319	57139.275
668.61405	56932.775
672.57211	57054.175
676.52738	57312.775
680.47986	57391.575
684.42955	57200.175
688.37646	57212.375
692.32058	57472.075
696.26192	57764.175
700.20048	58217.875
704.13626	58458.075
708.06928	58415.375
711.99952	58284.375
715.927	58198.875
719.85171	58233.775
723.77365	58260.675
727.69284	58275.175
731.60928	58032.975
735.52295	57974.275
739.43388	58039.275
743.34206	58071.475
747.24749	58134.075
751.15017	58307.875
755.05012	58506.375
758.94733	58950.475
762.8418	59721.875
766.73354	61170.475
770.62254	62767.275
774.50882	63562.775
778.39237	63119.475
782.27321	61744.075
786.15132	60378.275
790.02671	59363.175
793.89938	58872.275
797.76935	58727.575
801.6366	58579.075
805.50115	58515.875
809.36299	58486.975
813.22213	58471.375
817.07857	58502.775
820.93231	58552.175
824.78336	58627.375
828.63172	58775.875
832.47738	58847.775
836.32036	58898.175
840.16066	58951.575
843.99827	59076.575
847.8332	59171.275
851.66546	59242.775
855.49504	59344.575
859.32195	59470.875
863.1462	59578.875
866.96777	59540.475
870.78668	59541.975
874.60293	59690.275
878.41652	59784.975
882.22745	59933.575
886.03573	60006.675
889.84136	60012.175
893.64433	59867.875
897.44466	59687.975
901.24235	59642.375
905.0374	59661.975
908.8298	59565.675
912.61957	59578.575
916.40671	59672.775
920.19121	59755.475
923.97308	59929.375
927.75233	59846.375
931.52895	59818.775
935.30295	59815.475
939.07433	59646.375
942.84309	59408.375
946.60924	59361.175
950.37278	59214.175
954.13371	59207.675
957.89203	59156.875
961.64774	59076.575
965.40086	59045.675
969.15137	59026.575
972.89929	58930.075
976.64461	58974.475
980.38733	59056.375
984.12747	59177.975
987.86502	59366.775
991.59999	59619.575
995.33237	59853.975
999.06217	60149.375
1002.78939	60491.875
1006.51404	60838.075
1010.23611	61049.175
1013.95561	61348.875
1017.67255	61442.675
1021.38692	61372.375
1025.09872	61255.275
1028.80796	61094.075
1032.51465	61265.175
1036.21877	61479.575
1039.92035	61510.575
1043.61937	61573.275
1047.31584	61422.675
1051.00976	61416.875
1054.70114	61429.375
1058.38998	61501.375
1062.07627	61665.675
1065.76003	61910.575
1069.44126	62176.575
1073.11995	62564.375
1076.79611	62967.775
1080.46974	63295.275
1084.14085	63321.175
1087.80943	63515.675
1091.47549	63611.475
1095.13903	63602.975
1098.80005	63457.275
1102.45857	63284.575
1106.11456	63153.575
1109.76805	63040.275
1113.41903	63025.775
1117.06751	62994.875
1120.71348	63102.275
1124.35696	63246.275
1127.99793	63467.875
1131.63641	63430.775
1135.2724	63205.975
1138.90589	62964.775
1142.5369	62770.275
1146.16542	62618.175
1149.79145	62360.975
1153.415	62242.175
1157.03607	62191.975
1160.65467	62338.075
1164.27079	62875.575
1167.88443	63570.575
1171.49561	64552.175
1175.10432	65867.475
1178.71056	67479.175
1182.31434	69160.375
1185.91565	70222.975
1189.51451	70477.275
1193.11091	70193.275
1196.70485	69404.675
1200.29634	68554.575
1203.88538	67795.175
1207.47197	67037.075
1211.05612	66244.975
1214.63782	65567.275
1218.21708	65041.475
1221.79391	64814.675
1225.36829	64732.375
1228.94024	64608.675
1232.50976	64381.475
1236.07685	64238.075
1239.6415	64247.575
1243.20374	64496.075
1246.76355	64727.375
1250.32093	65017.375
1253.8759	65516.875
1257.42845	66065.875
1260.97859	66513.275
1264.52631	67057.475
1268.07163	67546.075
1271.61453	67953.575
1275.15503	68358.975
1278.69312	68626.275
1282.22882	68860.975
1285.76211	69003.875
1289.29301	69140.875
1292.82151	69529.575
1296.34761	69967.775
1299.87133	70840.675
1303.39266	71987.775
1306.9116	73577.175
1310.42815	75188.175
1313.94233	76114.375
1317.45412	76153.275
1320.96354	75530.275
1324.47058	74675.675
1327.97525	73745.875
1331.47754	72929.275
1334.97747	72646.075
1338.47502	72835.975
1341.97022	73481.675
1345.46305	74379.875
1348.95352	75210.075
1352.44163	76106.875
1355.92738	76786.475
1359.41078	77828.775
1362.89183	78772.575
1366.37053	77887.075
1369.84688	74702.775
1373.32088	71364.975
1376.79254	68933.675
1380.26186	67416.875
1383.72883	66705.775
1387.19347	66136.875
1390.65578	65482.475
1394.11575	64844.175
1397.57339	64268.475
1401.0287	64085.475
1404.48168	64139.375
1407.93234	64190.875
1411.38068	64299.675
1414.82669	64329.475
1418.27039	64079.675
1421.71177	63789.975
1425.15083	63454.775
1428.58758	63286.075
1432.02203	63182.475
1435.45416	63348.075
1438.88399	63464.375
1442.31151	63606.475
1445.73673	63719.275
1449.15965	63808.675
1452.58027	63828.675
1455.9986	63721.375
1459.41463	63794.175
1462.82837	64203.475
1466.23982	64718.375
1469.64898	65398.675
1473.05586	65936.075
1476.46045	66369.675
1479.86276	66553.175
1483.26279	66689.375
1486.66054	66837.175
1490.05602	67157.175
1493.44922	67661.475
1496.84016	68362.175
1500.22882	69505.075
1503.61521	71225.475
1506.99934	72948.375
1510.38121	74046.475
1513.76081	74082.075
1517.13816	72878.875
1520.51324	71017.275
1523.88607	69392.775
1527.25665	68224.475
1530.62498	67592.575
1533.99105	67284.275
1537.35488	67022.275
1540.71647	66942.475
1544.07581	66872.175
1547.4329	66790.775
1550.78776	66695.675
1554.14038	66531.675
1557.49077	66552.775
1560.83892	66516.375
1564.18484	66572.575
1567.52853	66788.875
1570.86999	66992.275
1574.20922	67269.875
1577.54624	67215.075
1580.88103	66683.875
1584.2136	66112.075
1587.54395	65961.975
1590.87208	66434.875
1594.19801	67438.575
1597.52172	68808.875
1600.84321	69541.375
1604.16251	69189.075
1607.47959	68304.775
1610.79447	67153.375
1614.10715	65619.175
1617.41763	64168.475
1620.7259	63019.575
1624.03199	62303.775
1627.33587	62102.075
1630.63757	62228.275
1633.93707	62774.675
1637.23439	63906.175
1640.52951	65612.275
1643.82246	67773.975
1647.11321	69702.175
1650.40179	70507.775
1653.68819	69471.075
1656.97241	66885.675
1660.25446	64109.475
1663.53433	61962.375
1666.81203	60781.275
1670.08756	59850.475
1673.36092	59293.975
1676.63211	58890.175
1679.90115	58570.575
1683.16801	58151.975
1686.43272	57949.775
1689.69527	57806.175
1692.95567	57729.075
1696.2139	57673.475
1699.46999	57696.875
1702.72392	57700.975
1705.97571	57651.075
1709.22535	57568.775
1712.47284	57659.675
1715.71819	57676.275
1718.96139	57623.875
1722.20246	57562.675
1725.44139	57404.575
1728.67818	57336.675
1731.91284	57084.575
1735.14537	57015.975
1738.37576	56955.375
1741.60403	56884.175
1744.83017	56789.675
1748.05418	56714.275
1751.27607	56612.575
1754.49584	56600.075
1757.71349	56629.875
1760.92903	56575.675
1764.14244	56477.075
1767.35375	56498.075
1770.56294	56415.875
1773.77002	56387.575
1776.97499	56370.175
1780.17785	56237.375
1783.37861	56210.875
1786.57727	56205.675
1789.77382	56179.875
1792.96828	56174.475
1796.16064	55968.175
1799.3509	55882.375
1802.53907	55856.575
1805.72514	55736.675
1808.90913	55611.075
1812.09102	55660.275
1815.27083	55524.075
1818.44856	55452.575
1821.6242	55394.175
1824.79776	55407.975
1827.96924	55324.375
1831.13864	55278.375
1834.30597	55302.975
1837.47122	55186.675
1840.6344	55126.175
1843.7955	55127.175
1846.95454	55077.575
1850.11151	55045.175
1853.26642	55058.875
1856.41926	54999.775
1859.57004	54903.275
1862.71876	54824.175
1865.86542	54832.375
1869.01003	54821.175
1872.15258	54801.375
1875.29308	54679.175
1878.43152	54701.475
1881.56792	54673.075
1884.70227	54548.275
1887.83457	54431.675
1890.96482	54417.875
1894.09304	54348.775
1897.21921	54324.975
1900.34335	54235.675
1903.46544	54212.875
1906.58551	54088.475
1909.70353	54129.475
1912.81953	54054.475
1915.93349	53977.875
1919.04543	53827.575
1922.15534	53735.075
1925.26322	53652.575
1928.36908	53573.775
1931.47292	53553.275
1934.57473	53467.275
1937.67453	53341.475
1940.77232	53281.875
1943.86808	53169.175
1946.96184	53053.675
1950.05358	52980.075
1953.14331	52831.475
1956.23103	52744.675
1959.31675	52544.475
1962.40046	52367.375
1965.48217	52237.975
1968.56188	52210.475
1971.63959	51999.575
1974.7153	51786.275
1977.78901	51638.475
1980.86073	51592.575
1983.93046	51430.575
1986.99819	51224.175
1990.06394	51204.275
1993.1277	51084.975
1996.18947	50880.475
1999.24925	50758.675
2002.30706	50652.075
2005.36288	50465.575
2008.41672	50343.575
2011.46859	50163.075
2014.51848	50052.875
2017.56639	49909.375
2020.61233	49764.775
2023.6563	49673.575
2026.6983	49515.075
2029.73833	49475.375
2032.7764	49363.675
2035.8125	49289.175
2038.84664	49096.175
2041.87881	49037.975
2044.90903	48897.475
2047.93729	48813.975
2050.96359	48835.675
2053.98794	48728.175
2057.01034	48737.275
2060.03078	48786.575
2063.04927	48711.275
2066.06582	48722.075
2069.08042	48659.875
2072.09307	48616.675
2075.10378	48613.775
2078.11255	48541.575
2081.11938	48564.075
2084.12426	48496.875
2087.12722	48546.475
2090.12824	48458.375
2093.12732	48518.575
2096.12447	48572.675
2099.11969	48544.375
2102.11299	48619.475
2105.10435	48646.075
2108.09379	48660.775
2111.08131	48679.475
2114.0669	48700.775
2117.05057	48777.075
2120.03233	48820.675
2123.01216	48854.975
2125.99008	48869.675
2128.96609	48903.875
2131.94018	48845.175
2134.91236	48990.075
2137.88263	48976.775
2140.851	49031.975
2143.81746	49025.875
2146.78201	49138.275
2149.74466	49181.675
2152.7054	49140.475
2155.66425	49071.075
2158.6212	49085.475
2161.57625	49058.475
2164.52941	49017.975
2167.48067	48999.375
2170.43004	48937.575
2173.37752	49009.575
2176.32311	49088.575
2179.26681	49114.375
2182.20863	49099.175
2185.14856	49126.675
2188.08661	49026.875
2191.02278	48980.175
2193.95707	48967.775
2196.88948	48930.375
2199.82001	48830.675
2202.74867	48909.875
2205.67545	48853.775
2208.60037	48780.975
2211.52341	48644.775
2214.44458	48617.075
2217.36388	48535.975
2220.28132	48441.975
2223.1969	48305.675
2226.11061	48295.875
2229.02246	48148.275
2231.93245	48092.875
2234.84058	47933.275
2237.74686	47933.175
2240.65128	47847.775
2243.55385	47796.875
2246.45456	47836.475
2249.35343	47699.275
2252.25044	47647.175
2255.14561	47603.675
2258.03893	47575.075
2260.93041	47473.775
2263.82004	47403.675
2266.70783	47341.175
2269.59378	47150.975
2272.4779	47106.075
2275.36017	46991.975
2278.24061	46891.475
2281.11922	46779.475
2283.996	46702.075
2286.87094	46639.575
2289.74405	46593.975
2292.61534	46596.975
2295.4848	46564.875
2298.35243	46547.075
2301.21824	46408.275
2304.08223	46366.775
2306.94439	46379.375
2309.80474	46368.375
2312.66327	46317.675
2315.51999	46206.275
2318.37489	46165.175
2321.22797	46146.575
2324.07925	46085.575
2326.92871	45904.675
2329.77637	45851.875
2332.62222	45831.075
2335.46626	45760.875
2338.3085	45707.575
2341.14893	45634.175
2343.98756	45596.575
2346.8244	45569.575
2349.65943	45510.475
2352.49267	45492.875
2355.32411	45480.275
2358.15376	45441.075
2360.98161	45363.775
2363.80768	45321.075
2366.63195	45271.575
2369.45444	45208.975
2372.27514	45153.075
2375.09405	45116.275
2377.91118	44990.175
2380.72652	44944.275
2383.54009	44883.375
2386.35187	44877.275
2389.16188	44708.275
2391.97011	44637.875
2394.77657	44495.975
2397.58125	44417.175
2400.38416	44357.875
2403.18529	44266.875
2405.98466	44263.575
2408.78226	44171.275
2411.57809	44030.975
2414.37216	44020.175
2417.16446	44037.075
2419.955	43975.075
2422.74378	44006.075
2425.5308	43935.975
2428.31606	43887.875
2431.09956	43826.075
2433.88131	43744.275
2436.6613	43782.775
2439.43954	43753.575
2442.21603	43701.875
2444.99077	43542.875
2447.76377	43560.275
2450.53501	43478.175
2453.30451	43487.175
2456.07226	43381.975
2458.83827	43348.875
2461.60254	43318.375
2464.36507	43254.475
2467.12586	43145.575
2469.88492	43173.575
2472.64224	43128.575
2475.39782	43063.175
2478.15167	43163.775
2480.90379	43113.875
2483.65417	43062.475
2486.40283	43030.175
2489.14976	42980.475
2491.89497	42939.375
2494.63845	42953.075
2497.3802	42825.175
2500.12024	42837.375
2502.85855	42721.075
2505.59514	42663.175
2508.33002	42645.075
2511.06318	42651.875
2513.79462	42517.375
2516.52435	42427.475
2519.25237	42412.775
2521.97867	42252.175
2524.70327	42375.975
2527.42616	42252.875
2530.14734	42242.175
2532.86681	42112.575
2535.58458	42066.975
2538.30065	42023.175
2541.01501	42003.675
2543.72768	41939.875
2546.43864	41882.575
2549.14791	41745.475
2551.85548	41696.475
2554.56136	41627.675
2557.26554	41533.675
2559.96803	41436.875
2562.66883	41382.975
2565.36794	41299.075
2568.06536	41274.275
2570.7611	41228.075
2573.45514	41080.375
2576.14751	41075.775
2578.83819	40944.875
2581.52719	40925.275
2584.21451	40813.975
2586.90015	40755.875
2589.58411	40599.175
2592.2664	40538.975
2594.94701	40427.075
2597.62594	40466.075
2600.30321	40363.375
2602.9788	40283.875
2605.65273	40196.675
2608.32498	40177.475
2610.99557	40082.575
2613.66449	40098.175
2616.33175	40040.875
2618.99734	40032.675
2621.66128	39973.475
2624.32355	39894.775
2626.98416	39768.775
2629.64311	39718.075
2632.30041	39676.675
2634.95605	39629.975
2637.61004	39584.475
2640.26238	39611.675
2642.91306	39524.775
2645.56209	39478.775
2648.20948	39468.675
2650.85521	39420.075
2653.4993	39395.775
2656.14175	39342.375
2658.78255	39413.575
2661.42171	39345.075
2664.05923	39316.775
2666.6951	39291.375
2669.32934	39343.875
2671.96194	39195.775
2674.59291	39167.475
2677.22224	39206.275
2679.84993	39201.175
2682.476	39182.375
2685.10043	39208.475
2687.72324	39135.275
2690.34441	39090.375
2692.96396	39116.775
2695.58188	39113.275
2698.19818	39012.875
2700.81285	39079.975
2703.4259	39025.775
2706.03733	39120.075
2708.64714	39010.575
2711.25533	38998.575
2713.86191	38998.475
2716.46687	39090.275
2719.07021	39092.675
2721.67194	39099.075
2724.27206	39122.975
2726.87057	39132.375
2729.46747	39129.175
2732.06276	39099.075
2734.65644	39020.175
2737.24852	38967.475
2739.83899	38834.975
2742.42786	38911.075
2745.01513	38825.275
2747.60079	38784.975
2750.18486	38651.675
2752.76733	38639.375
2755.3482	38527.075
2757.92747	38553.375
2760.50515	38468.275
2763.08123	38420.175
2765.65573	38344.875
2768.22863	38301.775
2770.79994	38184.775
2773.36967	38189.175
2775.9378	38145.475
2778.50435	38134.075
2781.06932	38083.875
2783.6327	38036.975
2786.1945	37917.475
2788.75471	37876.875
2791.31335	37779.675
2793.87041	37723.675
2796.42589	37593.675
2798.97979	37508.475
2801.53212	37368.375
2804.08288	37346.075
2806.63206	37256.375
2809.17967	37126.075
2811.72571	37033.075
2814.27018	36932.675
2816.81308	36848.275
2819.35442	36809.675
2821.89419	36768.975
2824.43239	36778.175
2826.96904	36681.875
2829.50412	36626.975
2832.03763	36523.575
2834.56959	36467.675
2837.1	36420.675
2839.62884	36411.875
2842.15613	36353.175
2844.68186	36375.575
2847.20604	36258.275
2849.72867	36194.675
2852.24974	36158.675
2854.76927	36117.275
2857.28724	36055.675
2859.80367	35991.475
2862.31855	35890.075
2864.83189	35848.275
2867.34368	35830.075
2869.85393	35853.375
2872.36264	35731.675
2874.8698	35726.575
2877.37543	35686.475
2879.87952	35633.675
2882.38207	35629.175
2884.88308	35555.475
2887.38256	35532.275
2889.88051	35536.575
2892.37692	35531.275
2894.8718	35550.775
2897.36515	35609.875
2899.85698	35493.375
2902.34727	35516.075
2904.83604	35540.775
2907.32328	35594.175
2909.809	35529.775
2912.29319	35598.775
2914.77587	35537.375
2917.25702	35537.375
2919.73665	35489.775
2922.21476	35469.075
2924.69136	35486.875
2927.16644	35441.075
2929.64	35383.975
2932.11205	35311.575
2934.58258	35213.075
2937.05161	35251.475
2939.51912	35246.975
2941.98513	35287.475
2944.44962	35231.075
2946.91261	35118.475
2949.37409	35226.375
2951.83407	35128.075
2954.29254	35161.675
2956.74951	35184.375
2959.20498	35150.175
2961.65895	35114.975
2964.11142	35140.975
2966.56239	35086.675
2969.01186	35150.275
2971.45984	35050.475
2973.90632	35041.375
2976.35131	34928.275
2978.7948	34910.275
2981.23681	34864.875
2983.67732	34754.775
2986.11635	34736.675
2988.55388	34690.675
2990.98993	34603.575
2993.4245	34510.375
2995.85758	34403.675
2998.28917	34331.575
3000.71928	34305.075
3003.14791	34189.075
3005.57506	34188.975
3008.00073	34071.675
3010.42493	34046.775
3012.84764	34015.875
3015.26888	34005.475
3017.68865	33965.675
3020.10694	33889.375
3022.52376	33830.475
3024.9391	33767.975
3027.35298	33771.475
3029.76539	33698.375
3032.17632	33583.375
3034.5858	33616.375
3036.9938	33556.375
3039.40034	33587.575
3041.80542	33540.475
3044.20903	33399.175
3046.61118	33450.675
3049.01187	33323.375
3051.4111	33275.575
3053.80888	33195.375
3056.20519	33131.475
3058.60005	33094.775
3060.99345	33063.575
3063.3854	32962.075
3065.7759	32884.675
3068.16494	32797.475
3070.55254	32674.575
3072.93868	32666.275
3075.32338	32519.075
3077.70662	32511.075
3080.08842	32408.675
3082.46878	32401.275
3084.84769	32347.375
3087.22515	32373.275
3089.60118	32313.375
3091.97576	32304.475
3094.3489	32253.575
3096.72061	32245.475
3099.09087	32306.375
3101.4597	32315.675
3103.82709	32309.775
3106.19305	32212.475
3108.55757	32238.575
3110.92066	32093.975
3113.28232	32053.575
3115.64255	31975.975
3118.00134	31899.075
3120.35871	31893.075
3122.71466	31821.475
3125.06917	31725.075
