Data from AgNPs_FTO_APTES_UA_20uM_CRN_5uM_R6G_10uM_NaF_0.1M_Addition_RamanShift__22__13-57-32-162.txt Node

Date: Thu Feb 17 13:57:32 GMT 2022
User: TCL
Spectrometer: QEP01345
Trigger mode: 4
Integration Time (sec): 7.000000E0
Scans to average: 10
Electric dark correction enabled: true
Nonlinearity correction enabled: false
Boxcar width: 0
XAxis mode: Raman Shifts
Number of Pixels in Spectrum: 1044
>>>>>Begin Spectral Data<<<<<
46.04893	-0.9625
50.45542	-1.5625
54.85868	-2.9625
59.25871	-1.8625
63.6555	126.2375
68.04907	129.3375
72.43941	133.3375
76.82654	134.5375
81.21044	140.0375
85.59113	148.3375
89.96862	145.5375
94.34289	150.8375
98.71396	156.2375
103.08183	162.4375
107.4465	169.4375
111.80798	170.1375
116.16626	172.6375
120.52136	184.3375
124.87327	192.7375
129.222	206.4375
133.56755	219.6375
137.90993	237.6375
142.24913	262.8375
146.58517	302.4375
150.91804	350.6375
155.24774	424.7375
159.57429	538.0375
163.89768	701.1375
168.21792	934.9375
172.53501	1294.3375
176.84895	1808.9375
181.15975	2565.6375
185.46741	3601.2375
189.77193	5007.5375
194.07331	6683.0375
198.37157	8657.0375
202.6667	10709.6375
206.9587	12753.4375
211.24758	14790.4375
215.53334	16778.6375
219.81599	18876.0375
224.09553	21269.9375
228.37195	23869.5375
232.64527	26726.7375
236.91549	29794.2375
241.18261	32879.2375
245.44663	35806.3375
249.70755	38480.3375
253.96539	40812.7375
258.22014	42855.8375
262.4718	44504.0375
266.72039	45689.4375
270.96589	46437.1375
275.20832	46605.4375
279.44768	46377.3375
283.68397	46111.9375
287.91719	45711.8375
292.14735	45480.0375
296.37445	45489.6375
300.59849	45583.5375
304.81948	45710.4375
309.03742	45605.2375
313.25231	45170.8375
317.46415	44356.0375
321.67296	43418.5375
325.87872	42700.7375
330.08145	42346.8375
334.28114	42455.2375
338.47781	42828.3375
342.67145	43346.3375
346.86207	44164.8375
351.04966	44957.8375
355.23424	45948.4375
359.4158	46745.7375
363.59435	47329.2375
367.76989	47743.1375
371.94243	48093.1375
376.11196	48424.9375
380.27849	48668.5375
384.44203	48975.3375
388.60257	49206.5375
392.76012	49507.6375
396.91468	50009.2375
401.06626	50695.4375
405.21485	51203.4375
409.36047	51171.7375
413.50311	50625.8375
417.64277	50143.2375
421.77947	49984.0375
425.9132	50205.0375
430.04396	50571.1375
434.17176	51008.4375
438.2966	51603.1375
442.41849	52526.6375
446.53742	53803.0375
450.6534	55219.0375
454.76644	56372.9375
458.87653	56764.7375
462.98368	56582.9375
467.08789	55944.3375
471.18916	55190.3375
475.2875	54503.0375
479.38291	54132.6375
483.4754	53705.8375
487.56496	53133.0375
491.6516	52537.1375
495.73531	51889.8375
499.81612	51583.4375
503.89401	51713.3375
507.96899	51907.9375
512.04106	51779.8375
516.11023	51642.1375
520.1765	51442.4375
524.23987	51326.9375
528.30034	51052.4375
532.35792	50764.0375
536.41261	50375.7375
540.46441	50039.7375
544.51333	50023.0375
548.55936	50567.2375
552.60252	51407.9375
556.64279	52525.4375
560.6802	53100.9375
564.71473	53477.8375
568.7464	54082.8375
572.7752	55036.0375
576.80114	55647.6375
580.82422	56030.9375
584.84444	56496.2375
588.86181	57294.5375
592.87633	58225.6375
596.888	58635.2375
600.89682	58596.7375
604.9028	60143.9375
608.90594	64743.7375
612.90624	69309.5375
616.90371	65889.9375
620.89834	57088.4375
624.89015	53382.5375
628.87913	52840.8375
632.86528	52721.7375
636.84862	52456.5375
640.82913	51838.6375
644.80683	50673.1375
648.78172	49917.5375
652.75379	49888.7375
656.72306	50493.8375
660.68952	51385.7375
664.65319	51232.0375
668.61405	50515.8375
672.57211	50310.3375
676.52738	50384.6375
680.47986	50365.6375
684.42955	50221.3375
688.37646	50177.2375
692.32058	50466.9375
696.26192	50942.0375
700.20048	51468.9375
704.13626	51792.4375
708.06928	51680.6375
711.99952	51356.3375
715.927	51254.9375
719.85171	51301.5375
723.77365	51241.9375
727.69284	50884.2375
731.60928	50616.7375
735.52295	50485.4375
739.43388	50607.1375
743.34206	50863.5375
747.24749	51085.6375
751.15017	51427.2375
755.05012	52118.0375
758.94733	53349.3375
762.8418	55525.1375
766.73354	58987.9375
770.62254	62332.0375
774.50882	62973.5375
778.39237	60535.0375
782.27321	56703.0375
786.15132	53564.7375
790.02671	51751.6375
793.89938	50953.8375
797.76935	50590.8375
801.6366	50517.5375
805.50115	50391.9375
809.36299	50184.3375
813.22213	50040.2375
817.07857	49907.5375
820.93231	49941.7375
824.78336	49846.9375
828.63172	49834.6375
832.47738	49803.1375
836.32036	49959.4375
840.16066	50114.9375
843.99827	50273.7375
847.8332	50246.0375
851.66546	50121.3375
855.49504	49996.2375
859.32195	49889.2375
863.1462	49857.6375
866.96777	49712.4375
870.78668	49711.0375
874.60293	49732.7375
878.41652	49746.6375
882.22745	49890.4375
886.03573	49977.0375
889.84136	49852.8375
893.64433	49650.0375
897.44466	49446.4375
901.24235	49394.8375
905.0374	49358.3375
908.8298	49239.8375
912.61957	49364.2375
916.40671	49666.0375
920.19121	50230.2375
923.97308	50709.5375
927.75233	50831.9375
931.52895	50532.1375
935.30295	50076.2375
939.07433	49493.2375
942.84309	49001.4375
946.60924	48809.2375
950.37278	48739.8375
954.13371	48638.6375
957.89203	48436.4375
961.64774	48339.1375
965.40086	48182.6375
969.15137	48097.6375
972.89929	47886.9375
976.64461	47774.5375
980.38733	47810.3375
984.12747	47962.5375
987.86502	48380.6375
991.59999	49035.8375
995.33237	49884.3375
999.06217	51186.0375
1002.78939	52698.6375
1006.51404	53733.7375
1010.23611	54324.8375
1013.95561	54624.4375
1017.67255	54683.8375
1021.38692	54316.4375
1025.09872	53954.7375
1028.80796	54352.4375
1032.51465	55482.0375
1036.21877	56514.8375
1039.92035	56642.0375
1043.61937	55946.3375
1047.31584	54761.1375
1051.00976	53384.1375
1054.70114	52756.6375
1058.38998	52537.4375
1062.07627	52702.6375
1065.76003	53011.4375
1069.44126	53239.8375
1073.11995	53586.3375
1076.79611	54034.4375
1080.46974	54419.2375
1084.14085	54818.9375
1087.80943	55375.5375
1091.47549	55586.9375
1095.13903	55361.5375
1098.80005	54748.0375
1102.45857	54017.0375
1106.11456	53617.5375
1109.76805	53651.6375
1113.41903	54019.2375
1117.06751	54479.5375
1120.71348	55001.3375
1124.35696	55449.9375
1127.99793	55737.2375
1131.63641	55802.6375
1135.2724	55402.3375
1138.90589	54969.6375
1142.5369	54720.7375
1146.16542	54664.9375
1149.79145	54801.9375
1153.415	55209.1375
1157.03607	55931.8375
1160.65467	56875.5375
1164.27079	58584.7375
1167.88443	60863.6375
1171.49561	64000.8375
1175.10432	68210.4375
1178.71056	73394.5375
1182.31434	78305.9375
1185.91565	80716.5375
1189.51451	80402.5375
1193.11091	78036.1375
1196.70485	74903.3375
1200.29634	72170.9375
1203.88538	69987.3375
1207.47197	68258.4375
1211.05612	66805.8375
1214.63782	65802.3375
1218.21708	65462.7375
1221.79391	65468.0375
1225.36829	65455.9375
1228.94024	64809.8375
1232.50976	63544.6375
1236.07685	62580.7375
1239.6415	62231.5375
1243.20374	62311.6375
1246.76355	62737.2375
1250.32093	63479.8375
1253.8759	64650.2375
1257.42845	66108.1375
1260.97859	67518.0375
1264.52631	68779.8375
1268.07163	70203.8375
1271.61453	71843.9375
1275.15503	73576.0375
1278.69312	75385.6375
1282.22882	76950.1375
1285.76211	78447.8375
1289.29301	80105.6375
1292.82151	82256.5375
1296.34761	85036.4375
1299.87133	88895.7375
1303.39266	93684.2375
1306.9116	99278.3375
1310.42815	104813.3375
1313.94233	108324.5375
1317.45412	108643.8375
1320.96354	106708.4375
1324.47058	104312.8375
1327.97525	101985.7375
1331.47754	100331.1375
1334.97747	99705.4375
1338.47502	100366.6375
1341.97022	100935.4375
1345.46305	100859.5375
1348.95352	99668.9375
1352.44163	98753.9375
1355.92738	99721.7375
1359.41078	103202.0375
1362.89183	106449.6375
1366.37053	104357.5375
1369.84688	96337.3375
1373.32088	87193.2375
1376.79254	81092.8375
1380.26186	78398.3375
1383.72883	77679.3375
1387.19347	77484.2375
1390.65578	77046.7375
1394.11575	77155.1375
1397.57339	78100.2375
1401.0287	79698.3375
1404.48168	81287.4375
1407.93234	82320.1375
1411.38068	82480.4375
1414.82669	81353.9375
1418.27039	78954.1375
1421.71177	75858.9375
1425.15083	73283.7375
1428.58758	71733.0375
1432.02203	71772.1375
1435.45416	72812.3375
1438.88399	74066.9375
1442.31151	75307.3375
1445.73673	76464.1375
1449.15965	77256.9375
1452.58027	77837.1375
1455.9986	77968.3375
1459.41463	78234.3375
1462.82837	79132.8375
1466.23982	80321.9375
1469.64898	81779.3375
1473.05586	82815.7375
1476.46045	83104.5375
1479.86276	82917.8375
1483.26279	82487.8375
1486.66054	82291.8375
1490.05602	82543.9375
1493.44922	82927.0375
1496.84016	83252.6375
1500.22882	84015.1375
1503.61521	85733.3375
1506.99934	88292.2375
1510.38121	90482.5375
1513.76081	90788.8375
1517.13816	88705.6375
1520.51324	85444.7375
1523.88607	82455.6375
1527.25665	80935.3375
1530.62498	80444.6375
1533.99105	80369.2375
1537.35488	80157.8375
1540.71647	79656.0375
1544.07581	78927.6375
1547.4329	77871.0375
1550.78776	76593.9375
1554.14038	75678.6375
1557.49077	75169.4375
1560.83892	74864.3375
1564.18484	74689.5375
1567.52853	74544.0375
1570.86999	74670.3375
1574.20922	75061.6375
1577.54624	75521.0375
1580.88103	75288.7375
1584.2136	75294.3375
1587.54395	76961.8375
1590.87208	80417.5375
1594.19801	85482.3375
1597.52172	90608.5375
1600.84321	92904.3375
1604.16251	90221.5375
1607.47959	84660.9375
1610.79447	78104.0375
1614.10715	72287.9375
1617.41763	67416.4375
1620.7259	64088.9375
1624.03199	62302.5375
1627.33587	62091.0375
1630.63757	63487.4375
1633.93707	66640.2375
1637.23439	71377.6375
1640.52951	78000.5375
1643.82246	85180.6375
1647.11321	90543.4375
1650.40179	90992.9375
1653.68819	85595.6375
1656.97241	76361.6375
1660.25446	67285.6375
1663.53433	60674.1375
1666.81203	56385.4375
1670.08756	53771.9375
1673.36092	52017.6375
1676.63211	50837.7375
1679.90115	49984.5375
1683.16801	49296.2375
1686.43272	48809.0375
1689.69527	48481.0375
1692.95567	48226.1375
1696.2139	48051.1375
1699.46999	48014.4375
1702.72392	47854.0375
1705.97571	47809.2375
1709.22535	47677.1375
1712.47284	47622.9375
1715.71819	47628.2375
1718.96139	47571.4375
1722.20246	47400.2375
1725.44139	47204.0375
1728.67818	47068.2375
1731.91284	46795.5375
1735.14537	46551.2375
1738.37576	46456.2375
1741.60403	46336.1375
1744.83017	46109.8375
1748.05418	46005.6375
1751.27607	45878.1375
1754.49584	45886.1375
1757.71349	45881.8375
1760.92903	45883.2375
1764.14244	45813.4375
1767.35375	45751.0375
1770.56294	45759.2375
1773.77002	45750.5375
1776.97499	45689.0375
1780.17785	45628.7375
1783.37861	45535.7375
1786.57727	45465.6375
1789.77382	45351.0375
1792.96828	45409.9375
1796.16064	45309.6375
1799.3509	45277.3375
1802.53907	45213.5375
1805.72514	45083.3375
1808.90913	44957.8375
1812.09102	44901.4375
1815.27083	44888.9375
1818.44856	44792.3375
1821.6242	44704.7375
1824.79776	44687.8375
1827.96924	44680.8375
1831.13864	44619.8375
1834.30597	44600.0375
1837.47122	44592.0375
1840.6344	44550.1375
1843.7955	44567.9375
1846.95454	44561.8375
1850.11151	44529.2375
1853.26642	44506.2375
1856.41926	44497.8375
1859.57004	44449.0375
1862.71876	44411.9375
1865.86542	44414.8375
1869.01003	44391.7375
1872.15258	44389.1375
1875.29308	44374.5375
1878.43152	44305.9375
1881.56792	44335.7375
1884.70227	44365.4375
1887.83457	44390.9375
1890.96482	44352.1375
1894.09304	44289.8375
1897.21921	44274.2375
1900.34335	44147.6375
1903.46544	44167.5375
1906.58551	44141.0375
1909.70353	44113.2375
1912.81953	44098.2375
1915.93349	44015.0375
1919.04543	43911.8375
1922.15534	43919.0375
1925.26322	43808.8375
1928.36908	43749.4375
1931.47292	43686.8375
1934.57473	43567.5375
1937.67453	43456.6375
1940.77232	43357.8375
1943.86808	43253.5375
1946.96184	43134.6375
1950.05358	43052.0375
1953.14331	42886.2375
1956.23103	42798.8375
1959.31675	42687.4375
1962.40046	42514.7375
1965.48217	42371.1375
1968.56188	42227.1375
1971.63959	42137.2375
1974.7153	42040.2375
1977.78901	41948.5375
1980.86073	41813.2375
1983.93046	41703.7375
1986.99819	41548.2375
1990.06394	41488.7375
1993.1277	41367.1375
1996.18947	41210.2375
1999.24925	41161.3375
2002.30706	41121.9375
2005.36288	40939.3375
2008.41672	40864.4375
2011.46859	40652.9375
2014.51848	40642.8375
2017.56639	40487.7375
2020.61233	40409.4375
2023.6563	40283.2375
2026.6983	40238.8375
2029.73833	40196.2375
2032.7764	40133.3375
2035.8125	40084.5375
2038.84664	39988.6375
2041.87881	39907.1375
2044.90903	39914.5375
2047.93729	39880.7375
2050.96359	39825.3375
2053.98794	39748.8375
2057.01034	39752.7375
2060.03078	39750.2375
2063.04927	39685.8375
2066.06582	39662.3375
2069.08042	39630.1375
2072.09307	39587.6375
2075.10378	39483.8375
2078.11255	39453.3375
2081.11938	39486.4375
2084.12426	39463.2375
2087.12722	39428.7375
2090.12824	39383.2375
2093.12732	39407.4375
2096.12447	39441.1375
2099.11969	39392.6375
2102.11299	39403.3375
2105.10435	39422.6375
2108.09379	39397.0375
2111.08131	39461.9375
2114.0669	39442.9375
2117.05057	39479.7375
2120.03233	39491.1375
2123.01216	39577.6375
2125.99008	39644.9375
2128.96609	39663.9375
2131.94018	39740.6375
2134.91236	39735.9375
2137.88263	39743.5375
2140.851	39719.1375
2143.81746	39797.3375
2146.78201	39805.2375
2149.74466	39866.9375
2152.7054	39822.4375
2155.66425	39842.7375
2158.6212	39814.4375
2161.57625	39811.6375
2164.52941	39836.9375
2167.48067	39756.0375
2170.43004	39706.4375
2173.37752	39748.3375
2176.32311	39780.1375
2179.26681	39769.2375
2182.20863	39751.9375
2185.14856	39828.5375
2188.08661	39842.6375
2191.02278	39787.9375
2193.95707	39768.9375
2196.88948	39748.8375
2199.82001	39776.8375
2202.74867	39773.3375
2205.67545	39721.9375
2208.60037	39701.0375
2211.52341	39717.9375
2214.44458	39741.9375
2217.36388	39652.4375
2220.28132	39585.8375
2223.1969	39486.7375
2226.11061	39419.2375
2229.02246	39260.0375
2231.93245	39259.9375
2234.84058	39190.9375
2237.74686	39085.1375
2240.65128	39074.6375
2243.55385	39037.1375
2246.45456	38982.5375
2249.35343	38978.8375
2252.25044	38955.4375
2255.14561	38861.8375
2258.03893	38808.9375
2260.93041	38729.5375
2263.82004	38646.3375
2266.70783	38533.1375
2269.59378	38425.5375
2272.4779	38397.7375
2275.36017	38300.6375
2278.24061	38264.1375
2281.11922	38181.6375
2283.996	38119.8375
2286.87094	38113.3375
2289.74405	38100.9375
2292.61534	38084.3375
2295.4848	38044.0375
2298.35243	38072.5375
2301.21824	38010.8375
2304.08223	38063.7375
2306.94439	38062.7375
2309.80474	38079.8375
2312.66327	38154.5375
2315.51999	38106.7375
2318.37489	38058.5375
2321.22797	38040.6375
2324.07925	38023.8375
2326.92871	37998.0375
2329.77637	37904.9375
2332.62222	37890.9375
2335.46626	37882.8375
2338.3085	37913.6375
2341.14893	37836.1375
2343.98756	37901.6375
2346.8244	37909.6375
2349.65943	37949.2375
2352.49267	37883.1375
2355.32411	37876.2375
2358.15376	37877.4375
2360.98161	37821.2375
2363.80768	37778.2375
2366.63195	37776.0375
2369.45444	37716.1375
2372.27514	37665.7375
2375.09405	37596.9375
2377.91118	37467.7375
2380.72652	37401.4375
2383.54009	37317.7375
2386.35187	37207.5375
2389.16188	37151.4375
2391.97011	37076.5375
2394.77657	37096.9375
2397.58125	36970.4375
2400.38416	36934.5375
2403.18529	36900.9375
2405.98466	36871.1375
2408.78226	36770.0375
2411.57809	36696.6375
2414.37216	36682.1375
2417.16446	36647.0375
2419.955	36619.1375
2422.74378	36577.8375
2425.5308	36532.5375
2428.31606	36522.1375
2431.09956	36542.7375
2433.88131	36500.7375
2436.6613	36508.6375
2439.43954	36485.0375
2442.21603	36444.4375
2444.99077	36375.8375
2447.76377	36358.7375
2450.53501	36375.2375
2453.30451	36350.2375
2456.07226	36327.7375
2458.83827	36267.8375
2461.60254	36287.3375
2464.36507	36288.7375
2467.12586	36347.4375
2469.88492	36324.3375
2472.64224	36317.9375
2475.39782	36311.6375
2478.15167	36318.3375
2480.90379	36379.4375
2483.65417	36447.0375
2486.40283	36437.8375
2489.14976	36473.6375
2491.89497	36409.2375
2494.63845	36468.6375
2497.3802	36431.4375
2500.12024	36398.2375
2502.85855	36359.8375
2505.59514	36371.1375
2508.33002	36320.7375
2511.06318	36313.3375
2513.79462	36250.9375
2516.52435	36232.8375
2519.25237	36236.2375
2521.97867	36212.2375
2524.70327	36150.4375
2527.42616	36178.8375
2530.14734	36087.4375
2532.86681	36060.9375
2535.58458	36078.2375
2538.30065	36042.8375
2541.01501	36055.1375
2543.72768	36007.8375
2546.43864	36052.0375
2549.14791	35960.4375
2551.85548	35963.9375
2554.56136	35862.6375
2557.26554	35782.8375
2559.96803	35743.5375
2562.66883	35706.4375
2565.36794	35701.9375
2568.06536	35686.8375
2570.7611	35610.5375
2573.45514	35612.1375
2576.14751	35575.6375
2578.83819	35525.1375
2581.52719	35580.6375
2584.21451	35523.2375
2586.90015	35463.7375
2589.58411	35471.1375
2592.2664	35442.8375
2594.94701	35445.0375
2597.62594	35516.9375
2600.30321	35465.4375
2602.9788	35457.4375
2605.65273	35424.1375
2608.32498	35446.7375
2610.99557	35388.9375
2613.66449	35434.2375
2616.33175	35415.1375
2618.99734	35387.8375
2621.66128	35337.2375
2624.32355	35370.5375
2626.98416	35337.9375
2629.64311	35404.9375
2632.30041	35417.0375
2634.95605	35363.3375
2637.61004	35337.9375
2640.26238	35275.0375
2642.91306	35201.6375
2645.56209	35136.6375
2648.20948	35164.7375
2650.85521	35137.7375
2653.4993	35105.6375
2656.14175	35114.7375
2658.78255	35203.5375
2661.42171	35152.8375
2664.05923	35202.4375
2666.6951	35198.7375
2669.32934	35221.0375
2671.96194	35240.9375
2674.59291	35312.5375
2677.22224	35296.6375
2679.84993	35298.6375
2682.476	35223.7375
2685.10043	35209.1375
2687.72324	35127.4375
2690.34441	35154.7375
2692.96396	35150.5375
2695.58188	35183.1375
2698.19818	35113.4375
2700.81285	35115.4375
2703.4259	35056.0375
2706.03733	35106.1375
2708.64714	35087.5375
2711.25533	35139.7375
2713.86191	35139.4375
2716.46687	35189.4375
2719.07021	35180.9375
2721.67194	35221.7375
2724.27206	35202.8375
2726.87057	35227.6375
2729.46747	35240.4375
2732.06276	35209.4375
2734.65644	35239.0375
2737.24852	35257.4375
2739.83899	35246.8375
2742.42786	35325.3375
2745.01513	35263.2375
2747.60079	35220.8375
2750.18486	35167.7375
2752.76733	35183.5375
2755.3482	35123.9375
2757.92747	35106.7375
2760.50515	35111.5375
2763.08123	35104.0375
2765.65573	35085.3375
2768.22863	35086.7375
2770.79994	35057.5375
2773.36967	35077.0375
2775.9378	35139.9375
2778.50435	35123.3375
2781.06932	35049.6375
2783.6327	35038.6375
2786.1945	35016.3375
2788.75471	34947.4375
2791.31335	34882.5375
2793.87041	34847.5375
2796.42589	34790.6375
2798.97979	34784.5375
2801.53212	34668.7375
2804.08288	34665.6375
2806.63206	34621.2375
2809.17967	34520.1375
2811.72571	34419.1375
2814.27018	34334.8375
2816.81308	34263.1375
2819.35442	34241.4375
2821.89419	34217.3375
2824.43239	34186.2375
2826.96904	34257.7375
2829.50412	34250.4375
2832.03763	34118.5375
2834.56959	34109.3375
2837.1	34019.8375
2839.62884	33938.9375
2842.15613	33926.3375
2844.68186	33921.7375
2847.20604	33898.3375
2849.72867	33897.5375
2852.24974	33835.5375
2854.76927	33786.1375
2857.28724	33781.0375
2859.80367	33777.4375
2862.31855	33769.1375
2864.83189	33705.2375
2867.34368	33618.7375
2869.85393	33664.8375
2872.36264	33617.7375
2874.8698	33623.7375
2877.37543	33562.5375
2879.87952	33527.2375
2882.38207	33550.3375
2884.88308	33566.2375
2887.38256	33585.2375
2889.88051	33537.6375
2892.37692	33616.7375
2894.8718	33584.1375
2897.36515	33635.5375
2899.85698	33644.7375
2902.34727	33667.7375
2904.83604	33720.8375
2907.32328	33766.8375
2909.809	33763.4375
2912.29319	33807.8375
2914.77587	33791.7375
2917.25702	33820.1375
2919.73665	33731.6375
2922.21476	33713.6375
2924.69136	33706.3375
2927.16644	33675.6375
2929.64	33626.7375
2932.11205	33589.9375
2934.58258	33523.8375
2937.05161	33590.5375
2939.51912	33589.5375
2941.98513	33554.9375
2944.44962	33484.3375
2946.91261	33493.8375
2949.37409	33553.4375
2951.83407	33481.4375
2954.29254	33509.0375
2956.74951	33444.6375
2959.20498	33415.4375
2961.65895	33425.1375
2964.11142	33467.6375
2966.56239	33416.6375
2969.01186	33366.7375
2971.45984	33248.7375
2973.90632	33194.0375
2976.35131	33167.4375
2978.7948	33144.3375
2981.23681	33038.3375
2983.67732	33001.0375
2986.11635	32897.9375
2988.55388	32865.4375
2990.98993	32808.5375
2993.4245	32749.6375
2995.85758	32668.2375
2998.28917	32559.1375
3000.71928	32508.0375
3003.14791	32481.3375
3005.57506	32480.3375
3008.00073	32346.6375
3010.42493	32292.8375
3012.84764	32167.8375
3015.26888	32208.0375
3017.68865	32111.3375
3020.10694	32117.6375
