Data from AgNPs_FTO_APTES_UA_20uM_CRN_20uM_R6G_10uM_NaF_0.1M_Addition_RamanShift__9__15-00-32-245.txt Node

Date: Thu Feb 17 15:00:32 GMT 2022
User: TCL
Spectrometer: QEP01345
Trigger mode: 4
Integration Time (sec): 7.000000E0
Scans to average: 10
Electric dark correction enabled: true
Nonlinearity correction enabled: false
Boxcar width: 0
XAxis mode: Raman Shifts
Number of Pixels in Spectrum: 1044
>>>>>Begin Spectral Data<<<<<
46.04893	0.075
50.45542	-1.225
54.85868	-3.525
59.25871	-0.925
63.6555	127.375
68.04907	128.575
72.43941	138.775
76.82654	138.575
81.21044	143.375
85.59113	149.775
89.96862	154.675
94.34289	155.575
98.71396	160.875
103.08183	168.375
107.4465	174.675
111.80798	177.575
116.16626	183.875
120.52136	193.175
124.87327	202.875
129.222	213.375
133.56755	226.475
137.90993	245.975
142.24913	273.775
146.58517	308.175
150.91804	365.775
155.24774	439.075
159.57429	556.575
163.89768	713.775
168.21792	955.575
172.53501	1315.275
176.84895	1852.475
181.15975	2624.575
185.46741	3711.375
189.77193	5131.375
194.07331	6906.375
198.37157	8932.675
202.6667	11088.075
206.9587	13179.375
211.24758	15254.275
215.53334	17322.175
219.81599	19439.975
224.09553	21804.575
228.37195	24418.875
232.64527	27278.875
236.91549	30369.675
241.18261	33527.675
245.44663	36608.275
249.70755	39364.875
253.96539	41828.275
258.22014	43932.775
262.4718	45669.775
266.72039	46843.475
270.96589	47444.975
275.20832	47642.675
279.44768	47464.875
283.68397	47111.375
287.91719	46804.975
292.14735	46570.975
296.37445	46500.075
300.59849	46628.475
304.81948	46701.375
309.03742	46637.675
313.25231	46406.075
317.46415	45948.175
321.67296	45320.675
325.87872	44714.775
330.08145	44505.375
334.28114	44607.175
338.47781	44929.375
342.67145	45438.275
346.86207	46014.675
351.04966	46687.375
355.23424	47408.675
359.4158	47968.775
363.59435	48481.675
367.76989	48931.475
371.94243	49245.575
376.11196	49520.575
380.27849	49786.775
384.44203	50085.875
388.60257	50438.075
392.76012	50941.875
396.91468	51535.275
401.06626	52040.075
405.21485	52537.575
409.36047	52560.675
413.50311	52195.675
417.64277	51929.875
421.77947	51918.375
425.9132	52080.075
430.04396	52381.875
434.17176	52743.375
438.2966	53062.475
442.41849	53621.775
446.53742	54517.975
450.6534	55494.075
454.76644	56275.475
458.87653	56727.475
462.98368	56776.775
467.08789	56582.275
471.18916	56224.475
475.2875	55796.375
479.38291	55458.775
483.4754	55150.475
487.56496	54810.375
491.6516	54546.375
495.73531	54093.875
499.81612	53916.475
503.89401	54089.375
507.96899	54372.575
512.04106	54484.275
516.11023	54489.375
520.1765	54371.275
524.23987	54221.575
528.30034	54098.975
532.35792	53843.675
536.41261	53683.975
540.46441	53357.775
544.51333	53480.575
548.55936	53856.575
552.60252	54636.775
556.64279	55446.575
560.6802	55976.675
564.71473	56222.475
568.7464	56688.175
572.7752	57633.575
576.80114	58712.975
580.82422	59847.675
584.84444	60633.375
588.86181	61459.275
592.87633	62122.875
596.888	62045.575
600.89682	61439.275
604.9028	61991.175
608.90594	64716.075
612.90624	67501.175
616.90371	64897.175
620.89834	58809.475
624.89015	56058.575
628.87913	55811.975
632.86528	56169.175
636.84862	56421.675
640.82913	56111.775
644.80683	55328.275
648.78172	54751.775
652.75379	54671.575
656.72306	55097.275
660.68952	55726.975
664.65319	55604.875
668.61405	55266.175
672.57211	55278.375
676.52738	55522.275
680.47986	55591.075
684.42955	55402.975
688.37646	55266.475
692.32058	55495.475
696.26192	56039.575
700.20048	56563.575
704.13626	56909.275
708.06928	56952.775
711.99952	56895.575
715.927	56730.175
719.85171	56673.475
723.77365	56587.075
727.69284	56293.375
731.60928	55864.975
735.52295	55668.075
739.43388	55725.075
743.34206	55856.875
747.24749	55984.275
751.15017	56269.175
755.05012	56861.375
758.94733	57835.175
762.8418	59472.075
766.73354	62116.075
770.62254	64520.175
774.50882	65149.375
778.39237	63443.075
782.27321	60811.775
786.15132	58706.075
790.02671	57225.275
793.89938	56451.575
797.76935	56113.375
801.6366	55977.575
805.50115	55815.475
809.36299	55720.475
813.22213	55580.475
817.07857	55534.675
820.93231	55575.275
824.78336	55580.675
828.63172	55469.375
832.47738	55474.475
836.32036	55515.675
840.16066	55510.875
843.99827	55671.275
847.8332	55718.275
851.66546	55829.575
855.49504	55993.075
859.32195	56074.775
863.1462	56077.475
866.96777	55989.975
870.78668	56163.175
874.60293	56139.375
878.41652	56099.975
882.22745	56226.375
886.03573	56468.975
889.84136	56419.175
893.64433	56213.875
897.44466	56070.075
901.24235	55999.375
905.0374	55900.775
908.8298	55946.875
912.61957	55929.975
916.40671	56301.875
920.19121	56721.975
923.97308	57026.975
927.75233	56762.875
931.52895	56456.875
935.30295	56065.675
939.07433	55656.375
942.84309	55356.375
946.60924	55120.775
950.37278	55055.575
954.13371	55121.975
957.89203	55053.375
961.64774	55036.475
965.40086	54974.575
969.15137	54968.375
972.89929	54859.975
976.64461	54862.275
980.38733	54883.575
984.12747	54922.475
987.86502	55139.475
991.59999	55403.475
995.33237	55670.675
999.06217	56078.375
1002.78939	56680.775
1006.51404	57304.175
1010.23611	57933.875
1013.95561	58448.375
1017.67255	58574.075
1021.38692	58258.575
1025.09872	57847.275
1028.80796	57487.975
1032.51465	57380.975
1036.21877	57454.175
1039.92035	57624.275
1043.61937	57768.175
1047.31584	57801.875
1051.00976	57876.175
1054.70114	58042.075
1058.38998	58278.375
1062.07627	58672.675
1065.76003	59190.575
1069.44126	59676.275
1073.11995	60386.575
1076.79611	60928.575
1080.46974	61207.975
1084.14085	61387.875
1087.80943	61687.575
1091.47549	62004.675
1095.13903	62101.675
1098.80005	61748.975
1102.45857	61052.075
1106.11456	60435.175
1109.76805	60081.675
1113.41903	60010.675
1117.06751	60052.475
1120.71348	60419.675
1124.35696	60706.475
1127.99793	61102.275
1131.63641	61225.075
1135.2724	61084.775
1138.90589	60952.875
1142.5369	60914.875
1146.16542	61023.475
1149.79145	61157.075
1153.415	61357.975
1157.03607	61668.875
1160.65467	62350.875
1164.27079	63678.675
1167.88443	65341.675
1171.49561	67367.375
1175.10432	69817.375
1178.71056	72840.275
1182.31434	75723.075
1185.91565	77456.075
1189.51451	77892.675
1193.11091	77486.475
1196.70485	76173.275
1200.29634	74543.775
1203.88538	73174.675
1207.47197	72238.675
1211.05612	71280.175
1214.63782	70237.875
1218.21708	69073.175
1221.79391	67844.975
1225.36829	67192.175
1228.94024	66783.675
1232.50976	66252.275
1236.07685	65893.475
1239.6415	65731.075
1243.20374	65816.375
1246.76355	66241.575
1250.32093	66752.275
1253.8759	67568.175
1257.42845	68685.075
1260.97859	69928.775
1264.52631	71053.375
1268.07163	72150.275
1271.61453	73149.075
1275.15503	74072.575
1278.69312	75041.675
1282.22882	75989.975
1285.76211	77181.675
1289.29301	78570.275
1292.82151	80352.575
1296.34761	82539.475
1299.87133	85128.575
1303.39266	87948.675
1306.9116	90645.975
1310.42815	92876.575
1313.94233	94115.775
1317.45412	93947.775
1320.96354	93239.075
1324.47058	92431.575
1327.97525	91805.975
1331.47754	91277.575
1334.97747	91258.375
1338.47502	91548.475
1341.97022	92298.075
1345.46305	93122.475
1348.95352	93554.075
1352.44163	93737.675
1355.92738	94038.175
1359.41078	95029.175
1362.89183	95904.475
1366.37053	94123.675
1369.84688	89123.075
1373.32088	83261.875
1376.79254	79000.375
1380.26186	77001.575
1383.72883	76544.375
1387.19347	76479.275
1390.65578	76057.175
1394.11575	75371.175
1397.57339	74933.875
1401.0287	75090.675
1404.48168	75262.775
1407.93234	75074.275
1411.38068	74385.775
1414.82669	73217.275
1418.27039	71817.375
1421.71177	70351.975
1425.15083	69134.375
1428.58758	68536.375
1432.02203	68776.875
1435.45416	69585.275
1438.88399	70642.975
1442.31151	71531.375
1445.73673	72131.275
1449.15965	72531.375
1452.58027	72747.775
1455.9986	72888.375
1459.41463	73206.275
1462.82837	73966.375
1466.23982	74922.375
1469.64898	76003.775
1473.05586	76801.075
1476.46045	77112.375
1479.86276	77065.075
1483.26279	76739.975
1486.66054	76539.675
1490.05602	76863.775
1493.44922	77664.175
1496.84016	78696.175
1500.22882	80428.475
1503.61521	82793.775
1506.99934	85209.975
1510.38121	86719.475
1513.76081	86606.675
1517.13816	85112.275
1520.51324	82963.675
1523.88607	81480.175
1527.25665	80768.475
1530.62498	80494.275
1533.99105	80240.175
1537.35488	79654.275
1540.71647	78741.275
1544.07581	77540.575
1547.4329	76392.075
1550.78776	75309.575
1554.14038	74446.375
1557.49077	74031.375
1560.83892	73738.875
1564.18484	73781.475
1567.52853	73818.775
1570.86999	74303.775
1574.20922	75004.075
1577.54624	75322.975
1580.88103	75166.975
1584.2136	74804.375
1587.54395	75289.275
1590.87208	76905.875
1594.19801	79356.275
1597.52172	81921.775
1600.84321	82731.675
1604.16251	81040.975
1607.47959	78252.775
1610.79447	75008.575
1614.10715	71575.875
1617.41763	68381.875
1620.7259	65954.775
1624.03199	64524.475
1627.33587	64279.775
1630.63757	64820.275
1633.93707	66701.875
1637.23439	70186.175
1640.52951	75327.575
1643.82246	81325.575
1647.11321	86160.375
1650.40179	87440.675
1653.68819	83908.375
1656.97241	77270.475
1660.25446	70515.275
1663.53433	65267.475
1666.81203	61682.875
1670.08756	59564.675
1673.36092	58130.675
1676.63211	57188.675
1679.90115	56446.275
1683.16801	55883.975
1686.43272	55400.675
1689.69527	55161.575
1692.95567	54920.075
1696.2139	54794.475
1699.46999	54683.475
1702.72392	54607.175
1705.97571	54559.775
1709.22535	54486.375
1712.47284	54417.975
1715.71819	54462.375
1718.96139	54404.875
1722.20246	54323.875
1725.44139	54058.875
1728.67818	53785.775
1731.91284	53612.875
1735.14537	53471.575
1738.37576	53354.175
1741.60403	53261.675
1744.83017	53194.975
1748.05418	52980.475
1751.27607	52920.875
1754.49584	52953.575
1757.71349	52918.975
1760.92903	52879.475
1764.14244	52767.075
1767.35375	52779.975
1770.56294	52734.575
1773.77002	52611.475
1776.97499	52592.275
1780.17785	52453.675
1783.37861	52410.275
1786.57727	52409.375
1789.77382	52401.875
1792.96828	52307.675
1796.16064	52182.875
1799.3509	52081.675
1802.53907	51975.375
1805.72514	51882.475
1808.90913	51763.875
1812.09102	51780.375
1815.27083	51650.675
1818.44856	51614.075
1821.6242	51513.575
1824.79776	51502.875
1827.96924	51446.075
1831.13864	51489.775
1834.30597	51459.575
1837.47122	51410.675
1840.6344	51366.575
1843.7955	51382.275
1846.95454	51302.275
1850.11151	51340.575
1853.26642	51258.875
1856.41926	51213.375
1859.57004	51165.175
1862.71876	51133.975
1865.86542	51049.875
1869.01003	51034.875
1872.15258	50978.875
1875.29308	50926.775
1878.43152	50911.975
1881.56792	50885.575
1884.70227	50752.975
1887.83457	50664.175
1890.96482	50629.375
1894.09304	50638.175
1897.21921	50612.575
1900.34335	50544.875
1903.46544	50437.075
1906.58551	50404.175
1909.70353	50370.375
1912.81953	50321.175
1915.93349	50229.875
1919.04543	50068.175
1922.15534	49944.575
1925.26322	49928.475
1928.36908	49848.975
1931.47292	49846.275
1934.57473	49780.575
1937.67453	49693.275
1940.77232	49532.675
1943.86808	49415.675
1946.96184	49385.675
1950.05358	49275.075
1953.14331	49192.775
1956.23103	49012.775
1959.31675	48859.375
1962.40046	48695.675
1965.48217	48625.675
1968.56188	48483.575
1971.63959	48363.475
1974.7153	48179.275
1977.78901	48041.675
1980.86073	47933.775
1983.93046	47827.275
1986.99819	47633.775
1990.06394	47601.575
1993.1277	47436.775
1996.18947	47290.875
1999.24925	47241.275
2002.30706	47114.775
2005.36288	46958.375
2008.41672	46805.875
2011.46859	46662.375
2014.51848	46548.275
2017.56639	46424.375
2020.61233	46277.775
2023.6563	46190.175
2026.6983	46113.075
2029.73833	46021.275
2032.7764	45956.275
2035.8125	45831.975
2038.84664	45692.175
2041.87881	45584.775
2044.90903	45522.175
2047.93729	45434.575
2050.96359	45474.475
2053.98794	45431.075
2057.01034	45435.875
2060.03078	45429.875
2063.04927	45341.975
2066.06582	45331.475
2069.08042	45322.975
2072.09307	45298.475
2075.10378	45200.775
2078.11255	45174.075
2081.11938	45209.475
2084.12426	45215.375
2087.12722	45138.075
2090.12824	45164.175
2093.12732	45138.275
2096.12447	45271.775
2099.11969	45238.575
2102.11299	45261.575
2105.10435	45317.275
2108.09379	45265.275
2111.08131	45342.075
2114.0669	45366.475
2117.05057	45453.375
2120.03233	45516.275
2123.01216	45577.375
2125.99008	45560.675
2128.96609	45569.375
2131.94018	45519.975
2134.91236	45582.675
2137.88263	45598.075
2140.851	45634.075
2143.81746	45722.175
2146.78201	45682.375
2149.74466	45776.175
2152.7054	45708.475
2155.66425	45755.875
2158.6212	45689.075
2161.57625	45680.575
2164.52941	45699.875
2167.48067	45625.575
2170.43004	45561.675
2173.37752	45621.175
2176.32311	45680.975
2179.26681	45732.875
2182.20863	45706.475
2185.14856	45741.775
2188.08661	45649.075
2191.02278	45671.375
2193.95707	45644.475
2196.88948	45588.375
2199.82001	45552.275
2202.74867	45503.275
2205.67545	45461.275
2208.60037	45402.175
2211.52341	45325.675
2214.44458	45283.375
2217.36388	45257.475
2220.28132	45123.475
2223.1969	45033.575
2226.11061	44986.975
2229.02246	44883.475
2231.93245	44870.275
2234.84058	44710.775
2237.74686	44686.575
2240.65128	44692.275
2243.55385	44618.375
2246.45456	44546.675
2249.35343	44478.775
2252.25044	44459.775
2255.14561	44406.875
2258.03893	44339.975
2260.93041	44298.875
2263.82004	44159.675
2266.70783	44096.875
2269.59378	43962.375
2272.4779	43924.375
2275.36017	43763.275
2278.24061	43756.575
2281.11922	43588.075
2283.996	43574.875
2286.87094	43503.275
2289.74405	43484.875
2292.61534	43468.975
2295.4848	43472.975
2298.35243	43423.275
2301.21824	43340.775
2304.08223	43328.975
2306.94439	43289.975
2309.80474	43269.075
2312.66327	43248.875
2315.51999	43135.175
2318.37489	43176.675
2321.22797	43127.375
2324.07925	43027.775
2326.92871	42925.175
2329.77637	42895.075
2332.62222	42801.775
2335.46626	42792.875
2338.3085	42764.375
2341.14893	42715.275
2343.98756	42716.175
2346.8244	42645.675
2349.65943	42617.075
2352.49267	42644.775
2355.32411	42622.775
2358.15376	42632.475
2360.98161	42573.775
2363.80768	42497.575
2366.63195	42506.275
2369.45444	42424.675
2372.27514	42346.875
2375.09405	42290.075
2377.91118	42261.375
2380.72652	42148.675
2383.54009	42112.075
2386.35187	42035.275
2389.16188	41926.975
2391.97011	41830.275
2394.77657	41809.275
2397.58125	41719.175
2400.38416	41671.375
2403.18529	41608.275
2405.98466	41572.075
2408.78226	41501.475
2411.57809	41438.575
2414.37216	41379.575
2417.16446	41367.675
2419.955	41308.075
2422.74378	41328.575
2425.5308	41322.975
2428.31606	41275.375
2431.09956	41274.575
2433.88131	41198.775
2436.6613	41249.775
2439.43954	41254.875
2442.21603	41208.975
2444.99077	41077.575
2447.76377	41011.675
2450.53501	41007.075
2453.30451	41004.175
2456.07226	40946.375
2458.83827	40884.475
2461.60254	40885.375
2464.36507	40859.875
2467.12586	40778.375
2469.88492	40777.675
2472.64224	40733.875
2475.39782	40768.375
2478.15167	40814.775
2480.90379	40809.175
2483.65417	40778.675
2486.40283	40711.475
2489.14976	40731.375
2491.89497	40667.275
2494.63845	40692.475
2497.3802	40633.475
2500.12024	40586.975
2502.85855	40518.175
2505.59514	40505.175
2508.33002	40507.675
2511.06318	40473.175
2513.79462	40360.075
2516.52435	40284.175
2519.25237	40280.275
2521.97867	40265.675
2524.70327	40269.475
2527.42616	40159.175
2530.14734	40144.275
2532.86681	40089.175
2535.58458	40018.875
2538.30065	39999.075
2541.01501	40012.475
2543.72768	39923.075
2546.43864	39924.175
2549.14791	39819.575
2551.85548	39763.075
2554.56136	39730.575
2557.26554	39635.475
2559.96803	39510.575
2562.66883	39488.375
2565.36794	39399.975
2568.06536	39402.775
2570.7611	39377.475
2573.45514	39282.875
2576.14751	39235.675
2578.83819	39206.675
2581.52719	39119.375
2584.21451	39005.175
2586.90015	38999.875
2589.58411	38895.775
2592.2664	38807.275
2594.94701	38790.775
2597.62594	38775.375
2600.30321	38681.775
2602.9788	38685.475
2605.65273	38593.075
2608.32498	38591.275
2610.99557	38526.875
2613.66449	38513.275
2616.33175	38481.075
2618.99734	38487.175
2621.66128	38471.775
2624.32355	38400.475
2626.98416	38296.075
2629.64311	38249.875
2632.30041	38186.175
2634.95605	38148.475
2637.61004	38143.175
2640.26238	38127.475
2642.91306	38130.875
2645.56209	38059.875
2648.20948	38058.175
2650.85521	38077.975
2653.4993	38045.275
2656.14175	38021.275
2658.78255	38066.175
2661.42171	38051.275
2664.05923	38045.875
2666.6951	38045.575
2669.32934	38050.075
2671.96194	37993.775
2674.59291	37998.475
2677.22224	37965.875
2679.84993	38012.375
2682.476	37977.575
2685.10043	38003.175
2687.72324	37972.175
2690.34441	37922.675
2692.96396	37921.675
2695.58188	37932.575
2698.19818	37893.875
2700.81285	37909.575
2703.4259	37860.975
2706.03733	37956.575
2708.64714	37897.175
2711.25533	37919.075
2713.86191	37897.875
2716.46687	38003.975
2719.07021	38065.575
2721.67194	38032.575
2724.27206	38027.475
2726.87057	38073.175
2729.46747	38058.875
2732.06276	38114.475
2734.65644	37997.375
2737.24852	37944.575
2739.83899	37891.075
2742.42786	37908.775
2745.01513	37871.075
2747.60079	37865.375
2750.18486	37747.675
2752.76733	37673.275
2755.3482	37648.375
2757.92747	37625.575
2760.50515	37562.975
2763.08123	37556.675
2765.65573	37466.875
2768.22863	37446.975
2770.79994	37394.275
2773.36967	37388.375
2775.9378	37342.875
2778.50435	37361.975
2781.06932	37295.275
2783.6327	37231.675
2786.1945	37188.575
2788.75471	37102.875
2791.31335	37054.675
2793.87041	37031.875
2796.42589	36925.775
2798.97979	36887.275
2801.53212	36781.975
2804.08288	36730.075
2806.63206	36593.075
2809.17967	36506.175
2811.72571	36390.175
2814.27018	36360.675
2816.81308	36305.175
2819.35442	36241.275
2821.89419	36202.475
2824.43239	36207.175
2826.96904	36114.075
2829.50412	36079.275
2832.03763	35964.575
2834.56959	35966.175
2837.1	35847.175
2839.62884	35845.275
2842.15613	35803.075
2844.68186	35828.675
2847.20604	35754.475
2849.72867	35666.775
2852.24974	35672.375
2854.76927	35622.875
2857.28724	35605.875
2859.80367	35536.175
2862.31855	35421.275
2864.83189	35379.775
2867.34368	35401.775
2869.85393	35383.875
2872.36264	35330.475
2874.8698	35276.375
2877.37543	35287.775
2879.87952	35175.175
2882.38207	35172.575
2884.88308	35136.075
2887.38256	35161.875
2889.88051	35086.575
2892.37692	35151.175
2894.8718	35144.375
2897.36515	35222.975
2899.85698	35074.675
2902.34727	35123.475
2904.83604	35189.975
2907.32328	35237.775
2909.809	35207.475
2912.29319	35254.075
2914.77587	35249.775
2917.25702	35232.675
2919.73665	35204.375
2922.21476	35240.475
2924.69136	35191.475
2927.16644	35181.075
2929.64	35084.075
2932.11205	35054.475
2934.58258	34936.975
2937.05161	34973.675
2939.51912	34991.675
2941.98513	35014.575
2944.44962	34952.775
2946.91261	34871.675
2949.37409	34920.875
2951.83407	34866.575
2954.29254	34835.375
2956.74951	34865.275
2959.20498	34865.675
2961.65895	34814.375
2964.11142	34803.075
2966.56239	34751.375
2969.01186	34791.175
2971.45984	34678.375
2973.90632	34674.975
2976.35131	34609.275
2978.7948	34564.975
2981.23681	34557.175
2983.67732	34478.475
2986.11635	34395.075
2988.55388	34367.175
2990.98993	34266.375
2993.4245	34201.075
2995.85758	34090.375
2998.28917	33989.875
3000.71928	33929.375
3003.14791	33875.775
3005.57506	33862.175
3008.00073	33739.475
3010.42493	33684.675
3012.84764	33643.375
3015.26888	33738.775
3017.68865	33562.975
3020.10694	33540.475
3022.52376	33464.875
3024.9391	33423.775
3027.35298	33377.775
3029.76539	33375.375
3032.17632	33264.475
3034.5858	33266.575
3036.9938	33265.175
3039.40034	33255.775
3041.80542	33253.175
3044.20903	33168.775
3046.61118	33115.975
3049.01187	33012.275
3051.4111	32922.475
3053.80888	32852.675
3056.20519	32828.575
3058.60005	32733.075
3060.99345	32736.175
3063.3854	32665.675
3065.7759	32495.575
3068.16494	32431.475
3070.55254	32314.275
3072.93868	32261.775
3075.32338	32184.075
3077.70662	32172.675
3080.08842	32058.975
3082.46878	32029.575
3084.84769	31981.975
3087.22515	31926.675
3089.60118	31932.675
3091.97576	31873.775
3094.3489	31877.075
3096.72061	31861.175
3099.09087	31949.175
3101.4597	31905.675
3103.82709	31898.575
3106.19305	31834.575
3108.55757	31806.875
3110.92066	31730.975
3113.28232	31638.675
3115.64255	31530.575
3118.00134	31473.875
3120.35871	31471.875
3122.71466	31395.875
3125.06917	31309.775
