Data from AgNPs_FTO_APTES_UA_20uM_CRN_0uM_R6G_10uM_NaF_0.1M_Addition_RamanShift__3__10-53-11-921.txt Node

Date: Thu Feb 17 10:53:11 GMT 2022
User: TCL
Spectrometer: QEP01345
Trigger mode: 4
Integration Time (sec): 7.000000E0
Scans to average: 10
Electric dark correction enabled: true
Nonlinearity correction enabled: false
Boxcar width: 0
XAxis mode: Raman Shifts
Number of Pixels in Spectrum: 1044
>>>>>Begin Spectral Data<<<<<
46.04893	0.0875
50.45542	-0.0125
54.85868	-1.6125
59.25871	0.6875
63.6555	37.2875
68.04907	40.3875
72.43941	43.9875
76.82654	40.3875
81.21044	43.5875
85.59113	49.2875
89.96862	48.7875
94.34289	49.1875
98.71396	50.6875
103.08183	53.6875
107.4465	57.2875
111.80798	57.4875
116.16626	56.5875
120.52136	60.6875
124.87327	59.2875
129.222	66.1875
133.56755	69.8875
137.90993	68.2875
142.24913	77.3875
146.58517	92.2875
150.91804	105.8875
155.24774	124.4875
159.57429	161.6875
163.89768	206.3875
168.21792	275.5875
172.53501	379.4875
176.84895	527.2875
181.15975	742.6875
185.46741	1051.3875
189.77193	1459.1875
194.07331	1954.2875
198.37157	2537.0875
202.6667	3145.1875
206.9587	3752.4875
211.24758	4363.7875
215.53334	4985.9875
219.81599	5649.1875
224.09553	6378.3875
228.37195	7234.6875
232.64527	8107.8875
236.91549	9001.7875
241.18261	9835.4875
245.44663	10495.2875
249.70755	11040.5875
253.96539	11470.3875
258.22014	11826.5875
262.4718	12142.8875
266.72039	12376.2875
270.96589	12478.6875
275.20832	12387.1875
279.44768	12177.2875
283.68397	11938.3875
287.91719	11765.3875
292.14735	11741.9875
296.37445	11885.1875
300.59849	12229.7875
304.81948	12759.6875
309.03742	13191.2875
313.25231	13417.3875
317.46415	13163.8875
321.67296	12474.5875
325.87872	11683.8875
330.08145	11182.6875
334.28114	10984.7875
338.47781	11080.7875
342.67145	11309.6875
346.86207	11690.1875
351.04966	12250.5875
355.23424	12883.2875
359.4158	13283.0875
363.59435	13334.7875
367.76989	13213.2875
371.94243	13023.6875
376.11196	12835.1875
380.27849	12697.4875
384.44203	12576.2875
388.60257	12500.7875
392.76012	12575.1875
396.91468	12769.9875
401.06626	13065.1875
405.21485	13206.2875
409.36047	12930.0875
413.50311	12281.6875
417.64277	11773.4875
421.77947	11526.6875
425.9132	11451.4875
430.04396	11466.6875
434.17176	11389.4875
438.2966	11415.2875
442.41849	11584.7875
446.53742	11844.6875
450.6534	12123.4875
454.76644	12197.6875
458.87653	12125.0875
462.98368	11946.7875
467.08789	11781.6875
471.18916	11507.4875
475.2875	11176.8875
479.38291	10884.0875
483.4754	10656.3875
487.56496	10563.1875
491.6516	10504.0875
495.73531	10505.8875
499.81612	10509.4875
503.89401	10642.5875
507.96899	10801.9875
512.04106	10914.9875
516.11023	11038.6875
520.1765	11092.7875
524.23987	11101.9875
528.30034	11009.3875
532.35792	10912.6875
536.41261	10655.1875
540.46441	10357.0875
544.51333	10203.2875
548.55936	10238.0875
552.60252	10474.3875
556.64279	10808.0875
560.6802	11023.6875
564.71473	11169.6875
568.7464	11523.6875
572.7752	11835.5875
576.80114	11806.7875
580.82422	11819.6875
584.84444	12184.6875
588.86181	12818.4875
592.87633	13569.9875
596.888	13880.9875
600.89682	13471.9875
604.9028	13711.1875
608.90594	16543.1875
612.90624	21123.1875
616.90371	20771.5875
620.89834	14521.5875
624.89015	11106.3875
628.87913	10464.6875
632.86528	10663.8875
636.84862	10876.7875
640.82913	10621.1875
644.80683	10011.1875
648.78172	9669.9875
652.75379	9679.8875
656.72306	10051.6875
660.68952	10493.1875
664.65319	10372.2875
668.61405	9712.9875
672.57211	9365.3875
676.52738	9354.1875
680.47986	9374.3875
684.42955	9316.1875
688.37646	9161.8875
692.32058	9189.9875
696.26192	9255.7875
700.20048	9478.8875
704.13626	9581.9875
708.06928	9597.4875
711.99952	9508.1875
715.927	9506.3875
719.85171	9545.1875
723.77365	9547.4875
727.69284	9425.6875
731.60928	9231.5875
735.52295	9192.9875
739.43388	9193.7875
743.34206	9255.7875
747.24749	9297.1875
751.15017	9398.2875
755.05012	9592.9875
758.94733	10116.6875
762.8418	11377.8875
766.73354	13664.1875
770.62254	15823.9875
774.50882	16462.6875
778.39237	15388.4875
782.27321	13465.8875
786.15132	11489.4875
790.02671	10182.1875
793.89938	9541.2875
797.76935	9238.4875
801.6366	9078.6875
805.50115	8999.4875
809.36299	8912.8875
813.22213	8806.5875
817.07857	8703.8875
820.93231	8682.1875
824.78336	8636.8875
828.63172	8655.0875
832.47738	8631.8875
836.32036	8571.9875
840.16066	8546.8875
843.99827	8519.9875
847.8332	8504.8875
851.66546	8500.6875
855.49504	8509.4875
859.32195	8502.0875
863.1462	8453.0875
866.96777	8415.2875
870.78668	8401.2875
874.60293	8409.3875
878.41652	8429.5875
882.22745	8509.4875
886.03573	8555.3875
889.84136	8566.3875
893.64433	8539.3875
897.44466	8571.0875
901.24235	8600.8875
905.0374	8553.0875
908.8298	8454.6875
912.61957	8409.2875
916.40671	8446.4875
920.19121	8534.0875
923.97308	8668.4875
927.75233	8888.9875
931.52895	8964.3875
935.30295	8793.9875
939.07433	8400.6875
942.84309	8081.7875
946.60924	7876.4875
950.37278	7773.4875
954.13371	7733.5875
957.89203	7709.9875
961.64774	7646.2875
965.40086	7636.2875
969.15137	7586.0875
972.89929	7546.6875
976.64461	7487.9875
980.38733	7452.9875
984.12747	7430.2875
987.86502	7442.5875
991.59999	7493.5875
995.33237	7552.6875
999.06217	7702.6875
1002.78939	7916.4875
1006.51404	8209.9875
1010.23611	8459.6875
1013.95561	8578.0875
1017.67255	8591.8875
1021.38692	8439.2875
1025.09872	8159.1875
1028.80796	7908.2875
1032.51465	7805.8875
1036.21877	7763.5875
1039.92035	7798.5875
1043.61937	7868.4875
1047.31584	7907.2875
1051.00976	7985.8875
1054.70114	7985.4875
1058.38998	7985.3875
1062.07627	7974.8875
1065.76003	8013.5875
1069.44126	8094.0875
1073.11995	8289.5875
1076.79611	8515.2875
1080.46974	8749.8875
1084.14085	9076.8875
1087.80943	9509.3875
1091.47549	9663.3875
1095.13903	9458.0875
1098.80005	8989.1875
1102.45857	8549.2875
1106.11456	8318.0875
1109.76805	8287.3875
1113.41903	8444.0875
1117.06751	8736.5875
1120.71348	9168.0875
1124.35696	9695.6875
1127.99793	10268.0875
1131.63641	10337.6875
1135.2724	9839.1875
1138.90589	9300.0875
1142.5369	8989.5875
1146.16542	8790.9875
1149.79145	8704.6875
1153.415	8740.3875
1157.03607	8828.4875
1160.65467	9161.5875
1164.27079	9777.0875
1167.88443	10660.4875
1171.49561	11803.1875
1175.10432	13476.9875
1178.71056	15695.7875
1182.31434	17655.7875
1185.91565	18343.7875
1189.51451	17793.7875
1193.11091	16685.7875
1196.70485	15207.2875
1200.29634	13856.9875
1203.88538	12755.3875
1207.47197	11759.8875
1211.05612	10976.8875
1214.63782	10465.6875
1218.21708	10158.6875
1221.79391	9985.6875
1225.36829	10010.9875
1228.94024	10100.6875
1232.50976	10049.5875
1236.07685	9929.7875
1239.6415	9782.8875
1243.20374	9708.4875
1246.76355	9675.9875
1250.32093	9744.4875
1253.8759	9942.8875
1257.42845	10358.9875
1260.97859	10970.7875
1264.52631	11663.3875
1268.07163	12271.7875
1271.61453	12765.1875
1275.15503	13124.1875
1278.69312	13411.7875
1282.22882	13698.6875
1285.76211	14263.7875
1289.29301	15154.3875
1292.82151	16119.9875
1296.34761	17029.5875
1299.87133	18276.5875
1303.39266	19930.1875
1306.9116	22143.9875
1310.42815	24641.2875
1313.94233	26040.8875
1317.45412	25306.8875
1320.96354	23145.3875
1324.47058	20973.3875
1327.97525	19162.5875
1331.47754	17888.1875
1334.97747	17135.0875
1338.47502	16747.1875
1341.97022	16860.0875
1345.46305	17578.7875
1348.95352	18881.8875
1352.44163	20598.6875
1355.92738	22743.5875
1359.41078	25892.7875
1362.89183	29530.8875
1366.37053	29861.6875
1369.84688	25248.5875
1373.32088	19560.8875
1376.79254	15882.2875
1380.26186	14274.8875
1383.72883	13484.0875
1387.19347	12797.6875
1390.65578	12144.7875
1394.11575	11820.6875
1397.57339	11807.0875
1401.0287	11915.4875
1404.48168	12026.9875
1407.93234	11909.4875
1411.38068	11651.4875
1414.82669	11398.5875
1418.27039	11198.9875
1421.71177	10959.9875
1425.15083	10682.2875
1428.58758	10555.6875
1432.02203	10721.5875
1435.45416	11066.8875
1438.88399	11247.1875
1442.31151	11244.6875
1445.73673	11216.2875
1449.15965	11253.9875
1452.58027	11199.1875
1455.9986	11129.1875
1459.41463	11172.8875
1462.82837	11388.2875
1466.23982	11652.2875
1469.64898	11947.3875
1473.05586	12210.0875
1476.46045	12401.4875
1479.86276	12550.5875
1483.26279	12769.8875
1486.66054	13128.8875
1490.05602	13813.5875
1493.44922	14733.6875
1496.84016	16100.7875
1500.22882	17993.9875
1503.61521	20430.2875
1506.99934	23271.5875
1510.38121	25918.3875
1513.76081	26985.0875
1517.13816	25456.1875
1520.51324	22098.1875
1523.88607	18788.4875
1527.25665	16529.1875
1530.62498	15167.1875
1533.99105	14246.6875
1537.35488	13422.3875
1540.71647	12683.9875
1544.07581	12095.1875
1547.4329	11679.8875
1550.78776	11489.3875
1554.14038	11490.9875
1557.49077	11691.6875
1560.83892	11995.8875
1564.18484	12506.4875
1567.52853	13060.6875
1570.86999	13584.4875
1574.20922	13930.6875
1577.54624	13976.4875
1580.88103	13271.5875
1584.2136	12152.8875
1587.54395	11643.9875
1590.87208	11859.0875
1594.19801	12683.0875
1597.52172	13728.0875
1600.84321	13951.9875
1604.16251	13075.1875
1607.47959	11794.5875
1610.79447	10654.1875
1614.10715	9661.6875
1617.41763	8780.4875
1620.7259	8182.3875
1624.03199	7892.8875
1627.33587	7934.2875
1630.63757	8400.5875
1633.93707	9273.5875
1637.23439	10826.5875
1640.52951	13237.8875
1643.82246	16368.1875
1647.11321	19443.3875
1650.40179	21064.0875
1653.68819	19864.7875
1656.97241	16223.1875
1660.25446	12266.9875
1663.53433	9483.8875
1666.81203	7860.1875
1670.08756	6919.3875
1673.36092	6400.8875
1676.63211	6067.8875
1679.90115	5854.7875
1683.16801	5682.6875
1686.43272	5568.6875
1689.69527	5479.2875
1692.95567	5394.5875
1696.2139	5349.8875
1699.46999	5301.5875
1702.72392	5288.7875
1705.97571	5252.7875
1709.22535	5192.8875
1712.47284	5221.3875
1715.71819	5237.2875
1718.96139	5218.3875
1722.20246	5196.9875
1725.44139	5149.0875
1728.67818	5080.9875
1731.91284	5020.1875
1735.14537	4940.2875
1738.37576	4864.5875
1741.60403	4882.4875
1744.83017	4867.4875
1748.05418	4842.3875
1751.27607	4813.2875
1754.49584	4806.7875
1757.71349	4793.3875
1760.92903	4795.6875
1764.14244	4776.0875
1767.35375	4767.4875
1770.56294	4762.6875
1773.77002	4732.7875
1776.97499	4728.4875
1780.17785	4700.4875
1783.37861	4691.8875
1786.57727	4677.5875
1789.77382	4646.9875
1792.96828	4629.3875
1796.16064	4615.2875
1799.3509	4583.5875
1802.53907	4563.3875
1805.72514	4529.1875
1808.90913	4485.6875
1812.09102	4471.2875
1815.27083	4427.8875
1818.44856	4406.3875
1821.6242	4386.4875
1824.79776	4378.8875
1827.96924	4363.2875
1831.13864	4352.2875
1834.30597	4358.2875
1837.47122	4348.4875
1840.6344	4328.8875
1843.7955	4338.9875
1846.95454	4305.2875
1850.11151	4293.7875
1853.26642	4280.9875
1856.41926	4250.0875
1859.57004	4253.0875
1862.71876	4212.6875
1865.86542	4200.9875
1869.01003	4160.0875
1872.15258	4132.5875
1875.29308	4150.3875
1878.43152	4136.9875
1881.56792	4105.0875
1884.70227	4100.7875
1887.83457	4085.2875
1890.96482	4069.1875
1894.09304	4056.3875
1897.21921	4039.9875
1900.34335	4018.4875
1903.46544	4004.8875
1906.58551	3992.0875
1909.70353	3980.3875
1912.81953	3968.3875
1915.93349	3946.8875
1919.04543	3915.3875
1922.15534	3916.2875
1925.26322	3892.2875
1928.36908	3856.5875
1931.47292	3863.3875
1934.57473	3821.3875
1937.67453	3794.8875
1940.77232	3767.0875
1943.86808	3750.5875
1946.96184	3733.3875
1950.05358	3733.9875
1953.14331	3715.8875
1956.23103	3697.0875
1959.31675	3674.4875
1962.40046	3664.5875
1965.48217	3658.2875
1968.56188	3631.3875
1971.63959	3629.8875
1974.7153	3613.0875
1977.78901	3610.3875
1980.86073	3565.9875
1983.93046	3541.6875
1986.99819	3542.3875
1990.06394	3521.2875
1993.1277	3490.5875
1996.18947	3467.3875
1999.24925	3460.6875
2002.30706	3426.5875
2005.36288	3408.3875
2008.41672	3390.3875
2011.46859	3370.4875
2014.51848	3375.6875
2017.56639	3343.2875
2020.61233	3335.5875
2023.6563	3312.7875
2026.6983	3289.2875
2029.73833	3288.1875
2032.7764	3270.3875
2035.8125	3265.8875
2038.84664	3235.8875
2041.87881	3234.8875
2044.90903	3239.1875
2047.93729	3217.8875
2050.96359	3203.5875
2053.98794	3200.7875
2057.01034	3194.8875
2060.03078	3195.6875
2063.04927	3181.8875
2066.06582	3180.4875
2069.08042	3173.2875
2072.09307	3165.4875
2075.10378	3159.8875
2078.11255	3162.1875
2081.11938	3163.6875
2084.12426	3144.5875
2087.12722	3160.4875
2090.12824	3149.5875
2093.12732	3139.1875
2096.12447	3140.1875
2099.11969	3131.7875
2102.11299	3132.0875
2105.10435	3134.5875
2108.09379	3140.4875
2111.08131	3138.8875
2114.0669	3132.0875
2117.05057	3116.9875
2120.03233	3115.7875
2123.01216	3128.8875
2125.99008	3142.2875
2128.96609	3127.2875
2131.94018	3107.6875
2134.91236	3101.4875
2137.88263	3103.2875
2140.851	3095.7875
2143.81746	3078.0875
2146.78201	3055.3875
2149.74466	3049.3875
2152.7054	3041.4875
2155.66425	3025.5875
2158.6212	3023.8875
2161.57625	3013.7875
2164.52941	3011.2875
2167.48067	2995.0875
2170.43004	2990.8875
2173.37752	2977.2875
2176.32311	2993.8875
2179.26681	2967.4875
2182.20863	2978.0875
2185.14856	2977.5875
2188.08661	2964.9875
2191.02278	2964.6875
2193.95707	2946.4875
2196.88948	2940.0875
2199.82001	2930.4875
2202.74867	2922.7875
2205.67545	2900.4875
2208.60037	2903.7875
2211.52341	2886.0875
2214.44458	2890.5875
2217.36388	2860.4875
2220.28132	2869.2875
2223.1969	2834.9875
2226.11061	2834.9875
2229.02246	2820.0875
2231.93245	2829.1875
2234.84058	2821.2875
2237.74686	2812.2875
2240.65128	2811.2875
2243.55385	2807.6875
2246.45456	2794.4875
2249.35343	2785.1875
2252.25044	2788.6875
2255.14561	2777.5875
2258.03893	2783.8875
2260.93041	2765.8875
2263.82004	2766.4875
2266.70783	2765.8875
2269.59378	2750.5875
2272.4779	2747.5875
2275.36017	2737.6875
2278.24061	2725.7875
2281.11922	2714.1875
2283.996	2704.5875
2286.87094	2688.5875
2289.74405	2671.6875
2292.61534	2667.9875
2295.4848	2644.0875
2298.35243	2636.7875
2301.21824	2634.8875
2304.08223	2639.0875
2306.94439	2620.5875
2309.80474	2620.5875
2312.66327	2627.0875
2315.51999	2602.6875
2318.37489	2604.2875
2321.22797	2595.7875
2324.07925	2598.2875
2326.92871	2581.6875
2329.77637	2568.7875
2332.62222	2566.9875
2335.46626	2571.6875
2338.3085	2558.2875
2341.14893	2573.2875
2343.98756	2557.2875
2346.8244	2572.1875
2349.65943	2568.1875
2352.49267	2572.9875
2355.32411	2580.2875
2358.15376	2597.2875
2360.98161	2603.7875
2363.80768	2591.5875
2366.63195	2615.2875
2369.45444	2607.2875
2372.27514	2610.4875
2375.09405	2587.1875
2377.91118	2580.4875
2380.72652	2558.9875
2383.54009	2541.4875
2386.35187	2522.8875
2389.16188	2506.7875
2391.97011	2489.5875
2394.77657	2475.3875
2397.58125	2475.6875
2400.38416	2457.4875
2403.18529	2434.6875
2405.98466	2433.0875
2408.78226	2421.0875
2411.57809	2413.1875
2414.37216	2417.0875
2417.16446	2413.0875
2419.955	2411.0875
2422.74378	2407.0875
2425.5308	2421.1875
2428.31606	2410.8875
2431.09956	2415.9875
2433.88131	2409.8875
2436.6613	2409.4875
2439.43954	2405.9875
2442.21603	2407.1875
2444.99077	2410.5875
2447.76377	2409.9875
2450.53501	2411.8875
2453.30451	2417.8875
2456.07226	2415.8875
2458.83827	2424.3875
2461.60254	2416.0875
2464.36507	2395.0875
2467.12586	2400.9875
2469.88492	2401.7875
2472.64224	2392.6875
2475.39782	2401.4875
2478.15167	2397.8875
2480.90379	2414.7875
2483.65417	2406.3875
2486.40283	2418.1875
2489.14976	2422.9875
2491.89497	2434.4875
2494.63845	2422.9875
2497.3802	2424.1875
2500.12024	2420.7875
2502.85855	2395.9875
2505.59514	2397.2875
2508.33002	2364.5875
2511.06318	2363.0875
2513.79462	2332.4875
2516.52435	2325.7875
2519.25237	2315.1875
2521.97867	2302.0875
2524.70327	2293.3875
2527.42616	2269.9875
2530.14734	2262.4875
2532.86681	2262.3875
2535.58458	2268.5875
2538.30065	2261.2875
2541.01501	2258.0875
2543.72768	2261.4875
2546.43864	2269.5875
2549.14791	2253.4875
2551.85548	2256.0875
2554.56136	2260.5875
2557.26554	2247.5875
2559.96803	2247.0875
2562.66883	2236.2875
2565.36794	2244.9875
2568.06536	2238.3875
2570.7611	2236.7875
2573.45514	2230.4875
2576.14751	2223.5875
2578.83819	2203.9875
2581.52719	2202.9875
2584.21451	2193.2875
2586.90015	2187.6875
2589.58411	2190.8875
2592.2664	2182.8875
2594.94701	2178.1875
2597.62594	2179.0875
2600.30321	2166.4875
2602.9788	2173.7875
2605.65273	2176.5875
2608.32498	2173.2875
2610.99557	2163.0875
2613.66449	2172.0875
2616.33175	2162.3875
2618.99734	2175.1875
2621.66128	2161.1875
2624.32355	2150.7875
2626.98416	2150.3875
2629.64311	2146.7875
2632.30041	2129.7875
2634.95605	2123.6875
2637.61004	2118.7875
2640.26238	2113.5875
2642.91306	2109.6875
2645.56209	2098.6875
2648.20948	2098.5875
2650.85521	2108.3875
2653.4993	2112.0875
2656.14175	2110.4875
2658.78255	2112.6875
2661.42171	2129.5875
2664.05923	2123.5875
2666.6951	2122.9875
2669.32934	2119.5875
2671.96194	2130.4875
2674.59291	2113.9875
2677.22224	2138.8875
2679.84993	2130.0875
2682.476	2114.2875
2685.10043	2116.1875
2687.72324	2108.1875
2690.34441	2103.4875
2692.96396	2098.0875
2695.58188	2097.2875
2698.19818	2102.5875
2700.81285	2091.0875
2703.4259	2099.6875
2706.03733	2079.6875
2708.64714	2082.8875
2711.25533	2091.0875
2713.86191	2093.6875
2716.46687	2105.6875
2719.07021	2096.7875
2721.67194	2100.7875
2724.27206	2092.1875
2726.87057	2100.0875
2729.46747	2094.1875
2732.06276	2097.7875
2734.65644	2086.8875
2737.24852	2089.8875
2739.83899	2065.4875
2742.42786	2065.7875
2745.01513	2064.7875
2747.60079	2053.2875
2750.18486	2052.5875
2752.76733	2048.5875
2755.3482	2042.0875
2757.92747	2034.5875
2760.50515	2035.1875
2763.08123	2025.9875
2765.65573	2019.9875
2768.22863	2012.9875
2770.79994	2015.8875
2773.36967	2017.3875
2775.9378	2008.4875
2778.50435	2019.1875
2781.06932	2012.6875
2783.6327	2017.9875
2786.1945	2007.3875
2788.75471	2005.1875
2791.31335	2003.1875
2793.87041	2001.3875
2796.42589	2001.8875
2798.97979	2004.2875
2801.53212	2012.4875
2804.08288	2004.5875
2806.63206	2008.8875
2809.17967	2010.4875
2811.72571	1996.5875
2814.27018	2007.8875
2816.81308	2006.5875
2819.35442	2006.8875
2821.89419	2004.4875
2824.43239	2015.1875
2826.96904	2018.8875
2829.50412	2010.6875
2832.03763	2011.2875
2834.56959	2003.4875
2837.1	2011.0875
2839.62884	2007.9875
2842.15613	2023.3875
2844.68186	2032.5875
2847.20604	2041.0875
2849.72867	2057.7875
2852.24974	2049.7875
2854.76927	2044.1875
2857.28724	2063.9875
2859.80367	2058.4875
2862.31855	2070.2875
2864.83189	2061.3875
2867.34368	2062.0875
2869.85393	2068.2875
2872.36264	2069.9875
2874.8698	2066.9875
2877.37543	2058.1875
2879.87952	2072.2875
2882.38207	2065.8875
2884.88308	2047.9875
2887.38256	2052.7875
2889.88051	2038.0875
2892.37692	2054.0875
2894.8718	2043.4875
2897.36515	2051.2875
2899.85698	2056.2875
2902.34727	2059.5875
2904.83604	2063.2875
2907.32328	2062.9875
2909.809	2074.1875
2912.29319	2087.1875
2914.77587	2095.8875
2917.25702	2083.9875
2919.73665	2082.0875
2922.21476	2076.8875
2924.69136	2071.4875
2927.16644	2064.7875
2929.64	2051.7875
2932.11205	2037.8875
2934.58258	2046.1875
2937.05161	2036.5875
2939.51912	2017.2875
2941.98513	2015.9875
2944.44962	1998.1875
2946.91261	1987.3875
2949.37409	1983.0875
2951.83407	1976.5875
2954.29254	1970.7875
2956.74951	1955.2875
2959.20498	1958.2875
2961.65895	1942.5875
2964.11142	1947.0875
2966.56239	1943.4875
2969.01186	1930.5875
2971.45984	1910.5875
2973.90632	1893.4875
2976.35131	1887.6875
2978.7948	1878.7875
2981.23681	1870.9875
2983.67732	1870.8875
2986.11635	1854.4875
2988.55388	1853.6875
2990.98993	1848.5875
2993.4245	1834.2875
2995.85758	1841.8875
2998.28917	1822.9875
3000.71928	1818.9875
3003.14791	1824.7875
3005.57506	1821.3875
3008.00073	1806.6875
3010.42493	1814.5875
3012.84764	1803.9875
3015.26888	1817.1875
3017.68865	1785.9875
3020.10694	1787.2875
3022.52376	1796.8875
3024.9391	1769.2875
3027.35298	1773.2875
3029.76539	1764.8875
3032.17632	1758.0875
3034.5858	1757.9875
3036.9938	1744.3875
3039.40034	1751.6875
3041.80542	1743.6875
3044.20903	1735.2875
3046.61118	1738.2875
3049.01187	1738.0875
3051.4111	1718.7875
3053.80888	1725.4875
3056.20519	1722.2875
3058.60005	1735.3875
3060.99345	1714.3875
3063.3854	1721.7875
3065.7759	1707.8875
3068.16494	1712.6875
3070.55254	1708.4875
3072.93868	1697.5875
3075.32338	1690.2875
3077.70662	1686.2875
3080.08842	1679.3875
3082.46878	1675.7875
3084.84769	1676.3875
3087.22515	1667.0875
3089.60118	1686.2875
3091.97576	1674.8875
3094.3489	1667.9875
3096.72061	1670.8875
