Data from AgNPs_FTO_APTES_UA_20uM_CRN_0uM_R6G_10uM_NaF_0.1M_Addition_RamanShift__4__10-54-21-922.txt Node

Date: Thu Feb 17 10:54:21 GMT 2022
User: TCL
Spectrometer: QEP01345
Trigger mode: 4
Integration Time (sec): 7.000000E0
Scans to average: 10
Electric dark correction enabled: true
Nonlinearity correction enabled: false
Boxcar width: 0
XAxis mode: Raman Shifts
Number of Pixels in Spectrum: 1044
>>>>>Begin Spectral Data<<<<<
46.04893	1.8125
50.45542	0.2125
54.85868	-2.7875
59.25871	0.2125
63.6555	34.1125
68.04907	34.6125
72.43941	37.4125
76.82654	40.9125
81.21044	40.2125
85.59113	44.6125
89.96862	48.5125
94.34289	45.9125
98.71396	47.5125
103.08183	53.4125
107.4465	50.8125
111.80798	49.7125
116.16626	54.4125
120.52136	56.9125
124.87327	55.0125
129.222	56.8125
133.56755	64.3125
137.90993	64.9125
142.24913	72.2125
146.58517	88.8125
150.91804	97.5125
155.24774	116.0125
159.57429	143.7125
163.89768	190.7125
168.21792	256.9125
172.53501	349.9125
176.84895	489.2125
181.15975	692.5125
185.46741	976.3125
189.77193	1349.8125
194.07331	1817.7125
198.37157	2343.0125
202.6667	2925.0125
206.9587	3487.1125
211.24758	4060.6125
215.53334	4639.8125
219.81599	5262.6125
224.09553	5959.2125
228.37195	6727.7125
232.64527	7548.9125
236.91549	8367.0125
241.18261	9130.6125
245.44663	9732.5125
249.70755	10248.3125
253.96539	10629.6125
258.22014	10971.1125
262.4718	11301.6125
266.72039	11509.8125
270.96589	11598.7125
275.20832	11530.3125
279.44768	11301.2125
283.68397	11120.7125
287.91719	10930.4125
292.14735	10914.5125
296.37445	11052.7125
300.59849	11403.7125
304.81948	11840.7125
309.03742	12279.1125
313.25231	12446.0125
317.46415	12221.7125
321.67296	11548.4125
325.87872	10819.3125
330.08145	10333.4125
334.28114	10159.3125
338.47781	10225.5125
342.67145	10436.1125
346.86207	10841.5125
351.04966	11358.1125
355.23424	11922.3125
359.4158	12308.9125
363.59435	12382.4125
367.76989	12247.3125
371.94243	12053.9125
376.11196	11868.0125
380.27849	11769.2125
384.44203	11638.4125
388.60257	11580.4125
392.76012	11664.2125
396.91468	11838.8125
401.06626	12100.7125
405.21485	12263.2125
409.36047	11997.3125
413.50311	11456.4125
417.64277	11044.7125
421.77947	10858.1125
425.9132	10702.2125
430.04396	10631.1125
434.17176	10592.2125
438.2966	10619.9125
442.41849	10742.2125
446.53742	10972.3125
450.6534	11198.1125
454.76644	11257.6125
458.87653	11185.7125
462.98368	11061.4125
467.08789	10905.5125
471.18916	10695.6125
475.2875	10386.5125
479.38291	10141.8125
483.4754	9975.9125
487.56496	9873.9125
491.6516	9825.6125
495.73531	9815.5125
499.81612	9849.6125
503.89401	9941.0125
507.96899	10103.5125
512.04106	10222.4125
516.11023	10298.6125
520.1765	10379.6125
524.23987	10395.3125
528.30034	10297.0125
532.35792	10160.5125
536.41261	9958.9125
540.46441	9708.1125
544.51333	9550.5125
548.55936	9588.0125
552.60252	9807.5125
556.64279	10098.0125
560.6802	10284.6125
564.71473	10423.4125
568.7464	10737.7125
572.7752	11054.1125
576.80114	11000.6125
580.82422	10990.1125
584.84444	11270.1125
588.86181	11793.9125
592.87633	12338.0125
596.888	12585.7125
600.89682	12261.0125
604.9028	12595.9125
608.90594	15322.0125
612.90624	19605.0125
616.90371	19278.0125
620.89834	13550.6125
624.89015	10387.0125
628.87913	9804.0125
632.86528	9960.6125
636.84862	10195.9125
640.82913	9938.6125
644.80683	9413.1125
648.78172	9085.5125
652.75379	9091.4125
656.72306	9406.2125
660.68952	9823.4125
664.65319	9729.0125
668.61405	9152.2125
672.57211	8803.9125
676.52738	8806.7125
680.47986	8824.7125
684.42955	8761.5125
688.37646	8656.1125
692.32058	8625.1125
696.26192	8702.7125
700.20048	8885.8125
704.13626	8994.0125
708.06928	9013.6125
711.99952	8931.9125
715.927	8913.0125
719.85171	8941.5125
723.77365	8950.6125
727.69284	8823.1125
731.60928	8677.9125
735.52295	8616.7125
739.43388	8636.5125
743.34206	8657.1125
747.24749	8713.4125
751.15017	8801.3125
755.05012	8974.1125
758.94733	9473.1125
762.8418	10669.5125
766.73354	12742.8125
770.62254	14783.7125
774.50882	15308.7125
778.39237	14305.6125
782.27321	12564.5125
786.15132	10750.4125
790.02671	9540.9125
793.89938	8943.0125
797.76935	8655.7125
801.6366	8539.2125
805.50115	8459.0125
809.36299	8377.7125
813.22213	8261.8125
817.07857	8190.3125
820.93231	8141.1125
824.78336	8115.2125
828.63172	8144.3125
832.47738	8127.2125
836.32036	8076.8125
840.16066	8044.3125
843.99827	8015.4125
847.8332	8008.6125
851.66546	8010.0125
855.49504	8033.1125
859.32195	7992.8125
863.1462	7981.3125
866.96777	7950.4125
870.78668	7920.8125
874.60293	7938.1125
878.41652	7940.1125
882.22745	7999.1125
886.03573	8057.6125
889.84136	8058.2125
893.64433	8058.3125
897.44466	8082.3125
901.24235	8109.7125
905.0374	8059.8125
908.8298	7995.1125
912.61957	7914.8125
916.40671	7978.1125
920.19121	8030.8125
923.97308	8203.0125
927.75233	8354.4125
931.52895	8439.8125
935.30295	8285.4125
939.07433	7915.6125
942.84309	7631.8125
946.60924	7432.0125
950.37278	7341.5125
954.13371	7321.7125
957.89203	7285.1125
961.64774	7230.5125
965.40086	7216.9125
969.15137	7182.6125
972.89929	7135.1125
976.64461	7076.8125
980.38733	7039.2125
984.12747	7032.7125
987.86502	7028.7125
991.59999	7103.3125
995.33237	7162.1125
999.06217	7268.7125
1002.78939	7475.3125
1006.51404	7705.6125
1010.23611	7941.7125
1013.95561	8082.5125
1017.67255	8048.1125
1021.38692	7901.5125
1025.09872	7681.9125
1028.80796	7467.1125
1032.51465	7362.0125
1036.21877	7347.2125
1039.92035	7356.7125
1043.61937	7413.7125
1047.31584	7464.2125
1051.00976	7532.3125
1054.70114	7536.5125
1058.38998	7548.8125
1062.07627	7538.9125
1065.76003	7587.2125
1069.44126	7650.4125
1073.11995	7807.5125
1076.79611	8036.3125
1080.46974	8247.4125
1084.14085	8567.8125
1087.80943	8939.9125
1091.47549	9104.3125
1095.13903	8895.4125
1098.80005	8456.9125
1102.45857	8058.1125
1106.11456	7811.2125
1109.76805	7799.0125
1113.41903	7950.2125
1117.06751	8199.4125
1120.71348	8622.7125
1124.35696	9116.1125
1127.99793	9631.8125
1131.63641	9712.7125
1135.2724	9267.5125
1138.90589	8718.7125
1142.5369	8417.6125
1146.16542	8237.4125
1149.79145	8157.5125
1153.415	8150.6125
1157.03607	8268.0125
1160.65467	8548.0125
1164.27079	9103.0125
1167.88443	9910.5125
1171.49561	10945.1125
1175.10432	12440.2125
1178.71056	14455.6125
1182.31434	16249.0125
1185.91565	16908.1125
1189.51451	16445.0125
1193.11091	15456.0125
1196.70485	14188.3125
1200.29634	12917.4125
1203.88538	11901.4125
1207.47197	10951.4125
1211.05612	10254.3125
1214.63782	9738.1125
1218.21708	9447.0125
1221.79391	9266.4125
1225.36829	9286.9125
1228.94024	9347.9125
1232.50976	9320.3125
1236.07685	9235.2125
1239.6415	9112.1125
1243.20374	9046.1125
1246.76355	9050.5125
1250.32093	9091.9125
1253.8759	9263.3125
1257.42845	9660.3125
1260.97859	10195.9125
1264.52631	10827.4125
1268.07163	11384.5125
1271.61453	11837.7125
1275.15503	12155.9125
1278.69312	12393.3125
1282.22882	12648.9125
1285.76211	13168.6125
1289.29301	13910.1125
1292.82151	14740.9125
1296.34761	15549.2125
1299.87133	16586.2125
1303.39266	18083.8125
1306.9116	20138.3125
1310.42815	22409.1125
1313.94233	23733.3125
1317.45412	22970.2125
1320.96354	21024.1125
1324.47058	19094.1125
1327.97525	17429.3125
1331.47754	16359.9125
1334.97747	15733.5125
1338.47502	15480.0125
1341.97022	15614.3125
1345.46305	16331.3125
1348.95352	17565.0125
1352.44163	19140.0125
1355.92738	20997.9125
1359.41078	23791.8125
1362.89183	27022.0125
1366.37053	27235.5125
1369.84688	23066.9125
1373.32088	17885.6125
1376.79254	14598.4125
1380.26186	13109.4125
1383.72883	12355.7125
1387.19347	11721.2125
1390.65578	11129.6125
1394.11575	10839.2125
1397.57339	10801.7125
1401.0287	10895.0125
1404.48168	10960.0125
1407.93234	10874.4125
1411.38068	10633.5125
1414.82669	10420.5125
1418.27039	10230.4125
1421.71177	10025.8125
1425.15083	9805.8125
1428.58758	9663.1125
1432.02203	9794.5125
1435.45416	10092.8125
1438.88399	10279.7125
1442.31151	10277.2125
1445.73673	10279.3125
1449.15965	10282.1125
1452.58027	10300.5125
1455.9986	10224.9125
1459.41463	10314.6125
1462.82837	10501.6125
1466.23982	10748.3125
1469.64898	11008.9125
1473.05586	11198.4125
1476.46045	11343.7125
1479.86276	11471.9125
1483.26279	11660.0125
1486.66054	12011.5125
1490.05602	12641.2125
1493.44922	13510.2125
1496.84016	14799.9125
1500.22882	16620.4125
1503.61521	18972.4125
1506.99934	21703.8125
1510.38121	24236.2125
1513.76081	25177.4125
1517.13816	23618.2125
1520.51324	20423.0125
1523.88607	17319.8125
1527.25665	15222.4125
1530.62498	13943.7125
1533.99105	13065.7125
1537.35488	12334.1125
1540.71647	11743.2125
1544.07581	11200.8125
1547.4329	10861.3125
1550.78776	10684.9125
1554.14038	10702.3125
1557.49077	10878.6125
1560.83892	11209.3125
1564.18484	11626.5125
1567.52853	12172.4125
1570.86999	12645.3125
1574.20922	12977.9125
1577.54624	13005.2125
1580.88103	12339.9125
1584.2136	11267.2125
1587.54395	10725.6125
1590.87208	10856.8125
1594.19801	11554.2125
1597.52172	12428.9125
1600.84321	12625.3125
1604.16251	11868.5125
1607.47959	10809.6125
1610.79447	9869.6125
1614.10715	9006.9125
1617.41763	8223.7125
1620.7259	7662.5125
1624.03199	7405.7125
1627.33587	7462.1125
1630.63757	7816.7125
1633.93707	8606.3125
1637.23439	9936.2125
1640.52951	12073.0125
1643.82246	14797.0125
1647.11321	17534.1125
1650.40179	19019.2125
1653.68819	18013.6125
1656.97241	14776.4125
1660.25446	11319.8125
1663.53433	8786.9125
1666.81203	7308.9125
1670.08756	6494.8125
1673.36092	6024.6125
1676.63211	5709.7125
1679.90115	5523.1125
1683.16801	5361.2125
1686.43272	5267.5125
1689.69527	5187.6125
1692.95567	5124.1125
1696.2139	5043.4125
1699.46999	5024.0125
1702.72392	5002.9125
1705.97571	4994.3125
1709.22535	4923.8125
1712.47284	4950.1125
1715.71819	4946.5125
1718.96139	4959.5125
1722.20246	4931.4125
1725.44139	4863.3125
1728.67818	4832.7125
1731.91284	4747.9125
1735.14537	4702.4125
1738.37576	4620.4125
1741.60403	4633.4125
1744.83017	4643.8125
1748.05418	4614.0125
1751.27607	4600.2125
1754.49584	4590.9125
1757.71349	4574.8125
1760.92903	4581.7125
1764.14244	4565.9125
1767.35375	4558.3125
1770.56294	4544.7125
1773.77002	4534.2125
1776.97499	4520.8125
1780.17785	4522.8125
1783.37861	4493.0125
1786.57727	4480.5125
1789.77382	4463.7125
1792.96828	4436.9125
1796.16064	4435.6125
1799.3509	4399.3125
1802.53907	4377.1125
1805.72514	4364.0125
1808.90913	4302.9125
1812.09102	4276.6125
1815.27083	4236.5125
1818.44856	4223.0125
1821.6242	4199.0125
1824.79776	4189.1125
1827.96924	4157.4125
1831.13864	4174.6125
1834.30597	4154.0125
1837.47122	4153.7125
1840.6344	4145.9125
1843.7955	4141.6125
1846.95454	4132.0125
1850.11151	4120.6125
1853.26642	4085.1125
1856.41926	4078.1125
1859.57004	4051.4125
1862.71876	4027.8125
1865.86542	4017.1125
1869.01003	3982.5125
1872.15258	3975.5125
1875.29308	3949.1125
1878.43152	3959.2125
1881.56792	3914.3125
1884.70227	3915.3125
1887.83457	3906.3125
1890.96482	3884.6125
1894.09304	3867.7125
1897.21921	3847.3125
1900.34335	3844.7125
1903.46544	3822.7125
1906.58551	3825.6125
1909.70353	3803.9125
1912.81953	3792.0125
1915.93349	3770.2125
1919.04543	3746.3125
1922.15534	3732.6125
1925.26322	3712.9125
1928.36908	3697.2125
1931.47292	3665.9125
1934.57473	3656.0125
1937.67453	3618.9125
1940.77232	3602.4125
1943.86808	3580.2125
1946.96184	3582.7125
1950.05358	3556.3125
1953.14331	3541.3125
1956.23103	3530.9125
1959.31675	3523.5125
1962.40046	3500.9125
1965.48217	3496.5125
1968.56188	3482.6125
1971.63959	3490.1125
1974.7153	3457.8125
1977.78901	3451.3125
1980.86073	3425.7125
1983.93046	3390.9125
1986.99819	3391.9125
1990.06394	3350.8125
1993.1277	3347.0125
1996.18947	3331.9125
1999.24925	3316.1125
2002.30706	3292.1125
2005.36288	3276.4125
2008.41672	3250.8125
2011.46859	3241.1125
2014.51848	3234.1125
2017.56639	3217.7125
2020.61233	3182.0125
2023.6563	3162.2125
2026.6983	3161.9125
2029.73833	3151.0125
2032.7764	3140.6125
2035.8125	3126.1125
2038.84664	3122.3125
2041.87881	3102.6125
2044.90903	3096.0125
2047.93729	3089.6125
2050.96359	3086.7125
2053.98794	3075.2125
2057.01034	3074.0125
2060.03078	3057.5125
2063.04927	3044.5125
2066.06582	3035.5125
2069.08042	3041.6125
2072.09307	3035.5125
2075.10378	3036.5125
2078.11255	3025.6125
2081.11938	3024.8125
2084.12426	3022.3125
2087.12722	3018.7125
2090.12824	3013.6125
2093.12732	3012.5125
2096.12447	3014.9125
2099.11969	2998.7125
2102.11299	3003.2125
2105.10435	3009.1125
2108.09379	3001.7125
2111.08131	2999.5125
2114.0669	3002.0125
2117.05057	2997.1125
2120.03233	3008.7125
2123.01216	3007.2125
2125.99008	3003.2125
2128.96609	2991.4125
2131.94018	2994.6125
2134.91236	3000.6125
2137.88263	2982.3125
2140.851	2969.3125
2143.81746	2960.0125
2146.78201	2939.7125
2149.74466	2925.9125
2152.7054	2939.7125
2155.66425	2914.6125
2158.6212	2910.2125
2161.57625	2902.8125
2164.52941	2898.7125
2167.48067	2876.6125
2170.43004	2871.1125
2173.37752	2869.1125
2176.32311	2876.4125
2179.26681	2877.0125
2182.20863	2852.3125
2185.14856	2867.2125
2188.08661	2855.2125
2191.02278	2842.7125
2193.95707	2844.3125
2196.88948	2834.1125
2199.82001	2823.5125
2202.74867	2805.7125
2205.67545	2795.0125
2208.60037	2786.2125
2211.52341	2792.5125
2214.44458	2776.4125
2217.36388	2768.9125
2220.28132	2768.9125
2223.1969	2753.9125
2226.11061	2739.5125
2229.02246	2708.1125
2231.93245	2719.7125
2234.84058	2722.0125
2237.74686	2704.9125
2240.65128	2704.1125
2243.55385	2707.8125
2246.45456	2719.6125
2249.35343	2684.3125
2252.25044	2686.3125
2255.14561	2685.5125
2258.03893	2687.5125
2260.93041	2668.7125
2263.82004	2667.5125
2266.70783	2670.7125
2269.59378	2646.0125
2272.4779	2642.5125
2275.36017	2641.1125
2278.24061	2620.1125
2281.11922	2623.7125
2283.996	2603.3125
2286.87094	2601.4125
2289.74405	2575.0125
2292.61534	2579.2125
2295.4848	2558.3125
2298.35243	2549.3125
2301.21824	2539.9125
2304.08223	2539.8125
2306.94439	2536.6125
2309.80474	2528.1125
2312.66327	2524.7125
2315.51999	2532.5125
2318.37489	2526.1125
2321.22797	2505.2125
2324.07925	2500.7125
2326.92871	2503.3125
2329.77637	2486.4125
2332.62222	2477.2125
2335.46626	2486.2125
2338.3085	2478.6125
2341.14893	2474.4125
2343.98756	2477.3125
2346.8244	2478.9125
2349.65943	2476.9125
2352.49267	2488.2125
2355.32411	2497.1125
2358.15376	2506.6125
2360.98161	2509.4125
2363.80768	2512.9125
2366.63195	2514.1125
2369.45444	2523.5125
2372.27514	2517.9125
2375.09405	2507.4125
2377.91118	2490.7125
2380.72652	2473.2125
2383.54009	2462.2125
2386.35187	2436.0125
2389.16188	2420.5125
2391.97011	2399.2125
2394.77657	2393.1125
2397.58125	2380.3125
2400.38416	2358.5125
2403.18529	2355.2125
2405.98466	2347.2125
2408.78226	2338.9125
2411.57809	2349.5125
2414.37216	2331.4125
2417.16446	2328.4125
2419.955	2321.4125
2422.74378	2323.4125
2425.5308	2333.7125
2428.31606	2329.3125
2431.09956	2322.5125
2433.88131	2324.6125
2436.6613	2328.5125
2439.43954	2332.7125
2442.21603	2336.3125
2444.99077	2331.8125
2447.76377	2328.3125
2450.53501	2328.1125
2453.30451	2336.5125
2456.07226	2331.6125
2458.83827	2338.5125
2461.60254	2327.0125
2464.36507	2322.4125
2467.12586	2320.8125
2469.88492	2315.5125
2472.64224	2330.4125
2475.39782	2306.2125
2478.15167	2317.8125
2480.90379	2306.7125
2483.65417	2334.3125
2486.40283	2331.7125
2489.14976	2344.4125
2491.89497	2342.9125
2494.63845	2332.5125
2497.3802	2333.3125
2500.12024	2333.4125
2502.85855	2319.9125
2505.59514	2318.4125
2508.33002	2299.0125
2511.06318	2283.6125
2513.79462	2259.0125
2516.52435	2243.3125
2519.25237	2223.1125
2521.97867	2224.2125
2524.70327	2203.3125
2527.42616	2199.6125
2530.14734	2182.8125
2532.86681	2197.6125
2535.58458	2173.2125
2538.30065	2180.4125
2541.01501	2188.9125
2543.72768	2194.7125
2546.43864	2181.1125
2549.14791	2176.1125
2551.85548	2184.6125
2554.56136	2173.1125
2557.26554	2175.7125
2559.96803	2153.9125
2562.66883	2161.1125
2565.36794	2153.4125
2568.06536	2160.7125
2570.7611	2149.7125
2573.45514	2147.7125
2576.14751	2135.6125
2578.83819	2133.8125
2581.52719	2130.5125
2584.21451	2115.2125
2586.90015	2116.9125
2589.58411	2108.0125
2592.2664	2109.1125
2594.94701	2100.1125
2597.62594	2103.8125
2600.30321	2095.3125
2602.9788	2091.9125
2605.65273	2100.6125
2608.32498	2084.6125
2610.99557	2089.0125
2613.66449	2092.2125
2616.33175	2082.6125
2618.99734	2087.6125
2621.66128	2081.1125
2624.32355	2069.7125
2626.98416	2065.4125
2629.64311	2065.4125
2632.30041	2046.1125
2634.95605	2047.9125
2637.61004	2048.5125
2640.26238	2033.9125
2642.91306	2029.2125
2645.56209	2019.4125
2648.20948	2029.5125
2650.85521	2032.3125
2653.4993	2043.9125
2656.14175	2038.3125
2658.78255	2040.1125
2661.42171	2031.6125
2664.05923	2051.6125
2666.6951	2050.7125
2669.32934	2056.4125
2671.96194	2046.8125
2674.59291	2045.7125
2677.22224	2045.9125
2679.84993	2041.1125
2682.476	2030.4125
2685.10043	2030.6125
2687.72324	2032.0125
2690.34441	2019.7125
2692.96396	2009.0125
2695.58188	2025.6125
2698.19818	2019.2125
2700.81285	2012.1125
2703.4259	2007.1125
2706.03733	2000.1125
2708.64714	2004.4125
2711.25533	2009.9125
2713.86191	2009.2125
2716.46687	2015.8125
2719.07021	2017.9125
2721.67194	2015.6125
2724.27206	2018.8125
2726.87057	2015.4125
2729.46747	2016.9125
2732.06276	2015.8125
2734.65644	1999.5125
2737.24852	1995.2125
2739.83899	1985.9125
2742.42786	1987.7125
2745.01513	1989.9125
2747.60079	1975.7125
2750.18486	1966.4125
2752.76733	1963.5125
2755.3482	1963.2125
2757.92747	1952.2125
2760.50515	1964.1125
2763.08123	1944.8125
2765.65573	1944.6125
2768.22863	1941.5125
2770.79994	1928.7125
2773.36967	1937.2125
2775.9378	1933.1125
2778.50435	1935.5125
2781.06932	1929.6125
2783.6327	1927.9125
2786.1945	1934.2125
2788.75471	1937.9125
2791.31335	1922.4125
2793.87041	1915.8125
2796.42589	1919.4125
2798.97979	1926.0125
2801.53212	1916.9125
2804.08288	1920.7125
2806.63206	1921.3125
2809.17967	1913.2125
2811.72571	1922.6125
2814.27018	1914.7125
2816.81308	1926.2125
2819.35442	1919.3125
2821.89419	1917.1125
2824.43239	1930.9125
2826.96904	1933.2125
2829.50412	1942.3125
2832.03763	1926.7125
2834.56959	1924.3125
2837.1	1924.6125
2839.62884	1929.5125
2842.15613	1930.8125
2844.68186	1944.1125
2847.20604	1954.6125
2849.72867	1948.5125
2852.24974	1961.8125
2854.76927	1953.8125
2857.28724	1968.2125
2859.80367	1956.4125
2862.31855	1980.2125
2864.83189	1980.9125
2867.34368	1976.8125
2869.85393	1971.7125
2872.36264	1984.8125
2874.8698	1982.6125
2877.37543	1976.9125
2879.87952	1969.0125
2882.38207	1963.5125
2884.88308	1956.6125
2887.38256	1964.8125
2889.88051	1957.4125
2892.37692	1962.9125
2894.8718	1960.5125
2897.36515	1956.4125
2899.85698	1956.3125
2902.34727	1972.2125
2904.83604	1965.8125
2907.32328	1988.4125
2909.809	1978.4125
2912.29319	1994.6125
2914.77587	1995.7125
2917.25702	2003.2125
2919.73665	1992.6125
2922.21476	1987.6125
2924.69136	1974.0125
2927.16644	1982.7125
2929.64	1966.1125
2932.11205	1951.0125
2934.58258	1944.9125
2937.05161	1945.6125
2939.51912	1940.0125
2941.98513	1931.9125
2944.44962	1914.3125
2946.91261	1904.3125
2949.37409	1894.7125
2951.83407	1894.9125
2954.29254	1891.6125
2956.74951	1878.9125
2959.20498	1874.7125
2961.65895	1865.3125
2964.11142	1857.1125
2966.56239	1860.7125
2969.01186	1849.7125
2971.45984	1834.5125
2973.90632	1818.3125
2976.35131	1802.3125
2978.7948	1801.3125
2981.23681	1792.6125
2983.67732	1797.5125
2986.11635	1782.7125
2988.55388	1781.7125
2990.98993	1770.7125
2993.4245	1772.3125
2995.85758	1759.2125
2998.28917	1764.5125
3000.71928	1754.9125
3003.14791	1743.3125
3005.57506	1742.1125
3008.00073	1736.8125
3010.42493	1742.7125
3012.84764	1737.0125
3015.26888	1733.1125
3017.68865	1731.6125
3020.10694	1717.7125
3022.52376	1714.6125
3024.9391	1706.6125
3027.35298	1707.6125
3029.76539	1695.3125
3032.17632	1698.4125
3034.5858	1693.3125
3036.9938	1687.9125
3039.40034	1690.3125
3041.80542	1680.4125
3044.20903	1673.4125
3046.61118	1673.0125
3049.01187	1661.1125
3051.4111	1658.0125
3053.80888	1667.7125
3056.20519	1663.0125
3058.60005	1661.8125
3060.99345	1664.6125
3063.3854	1658.0125
3065.7759	1660.5125
3068.16494	1645.2125
3070.55254	1633.9125
3072.93868	1637.2125
3075.32338	1633.5125
3077.70662	1625.6125
3080.08842	1615.7125
3082.46878	1617.5125
3084.84769	1611.4125
3087.22515	1621.7125
3089.60118	1613.5125
3091.97576	1615.1125
3094.3489	1609.5125
3096.72061	1612.8125
3099.09087	1616.4125
3101.4597	1626.3125
