Data from AgNPs_FTO_APTES_UA_20uM_CRN_2uM_R6G_10uM_NaF_0.1M_Addition_RamanShift__6__12-47-32-071.txt Node

Date: Thu Feb 17 12:47:32 GMT 2022
User: TCL
Spectrometer: QEP01345
Trigger mode: 4
Integration Time (sec): 7.000000E0
Scans to average: 10
Electric dark correction enabled: true
Nonlinearity correction enabled: false
Boxcar width: 0
XAxis mode: Raman Shifts
Number of Pixels in Spectrum: 1044
>>>>>Begin Spectral Data<<<<<
46.04893	-0.45
50.45542	-1.05
54.85868	-2.85
59.25871	-1.05
63.6555	120.75
68.04907	121.55
72.43941	128.35
76.82654	129.75
81.21044	134.95
85.59113	141.75
89.96862	145.45
94.34289	146.95
98.71396	149.95
103.08183	158.85
107.4465	165.35
111.80798	162.55
116.16626	173.05
120.52136	178.55
124.87327	187.65
129.222	201.95
133.56755	219.45
137.90993	230.75
142.24913	259.85
146.58517	291.25
150.91804	345.35
155.24774	418.45
159.57429	522.55
163.89768	678.35
168.21792	907.85
172.53501	1241.45
176.84895	1757.55
181.15975	2484.55
185.46741	3501.55
189.77193	4826.45
194.07331	6446.85
198.37157	8323.35
202.6667	10299.05
206.9587	12257.05
211.24758	14148.85
215.53334	16077.75
219.81599	18086.15
224.09553	20334.95
228.37195	22826.55
232.64527	25500.65
236.91549	28414.55
241.18261	31327.05
245.44663	34036.15
249.70755	36506.35
253.96539	38667.35
258.22014	40420.85
262.4718	41836.05
266.72039	42911.75
270.96589	43490.75
275.20832	43536.75
279.44768	43309.35
283.68397	42889.45
287.91719	42517.45
292.14735	42215.65
296.37445	42139.65
300.59849	42262.05
304.81948	42361.65
309.03742	42533.35
313.25231	42463.55
317.46415	42111.35
321.67296	41594.65
325.87872	41085.15
330.08145	40917.05
334.28114	40883.75
338.47781	41142.85
342.67145	41656.65
346.86207	42354.05
351.04966	42994.95
355.23424	43697.45
359.4158	44289.25
363.59435	44695.85
367.76989	45036.45
371.94243	45276.45
376.11196	45543.35
380.27849	45785.85
384.44203	46091.75
388.60257	46417.05
392.76012	46934.05
396.91468	47475.95
401.06626	48114.15
405.21485	48511.15
409.36047	48404.35
413.50311	48059.65
417.64277	47972.55
421.77947	48179.45
425.9132	48448.25
430.04396	48758.85
434.17176	49028.45
438.2966	49479.05
442.41849	50308.45
446.53742	51702.55
450.6534	53235.55
454.76644	54367.55
458.87653	54704.05
462.98368	54337.05
467.08789	53641.25
471.18916	52705.15
475.2875	51867.05
479.38291	51316.25
483.4754	51003.65
487.56496	50584.05
491.6516	50049.45
495.73531	49472.25
499.81612	49084.95
503.89401	49283.55
507.96899	49494.75
512.04106	49488.65
516.11023	49204.25
520.1765	48911.45
524.23987	48624.75
528.30034	48542.15
532.35792	48273.05
536.41261	47880.85
540.46441	47472.85
544.51333	47390.25
548.55936	47756.85
552.60252	48656.95
556.64279	49840.65
560.6802	50825.25
564.71473	51422.05
568.7464	52196.75
572.7752	53722.35
576.80114	55411.55
580.82422	57136.35
584.84444	59114.85
588.86181	61890.25
592.87633	64650.15
596.888	64509.75
600.89682	61450.35
604.9028	59681.65
608.90594	61410.05
612.90624	63597.45
616.90371	60044.95
620.89834	53100.45
624.89015	50177.85
628.87913	49897.25
632.86528	50125.35
636.84862	50039.85
640.82913	49202.35
644.80683	48324.45
648.78172	47703.35
652.75379	47726.55
656.72306	48289.65
660.68952	48908.25
664.65319	48709.65
668.61405	47983.55
672.57211	47934.35
676.52738	48231.35
680.47986	48208.25
684.42955	47920.95
688.37646	47801.75
692.32058	48111.25
696.26192	48819.35
700.20048	49529.95
704.13626	49952.05
708.06928	50045.55
711.99952	49897.15
715.927	49853.05
719.85171	50065.65
723.77365	49886.55
727.69284	49356.05
731.60928	48784.35
735.52295	48544.75
739.43388	48638.35
743.34206	48869.25
747.24749	49127.95
751.15017	49579.55
755.05012	50301.95
758.94733	51483.15
762.8418	53412.25
766.73354	56227.25
770.62254	58649.45
774.50882	58716.65
778.39237	56491.05
782.27321	53596.55
786.15132	51317.05
790.02671	49990.15
793.89938	49132.55
797.76935	48823.25
801.6366	48705.65
805.50115	48607.25
809.36299	48467.05
813.22213	48261.65
817.07857	48117.95
820.93231	48000.45
824.78336	47807.75
828.63172	47674.25
832.47738	47595.05
836.32036	47644.95
840.16066	47766.95
843.99827	47946.05
847.8332	47948.85
851.66546	47978.95
855.49504	48077.25
859.32195	48084.05
863.1462	48012.75
866.96777	47976.65
870.78668	47908.05
874.60293	47917.05
878.41652	48022.85
882.22745	48175.05
886.03573	48278.45
889.84136	48213.35
893.64433	48086.95
897.44466	47930.25
901.24235	47774.95
905.0374	47714.35
908.8298	47643.45
912.61957	47741.65
916.40671	48176.55
920.19121	48788.65
923.97308	49334.15
927.75233	49373.75
931.52895	48850.95
935.30295	48137.85
939.07433	47519.45
942.84309	47098.85
946.60924	46991.75
950.37278	46993.15
954.13371	47028.65
957.89203	47039.35
961.64774	46980.05
965.40086	46959.45
969.15137	46991.85
972.89929	46839.75
976.64461	46759.95
980.38733	46795.75
984.12747	46839.45
987.86502	47120.15
991.59999	47512.05
995.33237	48022.35
999.06217	48798.55
1002.78939	49890.65
1006.51404	51021.05
1010.23611	51934.45
1013.95561	52486.05
1017.67255	52556.45
1021.38692	52040.35
1025.09872	51113.85
1028.80796	50511.05
1032.51465	50591.55
1036.21877	50907.05
1039.92035	51083.65
1043.61937	50966.45
1047.31584	50705.05
1051.00976	50423.35
1054.70114	50346.05
1058.38998	50553.45
1062.07627	50939.65
1065.76003	51436.65
1069.44126	52068.85
1073.11995	52833.95
1076.79611	53519.05
1080.46974	53902.45
1084.14085	54395.35
1087.80943	54914.05
1091.47549	55327.85
1095.13903	55282.65
1098.80005	54732.95
1102.45857	53699.15
1106.11456	52999.05
1109.76805	52614.35
1113.41903	52685.55
1117.06751	52898.75
1120.71348	53235.15
1124.35696	53580.35
1127.99793	53945.65
1131.63641	54082.85
1135.2724	54135.45
1138.90589	54099.45
1142.5369	54341.85
1146.16542	54743.35
1149.79145	55266.35
1153.415	55772.55
1157.03607	56514.45
1160.65467	57853.75
1164.27079	60036.65
1167.88443	62707.25
1171.49561	65687.25
1175.10432	69158.25
1178.71056	73678.05
1182.31434	77787.65
1185.91565	79464.25
1189.51451	78640.65
1193.11091	76768.15
1196.70485	74588.65
1200.29634	72540.55
1203.88538	71152.05
1207.47197	70645.05
1211.05612	70279.65
1214.63782	69257.25
1218.21708	67903.85
1221.79391	66590.25
1225.36829	65830.95
1228.94024	65114.15
1232.50976	64013.35
1236.07685	62801.65
1239.6415	62060.35
1243.20374	61923.75
1246.76355	62317.35
1250.32093	63189.25
1253.8759	64311.05
1257.42845	65813.05
1260.97859	67495.25
1264.52631	69279.25
1268.07163	71145.15
1271.61453	73043.25
1275.15503	74777.35
1278.69312	76738.25
1282.22882	78726.25
1285.76211	81275.05
1289.29301	84277.85
1292.82151	87934.65
1296.34761	92346.15
1299.87133	97369.35
1303.39266	102656.05
1306.9116	107432.25
1310.42815	110990.25
1313.94233	112932.45
1317.45412	112373.05
1320.96354	110504.65
1324.47058	108637.85
1327.97525	107280.65
1331.47754	105946.45
1334.97747	104657.45
1338.47502	103425.55
1341.97022	102286.95
1345.46305	100907.85
1348.95352	99564.75
1352.44163	99116.65
1355.92738	100614.05
1359.41078	103989.85
1362.89183	106675.15
1366.37053	105438.05
1369.84688	98678.65
1373.32088	89527.25
1376.79254	83034.05
1380.26186	80897.85
1383.72883	81287.75
1387.19347	81975.85
1390.65578	81570.55
1394.11575	81311.55
1397.57339	82048.35
1401.0287	83444.35
1404.48168	84460.25
1407.93234	84464.75
1411.38068	82926.65
1414.82669	80547.15
1418.27039	77724.05
1421.71177	74928.15
1425.15083	72565.05
1428.58758	71597.65
1432.02203	72337.25
1435.45416	74276.35
1438.88399	76513.25
1442.31151	78125.95
1445.73673	79007.75
1449.15965	79280.45
1452.58027	79101.85
1455.9986	78804.65
1459.41463	78968.05
1462.82837	79997.75
1466.23982	81342.35
1469.64898	82683.35
1473.05586	83586.35
1476.46045	83928.55
1479.86276	83555.05
1483.26279	82757.05
1486.66054	82186.15
1490.05602	82342.65
1493.44922	82857.85
1496.84016	83307.15
1500.22882	84024.15
1503.61521	85164.15
1506.99934	86404.95
1510.38121	87336.05
1513.76081	87202.45
1517.13816	85817.85
1520.51324	84320.15
1523.88607	83673.55
1527.25665	84108.35
1530.62498	84874.25
1533.99105	85111.65
1537.35488	84323.85
1540.71647	82602.15
1544.07581	80522.15
1547.4329	78357.45
1550.78776	76450.45
1554.14038	75044.35
1557.49077	74260.25
1560.83892	73737.05
1564.18484	73353.15
1567.52853	73418.55
1570.86999	73918.55
1574.20922	75124.55
1577.54624	76231.05
1580.88103	76686.05
1584.2136	77783.95
1587.54395	80436.05
1590.87208	84837.05
1594.19801	90259.45
1597.52172	95145.95
1600.84321	96331.95
1604.16251	92135.15
1607.47959	85108.05
1610.79447	77700.15
1614.10715	71397.25
1617.41763	66361.45
1620.7259	63156.45
1624.03199	61648.15
1627.33587	61833.15
1630.63757	63605.25
1633.93707	67588.45
1637.23439	74253.15
1640.52951	84140.95
1643.82246	95618.35
1647.11321	103924.95
1650.40179	104115.95
1653.68819	95516.15
1656.97241	82775.25
1660.25446	71222.35
1663.53433	63076.15
1666.81203	57864.35
1670.08756	54762.95
1673.36092	52789.35
1676.63211	51431.65
1679.90115	50484.45
1683.16801	49756.75
1686.43272	49290.65
1689.69527	48875.15
1692.95567	48589.15
1696.2139	48358.15
1699.46999	48328.15
1702.72392	48111.05
1705.97571	48064.75
1709.22535	47929.45
1712.47284	47939.95
1715.71819	47899.15
1718.96139	47834.15
1722.20246	47622.75
1725.44139	47459.25
1728.67818	47280.85
1731.91284	47059.85
1735.14537	46809.65
1738.37576	46629.15
1741.60403	46570.55
1744.83017	46306.05
1748.05418	46220.85
1751.27607	46102.85
1754.49584	46036.05
1757.71349	46059.25
1760.92903	46018.85
1764.14244	45987.85
1767.35375	45947.05
1770.56294	45918.35
1773.77002	45914.35
1776.97499	45856.05
1780.17785	45810.95
1783.37861	45695.45
1786.57727	45613.95
1789.77382	45519.45
1792.96828	45481.65
1796.16064	45452.85
1799.3509	45366.45
1802.53907	45347.85
1805.72514	45181.85
1808.90913	45115.95
1812.09102	44989.45
1815.27083	44915.65
1818.44856	44912.85
1821.6242	44872.55
1824.79776	44834.85
1827.96924	44826.75
1831.13864	44850.25
1834.30597	44834.65
1837.47122	44765.75
1840.6344	44686.15
1843.7955	44743.65
1846.95454	44728.95
1850.11151	44708.85
1853.26642	44705.05
1856.41926	44686.85
1859.57004	44600.85
1862.71876	44540.45
1865.86542	44512.55
1869.01003	44495.85
1872.15258	44467.55
1875.29308	44406.65
1878.43152	44358.95
1881.56792	44382.55
1884.70227	44392.45
1887.83457	44399.15
1890.96482	44396.65
1894.09304	44283.75
1897.21921	44210.65
1900.34335	44147.55
1903.46544	44141.05
1906.58551	44169.55
1909.70353	44088.55
1912.81953	44107.25
1915.93349	44012.45
1919.04543	43887.15
1922.15534	43825.85
1925.26322	43758.25
1928.36908	43743.35
1931.47292	43662.25
1934.57473	43485.25
1937.67453	43418.15
1940.77232	43352.45
1943.86808	43227.25
1946.96184	43160.05
1950.05358	42986.05
1953.14331	42925.75
1956.23103	42865.15
1959.31675	42750.05
1962.40046	42601.05
1965.48217	42421.95
1968.56188	42339.95
1971.63959	42224.65
1974.7153	42129.15
1977.78901	42010.85
1980.86073	41881.35
1983.93046	41789.55
1986.99819	41679.55
1990.06394	41606.55
1993.1277	41583.05
1996.18947	41441.85
1999.24925	41325.35
2002.30706	41270.95
2005.36288	41082.35
2008.41672	41002.45
2011.46859	40838.25
2014.51848	40777.05
2017.56639	40654.15
2020.61233	40562.35
2023.6563	40423.25
2026.6983	40391.05
2029.73833	40302.35
2032.7764	40198.25
2035.8125	40191.45
2038.84664	40129.75
2041.87881	40101.15
2044.90903	40010.65
2047.93729	39976.25
2050.96359	39887.65
2053.98794	39880.25
2057.01034	39902.25
2060.03078	39883.95
2063.04927	39883.85
2066.06582	39842.75
2069.08042	39815.85
2072.09307	39738.95
2075.10378	39724.65
2078.11255	39708.95
2081.11938	39776.35
2084.12426	39741.65
2087.12722	39696.75
2090.12824	39691.65
2093.12732	39678.85
2096.12447	39714.65
2099.11969	39680.85
2102.11299	39682.85
2105.10435	39744.45
2108.09379	39740.05
2111.08131	39792.65
2114.0669	39737.25
2117.05057	39729.55
2120.03233	39762.75
2123.01216	39858.95
2125.99008	39871.05
2128.96609	39999.65
2131.94018	39990.85
2134.91236	40023.05
2137.88263	40134.05
2140.851	40136.95
2143.81746	40114.05
2146.78201	40133.85
2149.74466	40162.45
2152.7054	40203.25
2155.66425	40190.35
2158.6212	40196.55
2161.57625	40194.25
2164.52941	40186.65
2167.48067	40140.95
2170.43004	40147.25
2173.37752	40107.95
2176.32311	40187.65
2179.26681	40207.25
2182.20863	40208.95
2185.14856	40272.95
2188.08661	40207.15
2191.02278	40207.85
2193.95707	40176.05
2196.88948	40179.25
2199.82001	40124.85
2202.74867	40079.45
2205.67545	40023.55
2208.60037	40006.35
2211.52341	39936.15
2214.44458	39939.15
2217.36388	39866.95
2220.28132	39873.55
2223.1969	39726.95
2226.11061	39641.75
2229.02246	39558.35
2231.93245	39496.45
2234.84058	39505.85
2237.74686	39483.25
2240.65128	39511.75
2243.55385	39396.85
2246.45456	39372.65
2249.35343	39275.75
2252.25044	39214.95
2255.14561	39124.35
2258.03893	39100.15
2260.93041	39015.35
2263.82004	38938.25
2266.70783	38837.45
2269.59378	38737.05
2272.4779	38693.35
2275.36017	38624.35
2278.24061	38622.35
2281.11922	38531.75
2283.996	38487.35
2286.87094	38449.75
2289.74405	38412.25
2292.61534	38409.35
2295.4848	38374.95
2298.35243	38374.35
2301.21824	38370.45
2304.08223	38353.95
2306.94439	38293.15
2309.80474	38337.55
2312.66327	38315.55
2315.51999	38236.95
2318.37489	38238.35
2321.22797	38172.45
2324.07925	38195.75
2326.92871	38099.95
2329.77637	38012.15
2332.62222	38001.35
2335.46626	37973.15
2338.3085	37953.85
2341.14893	37951.35
2343.98756	37943.35
2346.8244	37953.95
2349.65943	37970.25
2352.49267	37949.75
2355.32411	37927.25
2358.15376	37865.35
2360.98161	37867.55
2363.80768	37823.65
2366.63195	37821.35
2369.45444	37792.75
2372.27514	37764.25
2375.09405	37750.05
2377.91118	37670.75
2380.72652	37610.15
2383.54009	37496.65
2386.35187	37443.45
2389.16188	37305.25
2391.97011	37284.75
2394.77657	37287.95
2397.58125	37231.55
2400.38416	37190.75
2403.18529	37103.85
2405.98466	37081.75
2408.78226	37049.15
2411.57809	36992.75
2414.37216	36953.55
2417.16446	36938.75
2419.955	36948.85
2422.74378	36950.75
2425.5308	36876.15
2428.31606	36874.35
2431.09956	36873.65
2433.88131	36862.15
2436.6613	36890.65
2439.43954	36819.35
2442.21603	36808.75
2444.99077	36788.75
2447.76377	36777.05
2450.53501	36722.25
2453.30451	36794.55
2456.07226	36683.25
2458.83827	36663.75
2461.60254	36611.15
2464.36507	36660.55
2467.12586	36694.15
2469.88492	36656.85
2472.64224	36669.95
2475.39782	36713.45
2478.15167	36713.05
2480.90379	36703.35
2483.65417	36707.75
2486.40283	36689.45
2489.14976	36708.25
2491.89497	36649.95
2494.63845	36746.55
2497.3802	36702.85
2500.12024	36659.15
2502.85855	36669.85
2505.59514	36604.55
2508.33002	36556.15
2511.06318	36550.25
2513.79462	36499.85
2516.52435	36589.15
2519.25237	36484.25
2521.97867	36485.65
2524.70327	36535.25
2527.42616	36451.75
2530.14734	36458.45
2532.86681	36384.65
2535.58458	36371.45
2538.30065	36384.65
2541.01501	36356.85
2543.72768	36363.15
2546.43864	36340.75
2549.14791	36270.85
2551.85548	36227.15
2554.56136	36212.75
2557.26554	36081.35
2559.96803	36071.85
2562.66883	36038.55
2565.36794	36022.75
2568.06536	36018.75
2570.7611	35905.55
2573.45514	35908.75
2576.14751	35865.05
2578.83819	35853.35
2581.52719	35864.05
2584.21451	35822.25
2586.90015	35769.75
2589.58411	35719.55
2592.2664	35720.25
2594.94701	35672.35
2597.62594	35708.95
2600.30321	35695.75
2602.9788	35683.65
2605.65273	35664.85
2608.32498	35662.15
2610.99557	35660.65
2613.66449	35679.45
2616.33175	35622.25
2618.99734	35587.05
2621.66128	35514.75
2624.32355	35482.15
2626.98416	35443.95
2629.64311	35394.15
2632.30041	35411.25
2634.95605	35326.05
2637.61004	35322.95
2640.26238	35383.75
2642.91306	35315.95
2645.56209	35305.15
2648.20948	35350.45
2650.85521	35340.75
2653.4993	35349.75
2656.14175	35359.25
2658.78255	35397.55
2661.42171	35395.25
2664.05923	35488.25
2666.6951	35442.75
2669.32934	35451.95
2671.96194	35460.45
2674.59291	35486.35
2677.22224	35519.85
2679.84993	35514.55
2682.476	35407.55
2685.10043	35428.65
2687.72324	35365.65
2690.34441	35402.85
2692.96396	35387.35
2695.58188	35425.95
2698.19818	35413.95
2700.81285	35396.75
2703.4259	35392.65
2706.03733	35476.75
2708.64714	35399.15
2711.25533	35460.85
2713.86191	35455.55
2716.46687	35523.45
2719.07021	35559.05
2721.67194	35573.95
2724.27206	35534.35
2726.87057	35589.35
2729.46747	35601.15
2732.06276	35644.35
2734.65644	35605.55
2737.24852	35649.85
2739.83899	35623.95
2742.42786	35637.15
2745.01513	35575.75
2747.60079	35540.55
2750.18486	35523.75
2752.76733	35553.75
2755.3482	35498.55
2757.92747	35481.45
2760.50515	35419.35
2763.08123	35427.25
2765.65573	35381.05
2768.22863	35387.45
2770.79994	35359.15
2773.36967	35383.35
2775.9378	35378.35
2778.50435	35380.85
2781.06932	35331.25
2783.6327	35334.85
2786.1945	35325.95
2788.75471	35255.95
2791.31335	35220.65
2793.87041	35157.15
2796.42589	35089.75
2798.97979	35068.45
2801.53212	34945.75
2804.08288	34931.15
2806.63206	34821.35
2809.17967	34835.05
2811.72571	34695.05
2814.27018	34581.15
2816.81308	34460.45
2819.35442	34421.25
2821.89419	34408.25
2824.43239	34377.85
2826.96904	34358.95
2829.50412	34326.95
2832.03763	34259.45
2834.56959	34247.35
2837.1	34211.25
2839.62884	34177.25
2842.15613	34119.95
2844.68186	34156.25
2847.20604	34106.75
2849.72867	34100.15
2852.24974	34034.75
2854.76927	33997.15
2857.28724	33956.15
2859.80367	33979.25
2862.31855	33921.45
2864.83189	33902.15
2867.34368	33802.15
2869.85393	33783.35
2872.36264	33709.75
2874.8698	33702.75
2877.37543	33665.65
2879.87952	33708.75
2882.38207	33700.95
2884.88308	33678.85
2887.38256	33683.95
2889.88051	33699.05
2892.37692	33698.35
2894.8718	33730.55
2897.36515	33752.65
2899.85698	33714.85
2902.34727	33793.35
2904.83604	33799.75
2907.32328	33848.85
2909.809	33861.95
2912.29319	33908.65
2914.77587	33848.55
2917.25702	33904.15
2919.73665	33823.05
2922.21476	33846.55
2924.69136	33819.25
2927.16644	33845.45
2929.64	33767.25
2932.11205	33802.05
2934.58258	33650.85
2937.05161	33730.65
2939.51912	33758.65
2941.98513	33691.75
2944.44962	33594.35
2946.91261	33548.95
2949.37409	33660.35
2951.83407	33605.15
2954.29254	33560.35
2956.74951	33600.85
2959.20498	33557.85
2961.65895	33557.25
2964.11142	33595.25
2966.56239	33524.55
2969.01186	33491.25
2971.45984	33353.35
2973.90632	33327.95
2976.35131	33325.95
2978.7948	33261.45
2981.23681	33178.95
2983.67732	33195.95
2986.11635	33079.55
2988.55388	33019.45
2990.98993	32962.45
2993.4245	32893.15
2995.85758	32829.45
2998.28917	32717.75
3000.71928	32612.05
3003.14791	32548.25
3005.57506	32577.05
3008.00073	32478.95
3010.42493	32459.55
3012.84764	32374.45
3015.26888	32322.75
3017.68865	32244.55
3020.10694	32173.05
3022.52376	32119.55
3024.9391	32094.75
3027.35298	32055.15
3029.76539	32083.25
3032.17632	32047.55
3034.5858	32051.95
3036.9938	31988.75
3039.40034	31948.45
3041.80542	31975.55
3044.20903	31895.85
3046.61118	31873.55
3049.01187	31790.65
3051.4111	31712.35
3053.80888	31639.65
3056.20519	31616.35
3058.60005	31533.95
3060.99345	31482.95
3063.3854	31411.35
3065.7759	31295.65
3068.16494	31249.75
3070.55254	31125.15
3072.93868	31030.25
3075.32338	30929.45
3077.70662	30870.85
3080.08842	30779.55
3082.46878	30744.15
3084.84769	30738.25
3087.22515	30661.85
3089.60118	30659.05
3091.97576	30628.25
3094.3489	30599.05
3096.72061	30609.35
3099.09087	30577.15
3101.4597	30569.25
3103.82709	30569.15
3106.19305	30535.95
3108.55757	30539.15
3110.92066	30468.85
3113.28232	30422.35
3115.64255	30335.25
3118.00134	30208.65
3120.35871	30155.45
3122.71466	30065.55
3125.06917	29986.15
3127.42226	29935.65
3129.77393	29942.05
3132.12417	29870.45
3134.47299	29885.05
3136.82039	29804.05
3139.16636	29828.65
3141.51092	29823.85
3143.85406	29810.95
3146.19579	29763.15
3148.53609	29780.15
3150.87499	29735.15
3153.21246	29739.45
3155.54853	29768.35
3157.88318	29717.05
3160.21642	29750.45
3162.54826	29725.35
3164.87868	29695.45
3167.2077	29647.35
3169.5353	29603.25
3171.86151	29626.65
3174.18631	29599.45
3176.5097	29598.65
3178.83169	29548.25
3181.15228	29502.85
3183.47147	29375.45
3185.78926	29414.95
3188.10565	29340.55
3190.42065	29355.25
3192.73424	29256.85
3195.04645	29249.95
3197.35725	29245.05
3199.66667	29176.65
3201.97469	29160.55
3204.28132	29094.25
3206.58656	29122.95
3208.8904	29078.55
3211.19287	29111.85
3213.49394	29128.85
3215.79363	29103.85
3218.09193	29142.65
3220.38884	29141.75
3222.68438	29138.95
3224.97853	29078.45
3227.2713	29043.45
3229.56269	29046.75
3231.8527	29040.25
3234.14133	28972.85
