Data from AgNPs_FTO_APTES_UA_20uM_CRN_10uM_R6G_10uM_NaF_0.1M_Addition_RamanShift__23__14-37-12-214.txt Node

Date: Thu Feb 17 14:37:12 GMT 2022
User: TCL
Spectrometer: QEP01345
Trigger mode: 4
Integration Time (sec): 7.000000E0
Scans to average: 10
Electric dark correction enabled: true
Nonlinearity correction enabled: false
Boxcar width: 0
XAxis mode: Raman Shifts
Number of Pixels in Spectrum: 1044
>>>>>Begin Spectral Data<<<<<
46.04893	-0.95
50.45542	-2.05
54.85868	-2.85
59.25871	-1.65
63.6555	121.55
68.04907	130.75
72.43941	130.25
76.82654	136.15
81.21044	139.75
85.59113	146.05
89.96862	145.25
94.34289	151.75
98.71396	156.05
103.08183	163.05
107.4465	167.15
111.80798	168.55
116.16626	175.85
120.52136	184.05
124.87327	193.45
129.222	206.45
133.56755	221.15
137.90993	234.45
142.24913	260.25
146.58517	298.15
150.91804	351.55
155.24774	422.55
159.57429	519.55
163.89768	681.05
168.21792	902.15
172.53501	1254.55
176.84895	1752.75
181.15975	2487.15
185.46741	3504.45
189.77193	4836.65
194.07331	6524.05
198.37157	8404.35
202.6667	10420.15
206.9587	12404.95
211.24758	14326.25
215.53334	16293.15
219.81599	18345.65
224.09553	20614.85
228.37195	23119.15
232.64527	25925.25
236.91549	28908.65
241.18261	31951.75
245.44663	34822.95
249.70755	37366.75
253.96539	39677.75
258.22014	41640.05
262.4718	43288.25
266.72039	44445.05
270.96589	45083.45
275.20832	45190.75
279.44768	44878.15
283.68397	44505.45
287.91719	44090.75
292.14735	43851.25
296.37445	43805.05
300.59849	43852.35
304.81948	44021.15
309.03742	44035.95
313.25231	43691.85
317.46415	42962.25
321.67296	42142.45
325.87872	41419.25
330.08145	41152.65
334.28114	41233.25
338.47781	41598.95
342.67145	42129.35
346.86207	42894.65
351.04966	43731.75
355.23424	44660.85
359.4158	45397.35
363.59435	45977.05
367.76989	46465.15
371.94243	46825.55
376.11196	47113.55
380.27849	47415.85
384.44203	47653.75
388.60257	47904.55
392.76012	48228.05
396.91468	48670.05
401.06626	49299.55
405.21485	49903.15
409.36047	49794.75
413.50311	49279.95
417.64277	48764.95
421.77947	48625.45
425.9132	48730.85
430.04396	49087.35
434.17176	49535.45
438.2966	50076.95
442.41849	50888.75
446.53742	52129.95
450.6534	53471.35
454.76644	54557.45
458.87653	55065.75
462.98368	54740.25
467.08789	54086.95
471.18916	53242.65
475.2875	52482.85
479.38291	51934.75
483.4754	51470.85
487.56496	50949.65
491.6516	50488.05
495.73531	50057.05
499.81612	49919.15
503.89401	50095.55
507.96899	50303.45
512.04106	50228.55
516.11023	50129.55
520.1765	50072.25
524.23987	50028.25
528.30034	49881.25
532.35792	49628.05
536.41261	49244.75
540.46441	48911.15
544.51333	48926.55
548.55936	49248.35
552.60252	50027.25
556.64279	50837.75
560.6802	51325.85
564.71473	51553.65
568.7464	51936.25
572.7752	52662.85
576.80114	53080.45
580.82422	53546.35
584.84444	54159.35
588.86181	55020.15
592.87633	55981.85
596.888	56580.05
600.89682	56610.55
604.9028	58165.35
608.90594	62528.65
612.90624	67160.35
616.90371	64234.55
620.89834	55871.15
624.89015	52276.55
628.87913	51819.15
632.86528	51639.45
636.84862	51253.05
640.82913	50652.95
644.80683	49694.95
648.78172	48977.75
652.75379	48977.85
656.72306	49581.45
660.68952	50419.75
664.65319	50320.95
668.61405	49641.65
672.57211	49444.15
676.52738	49521.45
680.47986	49489.45
684.42955	49369.95
688.37646	49319.35
692.32058	49591.15
696.26192	50035.45
700.20048	50531.65
704.13626	50787.25
708.06928	50580.95
711.99952	50292.35
715.927	50135.05
719.85171	50325.15
723.77365	50268.55
727.69284	49898.15
731.60928	49608.15
735.52295	49562.65
739.43388	49730.35
743.34206	49947.25
747.24749	50171.85
751.15017	50465.55
755.05012	51022.65
758.94733	52040.25
762.8418	54007.95
766.73354	57244.65
770.62254	60377.55
774.50882	61278.85
778.39237	59195.75
782.27321	55546.65
786.15132	52594.45
790.02671	50861.65
793.89938	50122.75
797.76935	49832.75
801.6366	49661.05
805.50115	49621.65
809.36299	49438.75
813.22213	49167.15
817.07857	49106.35
820.93231	49068.65
824.78336	49097.85
828.63172	49112.45
832.47738	49154.15
836.32036	49311.35
840.16066	49503.55
843.99827	49664.75
847.8332	49602.55
851.66546	49468.85
855.49504	49325.55
859.32195	49344.05
863.1462	49249.85
866.96777	49197.65
870.78668	49117.75
874.60293	49167.55
878.41652	49179.75
882.22745	49271.85
886.03573	49303.95
889.84136	49293.85
893.64433	49081.05
897.44466	48867.15
901.24235	48800.25
905.0374	48702.55
908.8298	48691.55
912.61957	48745.25
916.40671	49077.55
920.19121	49536.35
923.97308	50018.35
927.75233	50186.85
931.52895	50062.25
935.30295	49680.05
939.07433	49114.45
942.84309	48614.85
946.60924	48423.65
950.37278	48329.85
954.13371	48214.35
957.89203	47942.85
961.64774	47886.05
965.40086	47713.15
969.15137	47610.55
972.89929	47440.15
976.64461	47405.55
980.38733	47374.75
984.12747	47582.65
987.86502	48013.65
991.59999	48629.05
995.33237	49471.15
999.06217	50830.55
1002.78939	52388.45
1006.51404	53319.25
1010.23611	53682.65
1013.95561	54014.35
1017.67255	54107.85
1021.38692	53800.55
1025.09872	53547.65
1028.80796	54007.65
1032.51465	55415.45
1036.21877	56628.65
1039.92035	56706.75
1043.61937	55962.25
1047.31584	54612.75
1051.00976	53142.15
1054.70114	52339.65
1058.38998	52115.65
1062.07627	52135.15
1065.76003	52252.35
1069.44126	52525.45
1073.11995	52760.35
1076.79611	53099.65
1080.46974	53503.45
1084.14085	53996.75
1087.80943	54423.05
1091.47549	54630.35
1095.13903	54291.05
1098.80005	53661.15
1102.45857	53066.05
1106.11456	52836.45
1109.76805	52925.85
1113.41903	53397.55
1117.06751	53815.15
1120.71348	54301.75
1124.35696	54708.85
1127.99793	54996.15
1131.63641	55010.65
1135.2724	54581.15
1138.90589	54099.15
1142.5369	53840.05
1146.16542	53743.25
1149.79145	53776.35
1153.415	54080.35
1157.03607	54592.35
1160.65467	55455.85
1164.27079	56947.25
1167.88443	58990.05
1171.49561	61788.35
1175.10432	65577.45
1178.71056	70281.95
1182.31434	74762.85
1185.91565	77034.05
1189.51451	76674.05
1193.11091	74193.25
1196.70485	71160.35
1200.29634	68458.15
1203.88538	66523.75
1207.47197	64986.55
1211.05612	63664.65
1214.63782	62791.25
1218.21708	62651.65
1221.79391	62899.55
1225.36829	63004.05
1228.94024	62540.55
1232.50976	61499.85
1236.07685	60545.25
1239.6415	60131.75
1243.20374	60244.75
1246.76355	60678.75
1250.32093	61434.55
1253.8759	62530.65
1257.42845	63971.95
1260.97859	65148.55
1264.52631	66264.85
1268.07163	67550.15
1271.61453	69003.55
1275.15503	70628.65
1278.69312	72383.25
1282.22882	73831.35
1285.76211	75006.25
1289.29301	76186.95
1292.82151	77727.15
1296.34761	80014.45
1299.87133	83334.05
1303.39266	87680.45
1306.9116	92954.75
1310.42815	98299.85
1313.94233	101642.55
1317.45412	101675.25
1320.96354	99530.35
1324.47058	96717.45
1327.97525	94020.95
1331.47754	92118.55
1334.97747	91521.25
1338.47502	92103.75
1341.97022	92940.15
1345.46305	93053.75
1348.95352	92576.95
1352.44163	92329.75
1355.92738	93977.85
1359.41078	97851.15
1362.89183	101275.75
1366.37053	99321.05
1369.84688	91408.55
1373.32088	82636.05
1376.79254	76748.45
1380.26186	73976.15
1383.72883	73115.85
1387.19347	72693.55
1390.65578	72026.85
1394.11575	71716.45
1397.57339	72277.05
1401.0287	73567.75
1404.48168	75019.85
1407.93234	76035.45
1411.38068	76529.15
1414.82669	75957.55
1418.27039	74258.35
1421.71177	71834.05
1425.15083	69620.55
1428.58758	68450.65
1432.02203	68497.65
1435.45416	69228.95
1438.88399	70323.35
1442.31151	71346.35
1445.73673	72097.95
1449.15965	72712.55
1452.58027	73101.15
1455.9986	73023.95
1459.41463	73149.75
1462.82837	73919.05
1466.23982	75106.15
1469.64898	76646.55
1473.05586	77767.65
1476.46045	78348.75
1479.86276	78437.55
1483.26279	78181.15
1486.66054	78002.85
1490.05602	78367.65
1493.44922	78885.95
1496.84016	79178.65
1500.22882	79861.15
1503.61521	81610.65
1506.99934	84082.25
1510.38121	86261.05
1513.76081	86583.95
1517.13816	84423.35
1520.51324	81163.95
1523.88607	78188.25
1527.25665	76524.45
1530.62498	75802.15
1533.99105	75486.25
1537.35488	75330.35
1540.71647	74960.25
1544.07581	74456.65
1547.4329	73645.95
1550.78776	72716.85
1554.14038	72008.85
1557.49077	71535.55
1560.83892	71202.55
1564.18484	71014.95
1567.52853	71002.45
1570.86999	71086.45
1574.20922	71442.35
1577.54624	71670.65
1580.88103	71207.15
1584.2136	71081.85
1587.54395	72336.85
1590.87208	75371.85
1594.19801	80024.05
1597.52172	85051.65
1600.84321	87389.05
1604.16251	85250.55
1607.47959	80215.25
1610.79447	74476.55
1614.10715	69204.65
1617.41763	64987.85
1620.7259	61999.05
1624.03199	60487.75
1627.33587	60407.95
1630.63757	61523.05
1633.93707	64262.85
1637.23439	68361.75
1640.52951	73825.05
1643.82246	79974.25
1647.11321	84596.75
1650.40179	85036.15
1653.68819	80286.75
1656.97241	72118.95
1660.25446	64328.95
1663.53433	58583.05
1666.81203	55061.15
1670.08756	52741.45
1673.36092	51239.45
1676.63211	50158.85
1679.90115	49426.65
1683.16801	48754.65
1686.43272	48400.25
1689.69527	48162.45
1692.95567	47933.75
1696.2139	47807.15
1699.46999	47753.75
1702.72392	47642.45
1705.97571	47572.35
1709.22535	47476.25
1712.47284	47454.65
1715.71819	47453.05
1718.96139	47367.75
1722.20246	47209.95
1725.44139	47099.25
1728.67818	46898.65
1731.91284	46679.25
1735.14537	46520.15
1738.37576	46303.35
1741.60403	46256.75
1744.83017	46061.15
1748.05418	45960.65
1751.27607	45892.75
1754.49584	45866.25
1757.71349	45892.35
1760.92903	45872.65
1764.14244	45782.65
1767.35375	45769.55
1770.56294	45731.45
1773.77002	45689.95
1776.97499	45688.75
1780.17785	45637.15
1783.37861	45506.65
1786.57727	45463.85
1789.77382	45438.85
1792.96828	45428.35
1796.16064	45350.95
1799.3509	45305.55
1802.53907	45291.15
1805.72514	45102.35
1808.90913	45067.55
1812.09102	44998.05
1815.27083	44955.75
1818.44856	44849.25
1821.6242	44819.55
1824.79776	44774.75
1827.96924	44774.85
1831.13864	44695.65
1834.30597	44722.05
1837.47122	44669.05
1840.6344	44569.85
1843.7955	44619.05
1846.95454	44575.95
1850.11151	44559.45
1853.26642	44605.15
1856.41926	44579.45
1859.57004	44611.15
1862.71876	44531.35
1865.86542	44512.75
1869.01003	44485.55
1872.15258	44450.25
1875.29308	44477.35
1878.43152	44396.15
1881.56792	44450.75
1884.70227	44473.45
1887.83457	44460.25
1890.96482	44400.95
1894.09304	44367.55
1897.21921	44286.95
1900.34335	44279.05
1903.46544	44255.95
1906.58551	44211.15
1909.70353	44265.55
1912.81953	44211.15
1915.93349	44149.65
1919.04543	44027.55
1922.15534	44033.95
1925.26322	43953.35
1928.36908	43911.55
1931.47292	43850.45
1934.57473	43786.85
1937.67453	43705.15
1940.77232	43568.25
1943.86808	43426.15
1946.96184	43329.85
1950.05358	43222.35
1953.14331	43110.45
1956.23103	42978.55
1959.31675	42891.15
1962.40046	42779.45
1965.48217	42616.45
1968.56188	42537.75
1971.63959	42358.45
1974.7153	42282.85
1977.78901	42188.55
1980.86073	42019.55
1983.93046	41948.35
1986.99819	41817.05
1990.06394	41705.35
1993.1277	41649.45
1996.18947	41516.05
1999.24925	41436.45
2002.30706	41359.45
2005.36288	41226.75
2008.41672	41048.05
2011.46859	41043.35
2014.51848	40905.05
2017.56639	40824.95
2020.61233	40686.45
2023.6563	40562.15
2026.6983	40499.45
2029.73833	40444.65
2032.7764	40366.85
2035.8125	40334.85
2038.84664	40272.65
2041.87881	40234.85
2044.90903	40166.15
2047.93729	40119.25
2050.96359	40090.75
2053.98794	40048.25
2057.01034	40049.35
2060.03078	40028.45
2063.04927	40013.35
2066.06582	39978.75
2069.08042	39890.75
2072.09307	39840.75
2075.10378	39799.35
2078.11255	39755.95
2081.11938	39844.85
2084.12426	39788.55
2087.12722	39784.95
2090.12824	39766.45
2093.12732	39747.35
2096.12447	39744.35
2099.11969	39765.95
2102.11299	39697.85
2105.10435	39761.55
2108.09379	39813.45
2111.08131	39784.75
2114.0669	39785.05
2117.05057	39830.95
2120.03233	39892.65
2123.01216	40001.45
2125.99008	40002.65
2128.96609	40027.35
2131.94018	40046.95
2134.91236	40095.45
2137.88263	40136.55
2140.851	40135.15
2143.81746	40213.05
2146.78201	40227.75
2149.74466	40255.75
2152.7054	40287.45
2155.66425	40284.55
2158.6212	40240.75
2161.57625	40235.45
2164.52941	40218.75
2167.48067	40235.25
2170.43004	40171.15
2173.37752	40143.65
2176.32311	40227.55
2179.26681	40217.35
2182.20863	40276.95
2185.14856	40290.55
2188.08661	40320.55
2191.02278	40277.05
2193.95707	40211.25
2196.88948	40271.45
2199.82001	40332.25
2202.74867	40201.75
2205.67545	40169.55
2208.60037	40165.15
2211.52341	40144.65
2214.44458	40184.15
2217.36388	40100.15
2220.28132	40082.75
2223.1969	39945.35
2226.11061	39875.45
2229.02246	39785.45
2231.93245	39735.65
2234.84058	39636.65
2237.74686	39567.65
2240.65128	39552.95
2243.55385	39489.55
2246.45456	39499.05
2249.35343	39467.15
2252.25044	39456.75
2255.14561	39339.85
2258.03893	39269.15
2260.93041	39221.35
2263.82004	39153.35
2266.70783	39094.05
2269.59378	38995.75
2272.4779	38935.35
2275.36017	38865.95
2278.24061	38825.95
2281.11922	38724.75
2283.996	38633.75
2286.87094	38705.65
2289.74405	38643.95
2292.61534	38605.45
2295.4848	38518.15
2298.35243	38553.95
2301.21824	38579.85
2304.08223	38605.05
2306.94439	38647.85
2309.80474	38663.65
2312.66327	38689.95
2315.51999	38678.45
2318.37489	38664.65
2321.22797	38639.55
2324.07925	38594.75
2326.92871	38468.25
2329.77637	38520.05
2332.62222	38474.85
2335.46626	38453.15
2338.3085	38471.95
2341.14893	38490.65
2343.98756	38487.25
2346.8244	38473.25
2349.65943	38516.25
2352.49267	38503.75
2355.32411	38538.45
2358.15376	38502.25
2360.98161	38438.35
2363.80768	38347.85
2366.63195	38342.05
2369.45444	38267.05
2372.27514	38234.95
2375.09405	38144.45
2377.91118	38114.35
2380.72652	37992.75
2383.54009	37872.75
2386.35187	37852.65
2389.16188	37737.35
2391.97011	37691.15
2394.77657	37650.75
2397.58125	37621.25
2400.38416	37545.85
2403.18529	37497.25
2405.98466	37493.75
2408.78226	37340.35
2411.57809	37254.25
2414.37216	37211.05
2417.16446	37260.55
2419.955	37108.05
2422.74378	37117.25
2425.5308	37108.45
2428.31606	37195.95
2431.09956	37151.35
2433.88131	37054.65
2436.6613	37061.25
2439.43954	37076.75
2442.21603	37029.05
2444.99077	36936.75
2447.76377	36927.25
2450.53501	36886.55
2453.30451	36928.25
2456.07226	36890.45
2458.83827	36884.05
2461.60254	36829.55
2464.36507	36835.95
2467.12586	36873.55
2469.88492	36856.15
2472.64224	36848.45
2475.39782	36857.55
2478.15167	36932.45
2480.90379	36946.45
2483.65417	36932.45
2486.40283	36974.95
2489.14976	36987.35
2491.89497	36921.15
2494.63845	37021.65
2497.3802	36979.25
2500.12024	37010.25
2502.85855	36984.85
2505.59514	36897.35
2508.33002	36873.55
2511.06318	36840.95
2513.79462	36763.75
2516.52435	36771.75
2519.25237	36679.95
2521.97867	36660.85
2524.70327	36749.45
2527.42616	36686.15
2530.14734	36657.25
2532.86681	36604.55
2535.58458	36619.45
2538.30065	36613.85
2541.01501	36557.65
2543.72768	36557.45
2546.43864	36557.25
2549.14791	36559.15
2551.85548	36437.15
2554.56136	36384.55
2557.26554	36297.55
2559.96803	36244.95
2562.66883	36221.35
2565.36794	36200.75
2568.06536	36231.55
2570.7611	36182.75
2573.45514	36083.85
2576.14751	36098.25
2578.83819	36042.35
2581.52719	36052.45
2584.21451	36053.75
2586.90015	36026.25
2589.58411	36024.95
2592.2664	36035.45
2594.94701	35955.25
2597.62594	36010.95
2600.30321	35955.45
2602.9788	35993.45
2605.65273	35913.35
2608.32498	35976.85
2610.99557	35951.85
2613.66449	35936.05
2616.33175	35911.25
2618.99734	35947.05
2621.66128	35921.75
2624.32355	35904.15
2626.98416	35917.55
2629.64311	35914.15
2632.30041	35923.25
2634.95605	35887.75
2637.61004	35831.05
2640.26238	35800.55
2642.91306	35726.45
2645.56209	35639.05
2648.20948	35682.15
2650.85521	35682.05
2653.4993	35638.05
2656.14175	35671.25
2658.78255	35661.85
2661.42171	35709.35
2664.05923	35720.35
2666.6951	35734.45
2669.32934	35729.05
2671.96194	35766.95
2674.59291	35811.75
2677.22224	35789.25
2679.84993	35804.25
2682.476	35757.65
2685.10043	35748.15
2687.72324	35702.65
2690.34441	35704.45
2692.96396	35693.25
2695.58188	35656.95
2698.19818	35619.15
2700.81285	35579.65
2703.4259	35535.45
2706.03733	35659.15
2708.64714	35628.25
2711.25533	35611.25
2713.86191	35634.35
2716.46687	35743.15
2719.07021	35726.65
2721.67194	35691.25
2724.27206	35683.35
2726.87057	35687.15
2729.46747	35726.75
2732.06276	35690.55
2734.65644	35716.35
2737.24852	35752.35
2739.83899	35710.05
2742.42786	35786.05
2745.01513	35708.65
2747.60079	35704.45
2750.18486	35648.15
2752.76733	35615.55
2755.3482	35624.55
2757.92747	35607.55
2760.50515	35569.55
2763.08123	35557.95
2765.65573	35562.05
2768.22863	35588.55
2770.79994	35515.65
2773.36967	35542.55
2775.9378	35517.55
2778.50435	35591.45
2781.06932	35450.15
2783.6327	35536.05
2786.1945	35454.65
2788.75471	35425.35
2791.31335	35355.95
2793.87041	35348.65
2796.42589	35255.65
2798.97979	35244.85
2801.53212	35156.35
2804.08288	35144.15
2806.63206	35025.85
2809.17967	34986.35
2811.72571	34821.55
2814.27018	34761.15
2816.81308	34674.55
2819.35442	34713.45
2821.89419	34626.95
2824.43239	34666.05
2826.96904	34641.85
2829.50412	34621.35
2832.03763	34566.35
2834.56959	34525.85
2837.1	34541.95
2839.62884	34440.05
2842.15613	34394.75
2844.68186	34384.65
2847.20604	34329.75
2849.72867	34321.65
2852.24974	34298.55
2854.76927	34246.95
2857.28724	34269.85
2859.80367	34269.75
2862.31855	34174.55
2864.83189	34158.25
2867.34368	34066.65
2869.85393	34133.95
2872.36264	34042.55
2874.8698	34058.05
2877.37543	34039.85
2879.87952	33986.95
2882.38207	34020.15
2884.88308	34019.65
2887.38256	34081.05
2889.88051	34007.15
2892.37692	34082.75
2894.8718	34081.05
2897.36515	34134.45
2899.85698	34145.95
2902.34727	34197.35
2904.83604	34192.35
2907.32328	34234.55
2909.809	34271.45
2912.29319	34234.05
2914.77587	34288.15
2917.25702	34283.55
2919.73665	34248.05
2922.21476	34295.55
2924.69136	34168.15
2927.16644	34143.75
2929.64	34088.25
2932.11205	34031.25
2934.58258	33940.75
2937.05161	34058.25
2939.51912	34043.55
2941.98513	33988.45
2944.44962	34031.05
2946.91261	33953.35
2949.37409	34041.55
2951.83407	34004.55
2954.29254	33930.25
2956.74951	33936.75
2959.20498	33955.75
2961.65895	33927.65
2964.11142	33905.45
2966.56239	33825.75
2969.01186	33879.55
2971.45984	33750.45
2973.90632	33695.05
2976.35131	33664.35
2978.7948	33636.05
2981.23681	33565.45
2983.67732	33566.65
2986.11635	33431.25
2988.55388	33410.05
2990.98993	33371.65
2993.4245	33263.75
2995.85758	33261.85
2998.28917	33190.25
3000.71928	33111.05
3003.14791	33011.65
3005.57506	33073.75
3008.00073	32891.45
3010.42493	32923.15
3012.84764	32834.05
3015.26888	32796.45
3017.68865	32719.05
3020.10694	32720.35
3022.52376	32635.35
3024.9391	32628.95
3027.35298	32594.55
3029.76539	32536.25
3032.17632	32517.55
3034.5858	32506.75
3036.9938	32423.25
3039.40034	32403.35
3041.80542	32406.55
3044.20903	32341.25
3046.61118	32329.85
3049.01187	32212.75
3051.4111	32182.85
3053.80888	32089.65
3056.20519	32095.55
3058.60005	32000.45
3060.99345	31936.75
3063.3854	31876.35
3065.7759	31747.95
3068.16494	31655.25
3070.55254	31575.25
3072.93868	31474.25
3075.32338	31395.25
3077.70662	31395.45
3080.08842	31298.25
3082.46878	31224.05
3084.84769	31180.85
3087.22515	31161.85
3089.60118	31113.65
3091.97576	31127.65
3094.3489	31112.35
3096.72061	31084.05
3099.09087	31100.15
3101.4597	31146.85
3103.82709	31086.15
3106.19305	31074.25
3108.55757	31034.05
3110.92066	30993.15
3113.28232	30947.55
3115.64255	30849.45
3118.00134	30835.05
3120.35871	30727.85
3122.71466	30620.95
3125.06917	30611.65
3127.42226	30586.85
3129.77393	30575.65
3132.12417	30457.95
3134.47299	30484.45
3136.82039	30472.25
3139.16636	30389.35
3141.51092	30408.55
3143.85406	30418.05
3146.19579	30421.45
3148.53609	30426.25
3150.87499	30454.15
3153.21246	30432.85
3155.54853	30488.85
3157.88318	30461.45
3160.21642	30463.25
3162.54826	30410.35
3164.87868	30353.05
3167.2077	30353.25
3169.5353	30323.15
3171.86151	30326.65
3174.18631	30295.55
3176.5097	30303.95
3178.83169	30236.75
3181.15228	30233.55
3183.47147	30132.45
3185.78926	30139.85
3188.10565	30143.95
3190.42065	30104.15
3192.73424	30053.75
3195.04645	30041.55
3197.35725	30017.65
3199.66667	30008.35
3201.97469	30029.15
3204.28132	29993.75
3206.58656	29971.25
3208.8904	30004.05
3211.19287	30001.85
3213.49394	29965.65
3215.79363	30000.35
3218.09193	30058.15
3220.38884	30064.35
3222.68438	30060.85
3224.97853	30014.05
3227.2713	29994.25
3229.56269	29971.85
3231.8527	29937.55
3234.14133	29874.15
3236.42858	29838.35
