Data from AgNPs_FTO_APTES_UA_20uM_CRN_10uM_R6G_10uM_NaF_0.1M_Addition_RamanShift__1__14-11-32-181.txt Node

Date: Thu Feb 17 14:11:32 GMT 2022
User: TCL
Spectrometer: QEP01345
Trigger mode: 4
Integration Time (sec): 7.000000E0
Scans to average: 10
Electric dark correction enabled: true
Nonlinearity correction enabled: false
Boxcar width: 0
XAxis mode: Raman Shifts
Number of Pixels in Spectrum: 1044
>>>>>Begin Spectral Data<<<<<
46.04893	-0.2125
50.45542	-0.9125
54.85868	-3.4125
59.25871	-2.0125
63.6555	127.7875
68.04907	129.9875
72.43941	136.0875
76.82654	139.4875
81.21044	144.8875
85.59113	145.1875
89.96862	150.4875
94.34289	152.4875
98.71396	161.3875
103.08183	161.9875
107.4465	168.7875
111.80798	172.4875
116.16626	179.3875
120.52136	188.7875
124.87327	196.0875
129.222	211.6875
133.56755	223.1875
137.90993	239.9875
142.24913	264.8875
146.58517	302.8875
150.91804	366.1875
155.24774	425.9875
159.57429	539.0875
163.89768	703.2875
168.21792	937.6875
172.53501	1297.0875
176.84895	1822.7875
181.15975	2574.2875
185.46741	3630.4875
189.77193	5028.1875
194.07331	6748.8875
198.37157	8721.4875
202.6667	10828.5875
206.9587	12919.5875
211.24758	14905.6875
215.53334	16938.4875
219.81599	19095.9875
224.09553	21459.4875
228.37195	24073.0875
232.64527	26953.3875
236.91549	29925.9875
241.18261	32999.1875
245.44663	35906.2875
249.70755	38500.7875
253.96539	40790.9875
258.22014	42687.8875
262.4718	44324.5875
266.72039	45455.5875
270.96589	46050.2875
275.20832	46161.3875
279.44768	45848.3875
283.68397	45351.9875
287.91719	44915.4875
292.14735	44611.0875
296.37445	44630.4875
300.59849	44765.2875
304.81948	45033.4875
309.03742	45272.4875
313.25231	45131.5875
317.46415	44633.1875
321.67296	43888.4875
325.87872	43295.3875
330.08145	43012.3875
334.28114	43020.1875
338.47781	43435.4875
342.67145	43954.9875
346.86207	44731.3875
351.04966	45594.3875
355.23424	46454.4875
359.4158	47122.8875
363.59435	47668.0875
367.76989	48037.8875
371.94243	48325.8875
376.11196	48609.6875
380.27849	48860.6875
384.44203	49136.7875
388.60257	49469.1875
392.76012	49820.0875
396.91468	50303.8875
401.06626	50954.2875
405.21485	51453.8875
409.36047	51272.9875
413.50311	50725.1875
417.64277	50219.2875
421.77947	50111.3875
425.9132	50279.2875
430.04396	50491.2875
434.17176	50769.1875
438.2966	51282.4875
442.41849	52207.0875
446.53742	53581.0875
450.6534	54922.3875
454.76644	55971.0875
458.87653	56252.8875
462.98368	55927.8875
467.08789	55309.9875
471.18916	54563.9875
475.2875	53847.7875
479.38291	53374.3875
483.4754	52975.6875
487.56496	52530.2875
491.6516	52130.1875
495.73531	51713.2875
499.81612	51451.0875
503.89401	51611.6875
507.96899	51784.8875
512.04106	51793.5875
516.11023	51731.2875
520.1765	51637.1875
524.23987	51576.1875
528.30034	51526.1875
532.35792	51329.6875
536.41261	50879.9875
540.46441	50471.9875
544.51333	50350.5875
548.55936	50664.0875
552.60252	51426.4875
556.64279	52470.5875
560.6802	53328.6875
564.71473	53757.2875
568.7464	54364.3875
572.7752	55508.6875
576.80114	56380.9875
580.82422	57229.2875
584.84444	58467.7875
588.86181	60487.7875
592.87633	62508.3875
596.888	62850.9875
600.89682	61264.7875
604.9028	60956.9875
608.90594	64349.6875
612.90624	68535.8875
616.90371	65425.4875
620.89834	57136.7875
624.89015	53375.2875
628.87913	52823.5875
632.86528	53086.7875
636.84862	53099.3875
640.82913	52500.0875
644.80683	51566.4875
648.78172	50876.4875
652.75379	50933.6875
656.72306	51628.1875
660.68952	52563.5875
664.65319	52310.2875
668.61405	51583.8875
672.57211	51416.3875
676.52738	51761.2875
680.47986	51754.2875
684.42955	51431.2875
688.37646	51265.8875
692.32058	51585.2875
696.26192	52240.0875
700.20048	52914.1875
704.13626	53327.2875
708.06928	53342.1875
711.99952	53071.9875
715.927	53029.2875
719.85171	53185.3875
723.77365	53173.1875
727.69284	52627.5875
731.60928	52122.7875
735.52295	51954.9875
739.43388	52032.4875
743.34206	52261.9875
747.24749	52516.6875
751.15017	52780.6875
755.05012	53504.8875
758.94733	54518.9875
762.8418	56467.9875
766.73354	59544.4875
770.62254	62574.8875
774.50882	63398.8875
778.39237	61490.3875
782.27321	58300.5875
786.15132	55500.7875
790.02671	53726.9875
793.89938	52852.7875
797.76935	52490.5875
801.6366	52264.8875
805.50115	52118.6875
809.36299	52006.8875
813.22213	51844.3875
817.07857	51765.6875
820.93231	51769.1875
824.78336	51699.4875
828.63172	51651.4875
832.47738	51633.7875
836.32036	51673.5875
840.16066	51807.8875
843.99827	51925.2875
847.8332	51967.1875
851.66546	52020.7875
855.49504	52011.6875
859.32195	52085.8875
863.1462	51983.0875
866.96777	51986.9875
870.78668	51999.6875
874.60293	52058.6875
878.41652	52063.8875
882.22745	52202.9875
886.03573	52297.0875
889.84136	52275.3875
893.64433	52080.5875
897.44466	51901.1875
901.24235	51795.6875
905.0374	51737.5875
908.8298	51647.5875
912.61957	51728.8875
916.40671	52013.6875
920.19121	52447.8875
923.97308	52903.5875
927.75233	52989.6875
931.52895	52748.4875
935.30295	52303.7875
939.07433	51741.2875
942.84309	51267.8875
946.60924	51064.9875
950.37278	51083.2875
954.13371	51037.3875
957.89203	51053.3875
961.64774	50994.3875
965.40086	50981.3875
969.15137	50939.2875
972.89929	50928.2875
976.64461	50945.9875
980.38733	50955.4875
984.12747	51150.8875
987.86502	51499.2875
991.59999	51853.8875
995.33237	52337.4875
999.06217	53061.2875
1002.78939	54025.5875
1006.51404	54904.5875
1010.23611	55542.3875
1013.95561	56107.9875
1017.67255	56159.2875
1021.38692	55760.1875
1025.09872	54943.1875
1028.80796	54606.2875
1032.51465	54836.1875
1036.21877	55275.5875
1039.92035	55375.4875
1043.61937	55343.0875
1047.31584	54945.1875
1051.00976	54595.3875
1054.70114	54499.4875
1058.38998	54632.0875
1062.07627	54936.0875
1065.76003	55409.4875
1069.44126	55946.6875
1073.11995	56668.7875
1076.79611	57364.2875
1080.46974	57764.9875
1084.14085	58208.0875
1087.80943	58679.3875
1091.47549	59062.8875
1095.13903	59020.6875
1098.80005	58390.5875
1102.45857	57555.8875
1106.11456	57001.5875
1109.76805	56793.0875
1113.41903	56829.8875
1117.06751	57166.1875
1120.71348	57545.0875
1124.35696	58022.6875
1127.99793	58414.6875
1131.63641	58505.3875
1135.2724	58222.3875
1138.90589	57865.2875
1142.5369	57816.9875
1146.16542	57921.5875
1149.79145	58222.6875
1153.415	58539.4875
1157.03607	59022.8875
1160.65467	59871.4875
1164.27079	61544.2875
1167.88443	63725.9875
1171.49561	66348.0875
1175.10432	69660.2875
1178.71056	74031.4875
1182.31434	78137.8875
1185.91565	79659.2875
1189.51451	78948.1875
1193.11091	76911.7875
1196.70485	74597.9875
1200.29634	72675.7875
1203.88538	71355.3875
1207.47197	70431.3875
1211.05612	69531.1875
1214.63782	68436.4875
1218.21708	67377.7875
1221.79391	66606.7875
1225.36829	66160.9875
1228.94024	65675.2875
1232.50976	64873.8875
1236.07685	63853.1875
1239.6415	63421.6875
1243.20374	63437.0875
1246.76355	63822.4875
1250.32093	64591.2875
1253.8759	65531.9875
1257.42845	66799.4875
1260.97859	68201.2875
1264.52631	69637.3875
1268.07163	71197.5875
1271.61453	72645.1875
1275.15503	74054.1875
1278.69312	75470.6875
1282.22882	76881.7875
1285.76211	78700.0875
1289.29301	81006.8875
1292.82151	83795.3875
1296.34761	87003.7875
1299.87133	91046.1875
1303.39266	95481.2875
1306.9116	99982.0875
1310.42815	103988.0875
1313.94233	106239.3875
1317.45412	105587.1875
1320.96354	103225.5875
1324.47058	100652.0875
1327.97525	98345.7875
1331.47754	96392.5875
1334.97747	95163.7875
1338.47502	94417.2875
1341.97022	93790.7875
1345.46305	93199.0875
1348.95352	93203.2875
1352.44163	94154.7875
1355.92738	96749.0875
1359.41078	101026.9875
1362.89183	104802.8875
1366.37053	103472.6875
1369.84688	95932.6875
1373.32088	86866.5875
1376.79254	80798.2875
1380.26186	78456.1875
1383.72883	78260.3875
1387.19347	78221.5875
1390.65578	77437.3875
1394.11575	76887.7875
1397.57339	77027.3875
1401.0287	77609.6875
1404.48168	78071.6875
1407.93234	77832.8875
1411.38068	76944.7875
1414.82669	75503.8875
1418.27039	73728.1875
1421.71177	71733.2875
1425.15083	70069.4875
1428.58758	69309.7875
1432.02203	69818.6875
1435.45416	71125.7875
1438.88399	72596.2875
1442.31151	73655.0875
1445.73673	74178.5875
1449.15965	74497.2875
1452.58027	74425.1875
1455.9986	74160.7875
1459.41463	74212.9875
1462.82837	74989.1875
1466.23982	76057.3875
1469.64898	77293.0875
1473.05586	78298.5875
1476.46045	78743.2875
1479.86276	78845.5875
1483.26279	78485.6875
1486.66054	78316.0875
1490.05602	78799.5875
1493.44922	79702.2875
1496.84016	80764.3875
1500.22882	82270.2875
1503.61521	84720.3875
1506.99934	87674.9875
1510.38121	89950.0875
1513.76081	90189.0875
1517.13816	88141.2875
1520.51324	84868.7875
1523.88607	82229.0875
1527.25665	81005.0875
1530.62498	80747.9875
1533.99105	80487.8875
1537.35488	79645.6875
1540.71647	78250.8875
1544.07581	76733.9875
1547.4329	75302.7875
1550.78776	74001.8875
1554.14038	73245.9875
1557.49077	72800.4875
1560.83892	72651.7875
1564.18484	72663.6875
1567.52853	73122.5875
1570.86999	73992.6875
1574.20922	74930.9875
1577.54624	75539.8875
1580.88103	75263.5875
1584.2136	75205.7875
1587.54395	76612.8875
1590.87208	79543.6875
1594.19801	83511.6875
1597.52172	87457.3875
1600.84321	88625.2875
1604.16251	85704.4875
1607.47959	80444.1875
1610.79447	74815.2875
1614.10715	69835.3875
1617.41763	66074.3875
1620.7259	63525.1875
1624.03199	62396.8875
1627.33587	62484.5875
1630.63757	63720.3875
1633.93707	66619.3875
1637.23439	71364.7875
1640.52951	78723.2875
1643.82246	87463.5875
1647.11321	94736.2875
1650.40179	96258.9875
1653.68819	90595.0875
1656.97241	80578.0875
1660.25446	70932.9875
1663.53433	64059.5875
1666.81203	59778.7875
1670.08756	57144.6875
1673.36092	55425.4875
1676.63211	54368.9875
1679.90115	53626.5875
1683.16801	52971.1875
1686.43272	52574.0875
1689.69527	52274.0875
1692.95567	52082.9875
1696.2139	51894.9875
1699.46999	51833.8875
1702.72392	51704.5875
1705.97571	51679.5875
1709.22535	51566.2875
1712.47284	51584.6875
1715.71819	51605.5875
1718.96139	51523.4875
1722.20246	51401.3875
1725.44139	51202.2875
1728.67818	51027.8875
1731.91284	50784.1875
1735.14537	50606.1875
1738.37576	50444.0875
1741.60403	50318.3875
1744.83017	50148.5875
1748.05418	50028.0875
1751.27607	49967.6875
1754.49584	50005.2875
1757.71349	49996.1875
1760.92903	49975.8875
1764.14244	49909.2875
1767.35375	49856.5875
1770.56294	49770.4875
1773.77002	49768.4875
1776.97499	49728.0875
1780.17785	49691.7875
1783.37861	49561.4875
1786.57727	49477.9875
1789.77382	49377.9875
1792.96828	49447.1875
1796.16064	49361.8875
1799.3509	49342.9875
1802.53907	49214.9875
1805.72514	49104.0875
1808.90913	48997.7875
1812.09102	49020.2875
1815.27083	48872.4875
1818.44856	48832.0875
1821.6242	48817.2875
1824.79776	48730.8875
1827.96924	48766.2875
1831.13864	48677.1875
1834.30597	48649.0875
1837.47122	48564.5875
1840.6344	48483.6875
1843.7955	48515.4875
1846.95454	48544.9875
1850.11151	48503.8875
1853.26642	48498.4875
1856.41926	48481.2875
1859.57004	48434.7875
1862.71876	48375.9875
1865.86542	48411.7875
1869.01003	48368.8875
1872.15258	48254.7875
1875.29308	48269.9875
1878.43152	48169.9875
1881.56792	48170.2875
1884.70227	48234.6875
1887.83457	48185.6875
1890.96482	48196.4875
1894.09304	48091.2875
1897.21921	48100.5875
1900.34335	47996.1875
1903.46544	47943.2875
1906.58551	47944.2875
1909.70353	47946.4875
1912.81953	47840.6875
1915.93349	47828.6875
1919.04543	47674.8875
1922.15534	47645.1875
1925.26322	47611.5875
1928.36908	47531.0875
1931.47292	47496.7875
1934.57473	47447.8875
1937.67453	47295.5875
1940.77232	47220.8875
1943.86808	47105.9875
1946.96184	47018.9875
1950.05358	46864.5875
1953.14331	46781.3875
1956.23103	46656.2875
1959.31675	46546.7875
1962.40046	46423.7875
1965.48217	46300.9875
1968.56188	46194.2875
1971.63959	46044.0875
1974.7153	45910.2875
1977.78901	45807.1875
1980.86073	45689.8875
1983.93046	45569.9875
1986.99819	45421.9875
1990.06394	45346.6875
1993.1277	45259.4875
1996.18947	45130.8875
1999.24925	45040.5875
2002.30706	44954.1875
2005.36288	44792.7875
2008.41672	44646.7875
2011.46859	44559.0875
2014.51848	44459.2875
2017.56639	44336.3875
2020.61233	44236.6875
2023.6563	44098.4875
2026.6983	44048.9875
2029.73833	43948.4875
2032.7764	43858.7875
2035.8125	43788.7875
2038.84664	43726.9875
2041.87881	43732.1875
2044.90903	43653.8875
2047.93729	43640.9875
2050.96359	43574.0875
2053.98794	43528.9875
2057.01034	43549.5875
2060.03078	43463.2875
2063.04927	43464.2875
2066.06582	43406.7875
2069.08042	43371.4875
2072.09307	43294.4875
2075.10378	43334.4875
2078.11255	43255.8875
2081.11938	43352.2875
2084.12426	43322.1875
2087.12722	43337.4875
2090.12824	43297.0875
2093.12732	43348.8875
2096.12447	43385.7875
2099.11969	43339.9875
2102.11299	43314.9875
2105.10435	43385.1875
2108.09379	43426.9875
2111.08131	43441.7875
2114.0669	43377.8875
2117.05057	43458.9875
2120.03233	43525.0875
2123.01216	43617.0875
2125.99008	43681.3875
2128.96609	43730.2875
2131.94018	43763.2875
2134.91236	43784.6875
2137.88263	43820.8875
2140.851	43825.0875
2143.81746	43896.2875
2146.78201	43948.2875
2149.74466	44027.7875
2152.7054	44015.3875
2155.66425	43977.0875
2158.6212	43956.6875
2161.57625	43918.1875
2164.52941	43910.1875
2167.48067	43905.9875
2170.43004	43915.5875
2173.37752	43911.0875
2176.32311	43926.3875
2179.26681	43976.5875
2182.20863	43962.1875
2185.14856	44018.8875
2188.08661	44064.6875
2191.02278	43978.8875
2193.95707	43970.5875
2196.88948	43933.2875
2199.82001	43951.5875
2202.74867	43854.0875
2205.67545	43795.2875
2208.60037	43792.6875
2211.52341	43717.6875
2214.44458	43735.3875
2217.36388	43655.7875
2220.28132	43622.7875
2223.1969	43515.7875
2226.11061	43396.6875
2229.02246	43251.6875
2231.93245	43263.8875
2234.84058	43189.2875
2237.74686	43176.6875
2240.65128	43149.2875
2243.55385	43054.4875
2246.45456	43118.5875
2249.35343	43066.5875
2252.25044	43038.5875
2255.14561	42948.5875
2258.03893	42862.3875
2260.93041	42847.5875
2263.82004	42742.6875
2266.70783	42651.0875
2269.59378	42563.6875
2272.4779	42568.1875
2275.36017	42467.7875
2278.24061	42416.7875
2281.11922	42267.7875
2283.996	42182.1875
2286.87094	42196.9875
2289.74405	42173.2875
2292.61534	42108.8875
2295.4848	42053.7875
2298.35243	42137.3875
2301.21824	42082.8875
2304.08223	42033.0875
2306.94439	42056.6875
2309.80474	42080.5875
2312.66327	42089.4875
2315.51999	42035.8875
2318.37489	41957.1875
2321.22797	41920.5875
2324.07925	41931.5875
2326.92871	41792.0875
2329.77637	41791.1875
2332.62222	41733.0875
2335.46626	41660.7875
2338.3085	41683.1875
2341.14893	41651.2875
2343.98756	41606.1875
2346.8244	41570.1875
2349.65943	41580.6875
2352.49267	41551.7875
2355.32411	41611.0875
2358.15376	41539.2875
2360.98161	41569.9875
2363.80768	41541.6875
2366.63195	41502.0875
2369.45444	41463.1875
2372.27514	41377.6875
2375.09405	41419.0875
2377.91118	41301.7875
2380.72652	41234.7875
2383.54009	41168.7875
2386.35187	41076.6875
2389.16188	41014.0875
2391.97011	40952.0875
2394.77657	40843.1875
2397.58125	40810.9875
2400.38416	40776.7875
2403.18529	40728.7875
2405.98466	40711.5875
2408.78226	40602.5875
2411.57809	40578.9875
2414.37216	40535.7875
2417.16446	40572.0875
2419.955	40498.3875
2422.74378	40498.9875
2425.5308	40449.5875
2428.31606	40491.4875
2431.09956	40458.8875
2433.88131	40410.8875
2436.6613	40375.4875
2439.43954	40381.9875
2442.21603	40305.0875
2444.99077	40285.5875
2447.76377	40248.3875
2450.53501	40232.0875
2453.30451	40234.8875
2456.07226	40232.6875
2458.83827	40205.2875
2461.60254	40164.5875
2464.36507	40187.1875
2467.12586	40125.5875
2469.88492	40164.7875
2472.64224	40196.7875
2475.39782	40136.2875
2478.15167	40173.7875
2480.90379	40195.2875
2483.65417	40227.6875
2486.40283	40180.0875
2489.14976	40184.5875
2491.89497	40108.9875
2494.63845	40107.6875
2497.3802	40141.7875
2500.12024	40138.4875
2502.85855	40089.8875
2505.59514	40032.7875
2508.33002	39968.0875
2511.06318	39959.7875
2513.79462	39901.5875
2516.52435	39868.9875
2519.25237	39829.0875
2521.97867	39812.7875
2524.70327	39799.2875
2527.42616	39755.6875
2530.14734	39731.7875
2532.86681	39642.6875
2535.58458	39660.6875
2538.30065	39650.6875
2541.01501	39627.7875
2543.72768	39648.8875
2546.43864	39616.7875
2549.14791	39525.1875
2551.85548	39451.9875
2554.56136	39373.1875
2557.26554	39256.0875
2559.96803	39267.5875
2562.66883	39272.6875
2565.36794	39200.8875
2568.06536	39180.2875
2570.7611	39072.6875
2573.45514	39006.6875
2576.14751	39015.2875
2578.83819	38973.0875
2581.52719	39020.0875
2584.21451	38927.3875
2586.90015	38829.8875
2589.58411	38840.6875
2592.2664	38777.8875
2594.94701	38738.7875
2597.62594	38705.6875
2600.30321	38700.5875
2602.9788	38710.2875
2605.65273	38633.0875
2608.32498	38672.1875
2610.99557	38644.1875
2613.66449	38626.6875
2616.33175	38556.8875
2618.99734	38529.8875
2621.66128	38494.0875
2624.32355	38418.7875
2626.98416	38388.3875
2629.64311	38320.0875
2632.30041	38378.7875
2634.95605	38275.4875
2637.61004	38266.0875
2640.26238	38233.7875
2642.91306	38165.8875
2645.56209	38115.1875
2648.20948	38170.8875
2650.85521	38143.6875
2653.4993	38099.7875
2656.14175	38173.3875
2658.78255	38246.5875
2661.42171	38226.8875
2664.05923	38315.1875
2666.6951	38289.1875
2669.32934	38259.5875
2671.96194	38214.1875
2674.59291	38294.4875
2677.22224	38276.9875
2679.84993	38306.4875
2682.476	38209.3875
2685.10043	38242.0875
2687.72324	38231.4875
2690.34441	38198.8875
2692.96396	38204.7875
2695.58188	38234.3875
2698.19818	38169.3875
2700.81285	38190.4875
2703.4259	38137.8875
2706.03733	38207.8875
2708.64714	38187.4875
2711.25533	38245.4875
2713.86191	38223.2875
2716.46687	38375.7875
2719.07021	38311.1875
2721.67194	38323.0875
2724.27206	38273.2875
2726.87057	38298.1875
2729.46747	38338.0875
2732.06276	38311.3875
2734.65644	38317.3875
2737.24852	38381.1875
2739.83899	38355.2875
2742.42786	38397.7875
2745.01513	38320.0875
2747.60079	38227.4875
2750.18486	38266.9875
2752.76733	38210.2875
2755.3482	38088.4875
2757.92747	38148.2875
2760.50515	38074.7875
2763.08123	38083.1875
2765.65573	38023.3875
2768.22863	38058.4875
2770.79994	37972.8875
2773.36967	37979.3875
2775.9378	37996.6875
2778.50435	37970.9875
2781.06932	37944.5875
2783.6327	37897.6875
2786.1945	37846.1875
2788.75471	37852.9875
2791.31335	37735.6875
2793.87041	37691.5875
2796.42589	37645.0875
2798.97979	37596.8875
2801.53212	37536.8875
2804.08288	37497.8875
2806.63206	37366.3875
2809.17967	37310.8875
2811.72571	37162.0875
2814.27018	37081.6875
2816.81308	36942.7875
2819.35442	36925.5875
2821.89419	36861.8875
2824.43239	36877.8875
2826.96904	36874.7875
2829.50412	36895.4875
2832.03763	36807.0875
2834.56959	36760.6875
2837.1	36710.8875
2839.62884	36671.0875
2842.15613	36539.4875
2844.68186	36592.1875
2847.20604	36554.1875
2849.72867	36569.7875
2852.24974	36503.6875
2854.76927	36448.4875
2857.28724	36449.9875
2859.80367	36414.9875
2862.31855	36417.9875
2864.83189	36272.4875
2867.34368	36215.8875
2869.85393	36241.5875
2872.36264	36239.3875
2874.8698	36191.8875
2877.37543	36156.1875
2879.87952	36131.5875
2882.38207	36132.6875
2884.88308	36141.5875
2887.38256	36093.2875
2889.88051	36075.1875
2892.37692	36124.0875
2894.8718	36140.8875
2897.36515	36197.3875
2899.85698	36177.2875
2902.34727	36183.5875
2904.83604	36206.7875
2907.32328	36257.7875
2909.809	36271.6875
2912.29319	36287.4875
2914.77587	36322.8875
2917.25702	36301.3875
2919.73665	36247.8875
2922.21476	36290.9875
2924.69136	36248.2875
2927.16644	36191.2875
2929.64	36122.3875
2932.11205	36117.0875
2934.58258	36006.2875
2937.05161	36160.2875
2939.51912	36118.8875
2941.98513	36060.2875
2944.44962	36087.7875
2946.91261	36058.2875
2949.37409	36088.2875
2951.83407	36019.7875
2954.29254	36019.4875
2956.74951	36031.3875
2959.20498	36034.1875
2961.65895	35972.3875
2964.11142	35967.7875
2966.56239	35956.1875
2969.01186	35983.5875
2971.45984	35827.9875
2973.90632	35844.7875
2976.35131	35806.0875
2978.7948	35721.8875
2981.23681	35628.5875
2983.67732	35587.6875
2986.11635	35551.4875
2988.55388	35493.0875
2990.98993	35434.3875
2993.4245	35392.4875
2995.85758	35339.6875
2998.28917	35301.5875
3000.71928	35182.1875
3003.14791	35118.8875
3005.57506	35087.2875
3008.00073	35015.4875
3010.42493	34976.7875
3012.84764	34843.4875
3015.26888	34887.5875
3017.68865	34808.7875
3020.10694	34802.6875
