Data from AgNPs_FTO_APTES_UA_10uM_CRN_50uM_R6G_10uM_NaF_0.1M_Addition_RamanShift__19__16-57-34-835.txt Node

Date: Thu Feb 17 16:57:34 GMT 2022
User: TCL
Spectrometer: QEP01345
Trigger mode: 4
Integration Time (sec): 1.000000E1
Scans to average: 7
Electric dark correction enabled: true
Nonlinearity correction enabled: false
Boxcar width: 0
XAxis mode: Raman Shifts
Number of Pixels in Spectrum: 1044
>>>>>Begin Spectral Data<<<<<
46.04893	-0.17857
50.45542	-2.32143
54.85868	0.25
59.25871	-1.32143
63.6555	68.82143
68.04907	78.39286
72.43941	80.96429
76.82654	79.39286
81.21044	86.82143
85.59113	93.39286
89.96862	92.82143
94.34289	91.96429
98.71396	98.67857
103.08183	97.25
107.4465	106.10714
111.80798	106.39286
116.16626	105.53571
120.52136	109.67857
124.87327	115.96429
129.222	115.96429
133.56755	121.25
137.90993	135.10714
142.24913	148.10714
146.58517	157.67857
150.91804	177.96429
155.24774	211.25
159.57429	258.96429
163.89768	324.67857
168.21792	438.25
172.53501	589.39286
176.84895	817.82143
181.15975	1154.25
185.46741	1626.96429
189.77193	2259.82143
194.07331	3046.96429
198.37157	3940.96429
202.6667	4877.82143
206.9587	5871.96429
211.24758	6758.39286
215.53334	7695.67857
219.81599	8695.25
224.09553	9735.10714
228.37195	10930.25
232.64527	12251.96429
236.91549	13673.82143
241.18261	15096.82143
245.44663	16390.25
249.70755	17615.53571
253.96539	18638.82143
258.22014	19466.82143
262.4718	20145.39286
266.72039	20610.39286
270.96589	20851.39286
275.20832	20818.67857
279.44768	20598.96429
283.68397	20303.67857
287.91719	19934.82143
292.14735	19796.82143
296.37445	19731.25
300.59849	19831.10714
304.81948	19975.25
309.03742	20044.10714
313.25231	19922.25
317.46415	19558.53571
321.67296	19071.25
325.87872	18766.96429
330.08145	18621.25
334.28114	18724.25
338.47781	18931.10714
342.67145	19282.67857
346.86207	19635.96429
351.04966	20139.67857
355.23424	20699.10714
359.4158	21126.96429
363.59435	21521.96429
367.76989	21758.96429
371.94243	21921.82143
376.11196	22057.39286
380.27849	22205.53571
384.44203	22245.10714
388.60257	22304.10714
392.76012	22390.96429
396.91468	22556.82143
401.06626	22806.82143
405.21485	23019.10714
409.36047	22979.10714
413.50311	22651.96429
417.64277	22284.67857
421.77947	22049.82143
425.9132	22019.25
430.04396	22070.39286
434.17176	22215.39286
438.2966	22394.10714
442.41849	22682.39286
446.53742	23078.39286
450.6534	23464.53571
454.76644	23838.25
458.87653	24040.67857
462.98368	24025.82143
467.08789	23914.82143
471.18916	23715.10714
475.2875	23517.53571
479.38291	23338.25
483.4754	23150.53571
487.56496	23000.96429
491.6516	22965.25
495.73531	22917.96429
499.81612	22910.25
503.89401	23043.82143
507.96899	23159.10714
512.04106	23302.10714
516.11023	23492.39286
520.1765	23595.67857
524.23987	23639.96429
528.30034	23605.96429
532.35792	23557.39286
536.41261	23511.96429
540.46441	23322.10714
544.51333	23157.25
548.55936	23099.96429
552.60252	23217.67857
556.64279	23319.39286
560.6802	23357.25
564.71473	23376.96429
568.7464	23487.53571
572.7752	23588.10714
576.80114	23437.67857
580.82422	23322.25
584.84444	23364.67857
588.86181	23499.96429
592.87633	23753.10714
596.888	24000.25
600.89682	24391.82143
604.9028	25406.96429
608.90594	28103.39286
612.90624	31230.53571
616.90371	30285.39286
620.89834	26120.96429
624.89015	24305.67857
628.87913	24046.10714
632.86528	24105.96429
636.84862	24121.96429
640.82913	23957.39286
644.80683	23600.10714
648.78172	23271.39286
652.75379	23261.39286
656.72306	23522.39286
660.68952	23879.96429
664.65319	23909.39286
668.61405	23710.82143
672.57211	23775.10714
676.52738	23876.10714
680.47986	23879.39286
684.42955	23776.67857
688.37646	23610.53571
692.32058	23535.39286
696.26192	23573.96429
700.20048	23621.39286
704.13626	23706.96429
708.06928	23603.96429
711.99952	23424.39286
715.927	23410.25
719.85171	23400.67857
723.77365	23429.82143
727.69284	23445.96429
731.60928	23459.82143
735.52295	23439.96429
739.43388	23493.53571
743.34206	23588.10714
747.24749	23587.96429
751.15017	23537.67857
755.05012	23536.53571
758.94733	23766.96429
762.8418	24539.67857
766.73354	25919.96429
770.62254	27574.25
774.50882	28617.96429
778.39237	28153.96429
782.27321	26503.39286
786.15132	24927.82143
790.02671	23876.25
793.89938	23398.82143
797.76935	23190.82143
801.6366	23146.67857
805.50115	23104.25
809.36299	23039.39286
813.22213	22929.53571
817.07857	22887.10714
820.93231	22858.39286
824.78336	22865.25
828.63172	22877.25
832.47738	22981.25
836.32036	22989.82143
840.16066	23011.82143
843.99827	23101.82143
847.8332	23135.39286
851.66546	22986.10714
855.49504	23069.39286
859.32195	23051.10714
863.1462	23163.96429
866.96777	23136.39286
870.78668	23130.39286
874.60293	23161.10714
878.41652	23135.96429
882.22745	23200.67857
886.03573	23229.82143
889.84136	23208.82143
893.64433	23143.39286
897.44466	22992.39286
901.24235	22884.67857
905.0374	22807.96429
908.8298	22748.53571
912.61957	22660.96429
916.40671	22679.82143
920.19121	22791.25
923.97308	22902.25
927.75233	23087.39286
931.52895	23159.82143
935.30295	23119.82143
939.07433	22881.96429
942.84309	22673.67857
946.60924	22567.96429
950.37278	22487.96429
954.13371	22363.82143
957.89203	22230.96429
961.64774	22132.10714
965.40086	22024.82143
969.15137	21945.96429
972.89929	21859.67857
976.64461	21884.39286
980.38733	21928.25
984.12747	21994.53571
987.86502	22140.25
991.59999	22394.39286
995.33237	22641.10714
999.06217	23061.67857
1002.78939	23481.10714
1006.51404	23699.39286
1010.23611	23705.39286
1013.95561	23786.96429
1017.67255	23858.39286
1021.38692	23832.82143
1025.09872	23683.25
1028.80796	23877.25
1032.51465	24420.53571
1036.21877	25008.25
1039.92035	25097.53571
1043.61937	24796.39286
1047.31584	24357.10714
1051.00976	23841.25
1054.70114	23577.39286
1058.38998	23444.10714
1062.07627	23394.25
1065.76003	23343.53571
1069.44126	23230.67857
1073.11995	23293.25
1076.79611	23417.53571
1080.46974	23564.10714
1084.14085	23714.10714
1087.80943	23821.96429
1091.47549	23919.82143
1095.13903	23800.67857
1098.80005	23599.39286
1102.45857	23425.10714
1106.11456	23405.82143
1109.76805	23477.82143
1113.41903	23712.96429
1117.06751	23950.53571
1120.71348	24260.67857
1124.35696	24551.82143
1127.99793	24848.67857
1131.63641	25040.53571
1135.2724	24749.82143
1138.90589	24342.25
1142.5369	23970.39286
1146.16542	23595.53571
1149.79145	23346.39286
1153.415	23185.82143
1157.03607	23171.96429
1160.65467	23332.67857
1164.27079	23723.82143
1167.88443	24341.25
1171.49561	25112.67857
1175.10432	26371.53571
1178.71056	27896.96429
1182.31434	29431.10714
1185.91565	30226.10714
1189.51451	30114.53571
1193.11091	29128.39286
1196.70485	27840.53571
1200.29634	26869.53571
1203.88538	26083.67857
1207.47197	25437.25
1211.05612	24817.82143
1214.63782	24524.67857
1218.21708	24450.67857
1221.79391	24610.53571
1225.36829	24739.82143
1228.94024	24747.67857
1232.50976	24526.96429
1236.07685	24274.67857
1239.6415	24236.10714
1243.20374	24285.39286
1246.76355	24425.53571
1250.32093	24664.67857
1253.8759	25047.67857
1257.42845	25467.82143
1260.97859	25862.39286
1264.52631	26240.82143
1268.07163	26615.53571
1271.61453	27105.67857
1275.15503	27643.10714
1278.69312	28197.82143
1282.22882	28498.53571
1285.76211	28721.67857
1289.29301	28900.39286
1292.82151	29161.25
1296.34761	29725.25
1299.87133	30606.39286
1303.39266	31927.82143
1306.9116	33862.10714
1310.42815	35845.10714
1313.94233	36801.25
1317.45412	36112.53571
1320.96354	34481.53571
1324.47058	32660.25
1327.97525	31185.25
1331.47754	30131.25
1334.97747	29729.25
1338.47502	29839.82143
1341.97022	30296.10714
1345.46305	31057.10714
1348.95352	31939.10714
1352.44163	33310.82143
1355.92738	35088.67857
1359.41078	37560.53571
1362.89183	39507.82143
1366.37053	38578.39286
1369.84688	34753.53571
1373.32088	30977.82143
1376.79254	28574.39286
1380.26186	27305.67857
1383.72883	26649.53571
1387.19347	26176.39286
1390.65578	25557.82143
1394.11575	25168.25
1397.57339	25062.25
1401.0287	25054.10714
1404.48168	25195.82143
1407.93234	25257.82143
1411.38068	25399.53571
1414.82669	25513.96429
1418.27039	25431.82143
1421.71177	25262.67857
1425.15083	25043.53571
1428.58758	24818.25
1432.02203	24860.53571
1435.45416	25063.96429
1438.88399	25183.82143
1442.31151	25170.10714
1445.73673	25271.25
1449.15965	25368.67857
1452.58027	25421.96429
1455.9986	25356.25
1459.41463	25418.39286
1462.82837	25567.53571
1466.23982	25953.96429
1469.64898	26315.53571
1473.05586	26569.39286
1476.46045	26719.96429
1479.86276	26871.96429
1483.26279	26989.53571
1486.66054	27153.25
1490.05602	27500.82143
1493.44922	27932.25
1496.84016	28534.25
1500.22882	29563.25
1503.61521	31018.82143
1506.99934	32826.25
1510.38121	34319.39286
1513.76081	34711.53571
1517.13816	33470.25
1520.51324	31371.82143
1523.88607	29383.25
1527.25665	28063.96429
1530.62498	27233.25
1533.99105	26769.53571
1537.35488	26465.10714
1540.71647	26371.10714
1544.07581	26324.25
1547.4329	26322.96429
1550.78776	26351.82143
1554.14038	26349.10714
1557.49077	26450.53571
1560.83892	26538.67857
1564.18484	26766.82143
1567.52853	26991.25
1570.86999	27118.10714
1574.20922	27257.67857
1577.54624	27170.82143
1580.88103	26730.10714
1584.2136	26193.39286
1587.54395	25927.39286
1590.87208	26291.96429
1594.19801	27289.96429
1597.52172	28640.53571
1600.84321	29323.39286
1604.16251	28837.10714
1607.47959	27640.82143
1610.79447	26327.53571
1614.10715	25126.53571
1617.41763	24176.82143
1620.7259	23568.25
1624.03199	23294.53571
1627.33587	23318.53571
1630.63757	23579.39286
1633.93707	24197.39286
1637.23439	24982.96429
1640.52951	26134.67857
1643.82246	27537.10714
1647.11321	28917.25
1650.40179	29666.67857
1653.68819	28881.39286
1656.97241	26738.67857
1660.25446	24586.10714
1663.53433	23056.53571
1666.81203	22150.67857
1670.08756	21604.39286
1673.36092	21240.39286
1676.63211	20988.96429
1679.90115	20823.67857
1683.16801	20670.10714
1686.43272	20532.39286
1689.69527	20466.10714
1692.95567	20404.67857
1696.2139	20343.96429
1699.46999	20326.25
1702.72392	20274.53571
1705.97571	20264.39286
1709.22535	20246.53571
1712.47284	20219.96429
1715.71819	20206.96429
1718.96139	20245.10714
1722.20246	20184.96429
1725.44139	20120.96429
1728.67818	20103.53571
1731.91284	20021.39286
1735.14537	19948.10714
1738.37576	19949.96429
1741.60403	19837.39286
1744.83017	19839.67857
1748.05418	19735.25
1751.27607	19827.67857
1754.49584	19767.10714
1757.71349	19746.25
1760.92903	19747.39286
1764.14244	19688.67857
1767.35375	19663.53571
1770.56294	19624.67857
1773.77002	19585.82143
1776.97499	19569.10714
1780.17785	19549.39286
1783.37861	19512.25
1786.57727	19511.82143
1789.77382	19460.39286
1792.96828	19441.53571
1796.16064	19408.39286
1799.3509	19358.96429
1802.53907	19370.39286
1805.72514	19293.82143
1808.90913	19280.96429
1812.09102	19275.25
1815.27083	19230.82143
1818.44856	19191.96429
1821.6242	19212.67857
1824.79776	19191.67857
1827.96924	19159.25
1831.13864	19067.25
1834.30597	19078.96429
1837.47122	19095.53571
1840.6344	19075.96429
1843.7955	19073.67857
1846.95454	19056.39286
1850.11151	19039.25
1853.26642	19031.82143
1856.41926	19012.10714
1859.57004	18994.53571
1862.71876	19010.96429
1865.86542	19038.67857
1869.01003	18985.67857
1872.15258	19010.82143
1875.29308	19003.82143
1878.43152	18953.53571
1881.56792	18960.53571
1884.70227	18924.96429
1887.83457	18928.25
1890.96482	18891.82143
1894.09304	18888.53571
1897.21921	18891.96429
1900.34335	18887.53571
1903.46544	18848.25
1906.58551	18805.82143
1909.70353	18810.25
1912.81953	18789.25
1915.93349	18763.82143
1919.04543	18722.96429
1922.15534	18740.96429
1925.26322	18725.96429
1928.36908	18672.96429
1931.47292	18612.67857
1934.57473	18591.39286
1937.67453	18536.96429
1940.77232	18558.10714
1943.86808	18497.67857
1946.96184	18440.10714
1950.05358	18412.67857
1953.14331	18360.39286
1956.23103	18345.25
1959.31675	18297.10714
1962.40046	18274.25
1965.48217	18198.67857
1968.56188	18162.67857
1971.63959	18132.53571
1974.7153	18079.96429
1977.78901	18032.25
1980.86073	17971.39286
1983.93046	17937.25
1986.99819	17865.96429
1990.06394	17794.96429
1993.1277	17770.39286
1996.18947	17699.10714
1999.24925	17657.82143
2002.30706	17631.25
2005.36288	17602.96429
2008.41672	17522.82143
2011.46859	17496.39286
2014.51848	17453.39286
2017.56639	17382.25
2020.61233	17334.25
2023.6563	17292.82143
2026.6983	17281.25
2029.73833	17251.25
2032.7764	17237.39286
2035.8125	17190.39286
2038.84664	17143.53571
2041.87881	17122.39286
2044.90903	17062.67857
2047.93729	17069.67857
2050.96359	17058.53571
2053.98794	17098.82143
2057.01034	17003.82143
2060.03078	17037.39286
2063.04927	16980.39286
2066.06582	16985.96429
2069.08042	16959.96429
2072.09307	16979.25
2075.10378	16973.96429
2078.11255	16946.67857
2081.11938	16970.39286
2084.12426	16952.25
2087.12722	16986.96429
2090.12824	16962.67857
2093.12732	16920.39286
2096.12447	16946.96429
2099.11969	16934.53571
2102.11299	16925.67857
2105.10435	16979.67857
2108.09379	16969.82143
2111.08131	16985.96429
2114.0669	17008.67857
2117.05057	17036.82143
2120.03233	17054.39286
2123.01216	17079.96429
2125.99008	17074.25
2128.96609	17113.39286
2131.94018	17119.39286
2134.91236	17136.39286
2137.88263	17111.25
2140.851	17158.25
2143.81746	17163.53571
2146.78201	17188.82143
2149.74466	17175.96429
2152.7054	17186.96429
2155.66425	17197.67857
2158.6212	17168.25
2161.57625	17166.10714
2164.52941	17170.39286
2167.48067	17182.96429
2170.43004	17173.25
2173.37752	17155.67857
2176.32311	17179.67857
2179.26681	17159.82143
2182.20863	17173.96429
2185.14856	17187.53571
2188.08661	17159.39286
2191.02278	17231.10714
2193.95707	17213.39286
2196.88948	17168.82143
2199.82001	17205.39286
2202.74867	17156.10714
2205.67545	17142.82143
2208.60037	17134.53571
2211.52341	17123.39286
2214.44458	17111.25
2217.36388	17101.67857
2220.28132	17078.53571
2223.1969	17006.96429
2226.11061	16992.67857
2229.02246	16961.39286
2231.93245	16947.82143
2234.84058	16917.10714
2237.74686	16864.82143
2240.65128	16861.67857
2243.55385	16850.53571
2246.45456	16874.67857
2249.35343	16853.10714
2252.25044	16838.39286
2255.14561	16832.96429
2258.03893	16846.53571
2260.93041	16780.96429
2263.82004	16738.39286
2266.70783	16697.25
2269.59378	16662.67857
2272.4779	16628.39286
2275.36017	16611.25
2278.24061	16623.10714
2281.11922	16543.10714
2283.996	16536.39286
2286.87094	16525.53571
2289.74405	16501.67857
2292.61534	16474.25
2295.4848	16482.82143
2298.35243	16479.82143
2301.21824	16478.96429
2304.08223	16465.67857
2306.94439	16452.67857
2309.80474	16495.10714
2312.66327	16505.96429
2315.51999	16533.10714
2318.37489	16498.67857
2321.22797	16471.82143
2324.07925	16433.39286
2326.92871	16402.82143
2329.77637	16359.96429
2332.62222	16363.53571
2335.46626	16346.53571
2338.3085	16349.10714
2341.14893	16338.53571
2343.98756	16355.82143
2346.8244	16394.53571
2349.65943	16326.96429
2352.49267	16328.39286
2355.32411	16349.96429
2358.15376	16322.96429
2360.98161	16311.53571
2363.80768	16300.67857
2366.63195	16256.39286
2369.45444	16219.10714
2372.27514	16190.67857
2375.09405	16185.67857
2377.91118	16180.10714
2380.72652	16146.10714
2383.54009	16070.39286
2386.35187	16097.82143
2389.16188	16001.25
2391.97011	16000.25
2394.77657	16003.67857
2397.58125	15965.96429
2400.38416	15977.96429
2403.18529	15932.96429
2405.98466	15900.10714
2408.78226	15880.82143
2411.57809	15831.82143
2414.37216	15814.10714
2417.16446	15777.10714
2419.955	15804.39286
2422.74378	15794.39286
2425.5308	15752.25
2428.31606	15715.96429
2431.09956	15736.96429
2433.88131	15719.39286
2436.6613	15715.53571
2439.43954	15736.96429
2442.21603	15731.53571
2444.99077	15670.25
2447.76377	15734.10714
2450.53501	15707.25
2453.30451	15690.82143
2456.07226	15642.96429
2458.83827	15618.39286
2461.60254	15632.53571
2464.36507	15632.82143
2467.12586	15601.39286
2469.88492	15623.25
2472.64224	15574.67857
2475.39782	15616.82143
2478.15167	15619.82143
2480.90379	15610.39286
2483.65417	15637.39286
2486.40283	15684.96429
2489.14976	15641.10714
2491.89497	15685.39286
2494.63845	15701.25
2497.3802	15637.39286
2500.12024	15634.53571
2502.85855	15629.82143
2505.59514	15590.39286
2508.33002	15569.53571
2511.06318	15528.96429
2513.79462	15534.96429
2516.52435	15474.39286
2519.25237	15485.82143
2521.97867	15441.53571
2524.70327	15446.53571
2527.42616	15406.25
2530.14734	15393.96429
2532.86681	15415.25
2535.58458	15439.67857
2538.30065	15416.39286
2541.01501	15441.10714
2543.72768	15366.39286
2546.43864	15392.25
2549.14791	15341.96429
2551.85548	15325.25
2554.56136	15301.96429
2557.26554	15296.67857
2559.96803	15259.10714
2562.66883	15242.67857
2565.36794	15235.10714
2568.06536	15202.67857
2570.7611	15195.25
2573.45514	15137.39286
2576.14751	15114.82143
2578.83819	15103.67857
2581.52719	15104.39286
2584.21451	15140.25
2586.90015	15061.96429
2589.58411	15060.25
2592.2664	15070.39286
2594.94701	15018.67857
2597.62594	15058.39286
2600.30321	15048.82143
2602.9788	15020.53571
2605.65273	14957.25
2608.32498	14978.96429
2610.99557	14961.10714
2613.66449	14966.10714
2616.33175	14935.67857
2618.99734	14975.53571
2621.66128	14946.96429
2624.32355	14899.10714
2626.98416	14906.82143
2629.64311	14901.96429
2632.30041	14913.53571
2634.95605	14869.25
2637.61004	14869.67857
2640.26238	14860.10714
2642.91306	14859.67857
2645.56209	14805.53571
2648.20948	14791.39286
2650.85521	14832.25
2653.4993	14813.25
2656.14175	14737.96429
2658.78255	14813.10714
2661.42171	14800.96429
2664.05923	14821.96429
2666.6951	14786.10714
2669.32934	14810.10714
2671.96194	14770.53571
2674.59291	14813.82143
2677.22224	14796.25
2679.84993	14790.96429
2682.476	14786.25
2685.10043	14771.82143
2687.72324	14777.53571
2690.34441	14769.67857
2692.96396	14757.25
2695.58188	14760.67857
2698.19818	14723.67857
2700.81285	14748.39286
2703.4259	14709.96429
2706.03733	14759.96429
2708.64714	14757.67857
2711.25533	14779.82143
2713.86191	14770.25
2716.46687	14792.96429
2719.07021	14768.25
2721.67194	14774.39286
2724.27206	14821.10714
2726.87057	14798.67857
2729.46747	14783.67857
2732.06276	14782.25
2734.65644	14741.67857
2737.24852	14766.96429
2739.83899	14715.67857
2742.42786	14756.96429
2745.01513	14716.53571
2747.60079	14690.82143
2750.18486	14654.39286
2752.76733	14669.39286
2755.3482	14647.67857
2757.92747	14654.82143
2760.50515	14664.82143
2763.08123	14658.25
2765.65573	14637.96429
2768.22863	14611.25
2770.79994	14617.82143
2773.36967	14579.67857
2775.9378	14578.25
2778.50435	14573.82143
2781.06932	14561.96429
2783.6327	14570.39286
2786.1945	14559.10714
2788.75471	14540.82143
2791.31335	14511.96429
2793.87041	14490.96429
2796.42589	14462.39286
2798.97979	14446.67857
2801.53212	14457.53571
2804.08288	14379.96429
2806.63206	14399.82143
2809.17967	14360.53571
2811.72571	14392.67857
2814.27018	14346.96429
2816.81308	14318.53571
2819.35442	14269.96429
2821.89419	14268.96429
2824.43239	14251.96429
2826.96904	14236.67857
2829.50412	14201.25
2832.03763	14231.82143
2834.56959	14223.10714
2837.1	14232.39286
2839.62884	14223.39286
2842.15613	14170.67857
2844.68186	14200.82143
2847.20604	14178.25
2849.72867	14178.82143
2852.24974	14180.39286
2854.76927	14135.53571
2857.28724	14140.96429
2859.80367	14124.53571
2862.31855	14111.39286
2864.83189	14095.39286
2867.34368	14069.25
2869.85393	14103.39286
2872.36264	14067.96429
2874.8698	14084.96429
2877.37543	14051.67857
2879.87952	14064.96429
2882.38207	14042.96429
2884.88308	14070.82143
2887.38256	14096.96429
2889.88051	14062.67857
2892.37692	14082.67857
2894.8718	14106.96429
2897.36515	14103.10714
2899.85698	14103.25
2902.34727	14145.67857
2904.83604	14136.96429
2907.32328	14182.96429
2909.809	14194.53571
2912.29319	14163.67857
2914.77587	14195.53571
2917.25702	14216.25
2919.73665	14183.10714
2922.21476	14188.96429
2924.69136	14181.67857
2927.16644	14173.39286
2929.64	14200.10714
2932.11205	14125.96429
2934.58258	14109.96429
2937.05161	14127.53571
2939.51912	14153.39286
2941.98513	14125.25
2944.44962	14129.82143
2946.91261	14083.25
2949.37409	14104.96429
2951.83407	14115.67857
2954.29254	14103.39286
2956.74951	14074.53571
2959.20498	14097.53571
2961.65895	14081.82143
2964.11142	14062.39286
2966.56239	14049.39286
2969.01186	14017.82143
