Data from AgNPs_FTO_APTES_UA_20uM_CRN_10uM_R6G_10uM_NaF_0.1M_Addition_RamanShift__19__14-32-32-208.txt Node

Date: Thu Feb 17 14:32:32 GMT 2022
User: TCL
Spectrometer: QEP01345
Trigger mode: 4
Integration Time (sec): 7.000000E0
Scans to average: 10
Electric dark correction enabled: true
Nonlinearity correction enabled: false
Boxcar width: 0
XAxis mode: Raman Shifts
Number of Pixels in Spectrum: 1044
>>>>>Begin Spectral Data<<<<<
46.04893	0.625
50.45542	-0.475
54.85868	-2.375
59.25871	-3.275
63.6555	117.625
68.04907	117.525
72.43941	126.625
76.82654	130.825
81.21044	130.225
85.59113	138.025
89.96862	141.025
94.34289	143.125
98.71396	151.525
103.08183	153.425
107.4465	161.925
111.80798	160.825
116.16626	165.425
120.52136	179.725
124.87327	181.125
129.222	197.825
133.56755	207.625
137.90993	225.525
142.24913	247.425
146.58517	285.825
150.91804	337.025
155.24774	400.825
159.57429	505.825
163.89768	655.025
168.21792	880.325
172.53501	1210.525
176.84895	1698.725
181.15975	2404.525
185.46741	3398.025
189.77193	4698.225
194.07331	6318.425
198.37157	8167.125
202.6667	10134.025
206.9587	12051.925
211.24758	13938.125
215.53334	15790.625
219.81599	17764.025
224.09553	19946.325
228.37195	22349.025
232.64527	25024.125
236.91549	27862.425
241.18261	30781.725
245.44663	33566.125
249.70755	36106.025
253.96539	38382.025
258.22014	40222.625
262.4718	41755.825
266.72039	42886.925
270.96589	43440.525
275.20832	43575.725
279.44768	43369.025
283.68397	42922.025
287.91719	42518.425
292.14735	42266.325
296.37445	42188.325
300.59849	42123.325
304.81948	42267.725
309.03742	42175.325
313.25231	41926.025
317.46415	41320.425
321.67296	40587.225
325.87872	40057.225
330.08145	39820.225
334.28114	39858.125
338.47781	40221.025
342.67145	40677.525
346.86207	41355.925
351.04966	42070.525
355.23424	42768.825
359.4158	43371.625
363.59435	43899.325
367.76989	44321.825
371.94243	44653.325
376.11196	44964.625
380.27849	45261.525
384.44203	45570.525
388.60257	45800.025
392.76012	46181.625
396.91468	46561.225
401.06626	47112.825
405.21485	47558.625
409.36047	47544.925
413.50311	47111.925
417.64277	46682.225
421.77947	46575.125
425.9132	46689.025
430.04396	46986.325
434.17176	47294.125
438.2966	47680.625
442.41849	48520.325
446.53742	49597.725
450.6534	50802.225
454.76644	51785.725
458.87653	52191.225
462.98368	51937.525
467.08789	51382.525
471.18916	50758.425
475.2875	50157.025
479.38291	49737.325
483.4754	49395.225
487.56496	48884.325
491.6516	48437.825
495.73531	48176.825
499.81612	47983.125
503.89401	48198.425
507.96899	48339.125
512.04106	48370.025
516.11023	48137.925
520.1765	48104.425
524.23987	47981.825
528.30034	47832.025
532.35792	47602.625
536.41261	47289.425
540.46441	46976.325
544.51333	47033.625
548.55936	47321.725
552.60252	48022.325
556.64279	48851.525
560.6802	49367.725
564.71473	49552.925
568.7464	49934.225
572.7752	50662.525
576.80114	51254.425
580.82422	51906.625
584.84444	52695.025
588.86181	53545.525
592.87633	54438.225
596.888	54689.225
600.89682	54471.025
604.9028	55510.325
608.90594	58894.125
612.90624	62240.325
616.90371	59361.325
620.89834	52524.225
624.89015	49643.625
628.87913	49285.625
632.86528	49272.825
636.84862	49042.225
640.82913	48528.025
644.80683	47707.425
648.78172	47134.125
652.75379	47099.025
656.72306	47573.925
660.68952	48256.225
664.65319	48140.725
668.61405	47601.125
672.57211	47531.725
676.52738	47659.225
680.47986	47570.425
684.42955	47417.325
688.37646	47389.025
692.32058	47628.725
696.26192	48035.625
700.20048	48470.125
704.13626	48755.425
708.06928	48648.425
711.99952	48344.225
715.927	48258.625
719.85171	48357.225
723.77365	48392.825
727.69284	48109.225
731.60928	47738.425
735.52295	47563.925
739.43388	47658.125
743.34206	47889.225
747.24749	48042.625
751.15017	48276.525
755.05012	48757.325
758.94733	49710.625
762.8418	51327.425
766.73354	53962.025
770.62254	56572.325
774.50882	57300.625
778.39237	55489.425
782.27321	52499.825
786.15132	50067.325
790.02671	48625.725
793.89938	47940.725
797.76935	47710.625
801.6366	47583.225
805.50115	47499.025
809.36299	47337.025
813.22213	47154.025
817.07857	46945.325
820.93231	46862.625
824.78336	46857.725
828.63172	46826.625
832.47738	46829.125
836.32036	46946.125
840.16066	47117.625
843.99827	47191.825
847.8332	47202.825
851.66546	47121.425
855.49504	47033.125
859.32195	47067.125
863.1462	47024.825
866.96777	47047.925
870.78668	46939.025
874.60293	46976.925
878.41652	47008.225
882.22745	47101.025
886.03573	47155.225
889.84136	47104.625
893.64433	46952.425
897.44466	46766.525
901.24235	46622.525
905.0374	46561.025
908.8298	46476.825
912.61957	46530.825
916.40671	46822.925
920.19121	47257.525
923.97308	47618.225
927.75233	47688.625
931.52895	47436.225
935.30295	47158.925
939.07433	46611.825
942.84309	46227.625
946.60924	46042.525
950.37278	45998.025
954.13371	46032.825
957.89203	45906.325
961.64774	45760.825
965.40086	45695.025
969.15137	45619.625
972.89929	45431.725
976.64461	45432.325
980.38733	45449.025
984.12747	45562.125
987.86502	45949.325
991.59999	46461.825
995.33237	47046.525
999.06217	48031.525
1002.78939	49137.625
1006.51404	49857.525
1010.23611	50240.625
1013.95561	50568.425
1017.67255	50592.525
1021.38692	50257.825
1025.09872	49910.125
1028.80796	50047.525
1032.51465	50749.625
1036.21877	51463.525
1039.92035	51517.025
1043.61937	51071.125
1047.31584	50282.225
1051.00976	49443.625
1054.70114	49189.925
1058.38998	49169.525
1062.07627	49321.325
1065.76003	49563.825
1069.44126	49813.025
1073.11995	50261.625
1076.79611	50662.525
1080.46974	51079.225
1084.14085	51484.525
1087.80943	51840.625
1091.47549	52167.625
1095.13903	51984.225
1098.80005	51468.825
1102.45857	50901.125
1106.11456	50541.825
1109.76805	50519.125
1113.41903	50811.325
1117.06751	51073.325
1120.71348	51395.425
1124.35696	51632.325
1127.99793	51905.825
1131.63641	51956.825
1135.2724	51749.725
1138.90589	51439.725
1142.5369	51305.825
1146.16542	51254.225
1149.79145	51372.225
1153.415	51670.325
1157.03607	52164.925
1160.65467	53010.325
1164.27079	54514.925
1167.88443	56452.325
1171.49561	58878.925
1175.10432	62099.525
1178.71056	65981.925
1182.31434	69769.725
1185.91565	71648.025
1189.51451	71297.625
1193.11091	69413.825
1196.70485	67016.725
1200.29634	64776.325
1203.88538	63203.425
1207.47197	62028.825
1211.05612	60973.925
1214.63782	60125.125
1218.21708	59623.325
1221.79391	59540.525
1225.36829	59552.525
1228.94024	59066.525
1232.50976	58095.925
1236.07685	57146.525
1239.6415	56714.225
1243.20374	56673.725
1246.76355	57070.725
1250.32093	57770.825
1253.8759	58623.725
1257.42845	59755.925
1260.97859	60873.625
1264.52631	62012.425
1268.07163	63276.625
1271.61453	64602.225
1275.15503	65984.725
1278.69312	67544.625
1282.22882	68762.325
1285.76211	69841.025
1289.29301	71024.625
1292.82151	72641.825
1296.34761	74833.125
1299.87133	77900.925
1303.39266	81590.625
1306.9116	85925.725
1310.42815	90265.325
1313.94233	93121.425
1317.45412	93448.825
1320.96354	92104.325
1324.47058	90266.525
1327.97525	88277.325
1331.47754	86761.725
1334.97747	85996.525
1338.47502	86003.425
1341.97022	86158.925
1345.46305	85949.925
1348.95352	85467.425
1352.44163	85088.825
1355.92738	86151.925
1359.41078	88849.325
1362.89183	91254.825
1366.37053	89602.125
1369.84688	83433.125
1373.32088	76245.925
1376.79254	71259.225
1380.26186	69152.425
1383.72883	68536.025
1387.19347	68447.825
1390.65578	67869.925
1394.11575	67452.025
1397.57339	67858.425
1401.0287	68862.425
1404.48168	69817.125
1407.93234	70301.025
1411.38068	69959.825
1414.82669	68827.525
1418.27039	67125.225
1421.71177	65074.825
1425.15083	63354.825
1428.58758	62521.125
1432.02203	62597.025
1435.45416	63549.625
1438.88399	64885.825
1442.31151	65961.725
1445.73673	66782.425
1449.15965	67301.025
1452.58027	67634.625
1455.9986	67645.525
1459.41463	68054.325
1462.82837	68877.425
1466.23982	70024.925
1469.64898	71263.725
1473.05586	72142.725
1476.46045	72482.725
1479.86276	72232.225
1483.26279	71539.625
1486.66054	71007.025
1490.05602	70985.025
1493.44922	71220.925
1496.84016	71460.725
1500.22882	72231.525
1503.61521	73870.225
1506.99934	76052.625
1510.38121	77785.725
1513.76081	77957.325
1517.13816	76226.825
1520.51324	73639.325
1523.88607	71518.725
1527.25665	70357.625
1530.62498	70059.625
1533.99105	70055.125
1537.35488	69895.625
1540.71647	69481.425
1544.07581	68742.525
1547.4329	67918.825
1550.78776	67006.525
1554.14038	66241.825
1557.49077	65811.925
1560.83892	65440.725
1564.18484	65321.525
1567.52853	65362.225
1570.86999	65719.925
1574.20922	66313.325
1577.54624	66504.725
1580.88103	66173.825
1584.2136	66057.025
1587.54395	67186.325
1590.87208	69801.225
1594.19801	73565.825
1597.52172	77677.825
1600.84321	79398.325
1604.16251	77318.325
1607.47959	73050.325
1610.79447	68335.025
1614.10715	63888.525
1617.41763	60191.225
1620.7259	57450.925
1624.03199	56038.125
1627.33587	55773.225
1630.63757	56745.425
1633.93707	59244.325
1637.23439	63266.525
1640.52951	69007.925
1643.82246	75348.125
1647.11321	80059.225
1650.40179	80423.225
1653.68819	75765.925
1656.97241	67985.925
1660.25446	60648.325
1663.53433	55244.025
1666.81203	51813.825
1670.08756	49591.025
1673.36092	48168.425
1676.63211	47182.825
1679.90115	46447.125
1683.16801	45858.625
1686.43272	45487.225
1689.69527	45243.125
1692.95567	44989.625
1696.2139	44883.625
1699.46999	44772.725
1702.72392	44698.625
1705.97571	44582.125
1709.22535	44519.825
1712.47284	44520.525
1715.71819	44474.225
1718.96139	44389.425
1722.20246	44274.225
1725.44139	44107.125
1728.67818	43952.325
1731.91284	43748.625
1735.14537	43560.525
1738.37576	43386.425
1741.60403	43288.125
1744.83017	43105.725
1748.05418	43037.625
1751.27607	42964.825
1754.49584	42942.325
1757.71349	42992.625
1760.92903	42987.125
1764.14244	42857.825
1767.35375	42840.925
1770.56294	42730.225
1773.77002	42747.125
1776.97499	42711.425
1780.17785	42623.325
1783.37861	42565.725
1786.57727	42479.525
1789.77382	42422.125
1792.96828	42452.225
1796.16064	42366.625
1799.3509	42238.625
1802.53907	42246.325
1805.72514	42117.825
1808.90913	42053.625
1812.09102	41959.025
1815.27083	41904.625
1818.44856	41866.025
1821.6242	41808.425
1824.79776	41756.425
1827.96924	41755.425
1831.13864	41684.625
1834.30597	41652.725
1837.47122	41610.525
1840.6344	41558.825
1843.7955	41603.925
1846.95454	41542.325
1850.11151	41512.825
1853.26642	41513.725
1856.41926	41531.825
1859.57004	41525.625
1862.71876	41472.825
1865.86542	41389.325
1869.01003	41395.625
1872.15258	41318.225
1875.29308	41325.125
1878.43152	41257.125
1881.56792	41225.325
1884.70227	41302.525
1887.83457	41250.425
1890.96482	41229.325
1894.09304	41167.825
1897.21921	41094.325
1900.34335	41074.925
1903.46544	41027.625
1906.58551	41062.525
1909.70353	41019.825
1912.81953	40965.725
1915.93349	40876.925
1919.04543	40800.825
1922.15534	40745.025
1925.26322	40735.025
1928.36908	40661.725
1931.47292	40580.425
1934.57473	40483.425
1937.67453	40446.425
1940.77232	40385.425
1943.86808	40227.525
1946.96184	40126.325
1950.05358	40036.225
1953.14331	39923.325
1956.23103	39819.525
1959.31675	39762.425
1962.40046	39641.025
1965.48217	39443.625
1968.56188	39382.425
1971.63959	39260.725
1974.7153	39134.125
1977.78901	39037.325
1980.86073	38940.025
1983.93046	38857.425
1986.99819	38715.025
1990.06394	38634.425
1993.1277	38539.325
1996.18947	38428.425
1999.24925	38360.725
2002.30706	38298.625
2005.36288	38195.025
2008.41672	38018.525
2011.46859	37970.625
2014.51848	37849.625
2017.56639	37753.325
2020.61233	37646.325
2023.6563	37588.625
2026.6983	37473.225
2029.73833	37433.725
2032.7764	37346.825
2035.8125	37281.325
2038.84664	37260.225
2041.87881	37219.825
2044.90903	37144.925
2047.93729	37137.325
2050.96359	37094.625
2053.98794	37030.325
2057.01034	37001.625
2060.03078	37022.725
2063.04927	36945.025
2066.06582	36962.725
2069.08042	36934.725
2072.09307	36868.725
2075.10378	36786.525
2078.11255	36776.525
2081.11938	36818.025
2084.12426	36816.625
2087.12722	36794.725
2090.12824	36777.625
2093.12732	36777.225
2096.12447	36787.725
2099.11969	36789.325
2102.11299	36819.225
2105.10435	36777.125
2108.09379	36820.125
2111.08131	36850.525
2114.0669	36806.925
2117.05057	36866.325
2120.03233	36942.725
2123.01216	37019.025
2125.99008	37025.025
2128.96609	37038.625
2131.94018	37074.525
2134.91236	37097.825
2137.88263	37134.525
2140.851	37152.025
2143.81746	37207.425
2146.78201	37204.625
2149.74466	37291.925
2152.7054	37319.325
2155.66425	37236.125
2158.6212	37250.825
2161.57625	37215.925
2164.52941	37191.125
2167.48067	37195.625
2170.43004	37224.325
2173.37752	37188.825
2176.32311	37189.425
2179.26681	37219.925
2182.20863	37206.425
2185.14856	37320.325
2188.08661	37239.525
2191.02278	37260.825
2193.95707	37151.325
2196.88948	37196.225
2199.82001	37212.825
2202.74867	37130.325
2205.67545	37111.425
2208.60037	37068.325
2211.52341	37048.325
2214.44458	37044.425
2217.36388	37030.025
2220.28132	36941.425
2223.1969	36839.925
2226.11061	36813.225
2229.02246	36664.725
2231.93245	36616.625
2234.84058	36586.825
2237.74686	36510.625
2240.65128	36464.425
2243.55385	36430.325
2246.45456	36446.525
2249.35343	36412.325
2252.25044	36377.325
2255.14561	36266.225
2258.03893	36217.625
2260.93041	36155.025
2263.82004	36115.125
2266.70783	36050.625
2269.59378	36039.025
2272.4779	35912.325
2275.36017	35851.425
2278.24061	35800.925
2281.11922	35698.025
2283.996	35597.625
2286.87094	35662.925
2289.74405	35637.325
2292.61534	35583.325
2295.4848	35503.325
2298.35243	35573.125
2301.21824	35538.825
2304.08223	35527.125
2306.94439	35556.125
2309.80474	35546.825
2312.66327	35557.625
2315.51999	35496.325
2318.37489	35531.725
2321.22797	35504.425
2324.07925	35460.625
2326.92871	35362.225
2329.77637	35347.925
2332.62222	35281.725
2335.46626	35320.825
2338.3085	35251.425
2341.14893	35279.525
2343.98756	35253.825
2346.8244	35288.725
2349.65943	35290.425
2352.49267	35234.125
2355.32411	35259.525
2358.15376	35229.525
2360.98161	35204.825
2363.80768	35162.125
2366.63195	35154.625
2369.45444	35103.325
2372.27514	35060.225
2375.09405	34999.625
2377.91118	34955.325
2380.72652	34851.025
2383.54009	34777.725
2386.35187	34715.925
2389.16188	34643.225
2391.97011	34588.125
2394.77657	34573.225
2397.58125	34487.125
2400.38416	34450.225
2403.18529	34428.825
2405.98466	34353.525
2408.78226	34290.325
2411.57809	34242.125
2414.37216	34212.825
2417.16446	34168.025
2419.955	34142.825
2422.74378	34111.425
2425.5308	34060.225
2428.31606	34073.825
2431.09956	34119.325
2433.88131	34030.625
2436.6613	34045.325
2439.43954	34038.025
2442.21603	34003.125
2444.99077	33951.225
2447.76377	33969.825
2450.53501	33871.925
2453.30451	33885.425
2456.07226	33832.525
2458.83827	33882.925
2461.60254	33851.225
2464.36507	33831.225
2467.12586	33860.525
2469.88492	33876.325
2472.64224	33885.825
2475.39782	33822.425
2478.15167	33884.525
2480.90379	33855.425
2483.65417	33901.825
2486.40283	33889.025
2489.14976	33880.325
2491.89497	33826.125
2494.63845	33862.425
2497.3802	33868.425
2500.12024	33838.725
2502.85855	33799.725
2505.59514	33812.025
2508.33002	33770.825
2511.06318	33711.525
2513.79462	33688.725
2516.52435	33655.625
2519.25237	33575.725
2521.97867	33608.125
2524.70327	33625.325
2527.42616	33584.325
2530.14734	33599.625
2532.86681	33494.725
2535.58458	33491.825
2538.30065	33458.325
2541.01501	33486.225
2543.72768	33455.225
2546.43864	33533.825
2549.14791	33389.825
2551.85548	33303.825
2554.56136	33280.625
2557.26554	33204.625
2559.96803	33161.025
2562.66883	33087.625
2565.36794	33096.825
2568.06536	33056.225
2570.7611	32995.625
2573.45514	32986.925
2576.14751	32972.625
2578.83819	32895.525
2581.52719	32908.225
2584.21451	32878.625
2586.90015	32867.825
2589.58411	32838.425
2592.2664	32801.325
2594.94701	32763.225
2597.62594	32750.825
2600.30321	32728.825
2602.9788	32747.025
2605.65273	32700.525
2608.32498	32731.125
2610.99557	32678.725
2613.66449	32749.925
2616.33175	32706.625
2618.99734	32692.525
2621.66128	32679.025
2624.32355	32597.525
2626.98416	32558.525
2629.64311	32600.825
2632.30041	32632.425
2634.95605	32520.225
2637.61004	32523.925
2640.26238	32491.025
2642.91306	32419.625
2645.56209	32427.325
2648.20948	32387.025
2650.85521	32399.125
2653.4993	32396.625
2656.14175	32361.625
2658.78255	32433.125
2661.42171	32423.225
2664.05923	32454.825
2666.6951	32426.625
2669.32934	32437.425
2671.96194	32441.625
2674.59291	32507.725
2677.22224	32476.625
2679.84993	32455.225
2682.476	32429.525
2685.10043	32433.425
2687.72324	32362.425
2690.34441	32397.725
2692.96396	32387.725
2695.58188	32374.225
2698.19818	32353.425
2700.81285	32299.125
2703.4259	32298.125
2706.03733	32399.225
2708.64714	32349.025
2711.25533	32391.225
2713.86191	32368.425
2716.46687	32477.525
2719.07021	32443.225
2721.67194	32441.225
2724.27206	32387.725
2726.87057	32438.325
2729.46747	32423.525
2732.06276	32393.425
2734.65644	32464.725
2737.24852	32442.025
2739.83899	32429.225
2742.42786	32473.625
2745.01513	32439.925
2747.60079	32389.325
2750.18486	32384.225
2752.76733	32342.225
2755.3482	32259.825
2757.92747	32289.725
2760.50515	32245.525
2763.08123	32251.025
2765.65573	32225.525
2768.22863	32201.525
2770.79994	32178.225
2773.36967	32246.925
2775.9378	32212.025
2778.50435	32254.425
2781.06932	32164.525
2783.6327	32136.325
2786.1945	32119.225
2788.75471	32072.225
2791.31335	31991.225
2793.87041	31981.125
2796.42589	31920.125
2798.97979	31901.725
2801.53212	31789.125
2804.08288	31737.325
2806.63206	31701.125
2809.17967	31595.625
2811.72571	31499.925
2814.27018	31428.825
2816.81308	31372.825
2819.35442	31324.625
2821.89419	31286.225
2824.43239	31284.525
2826.96904	31282.225
2829.50412	31270.325
2832.03763	31193.325
2834.56959	31206.225
2837.1	31141.925
2839.62884	31054.725
2842.15613	30975.025
2844.68186	31010.125
2847.20604	30959.325
2849.72867	30962.925
2852.24974	30907.125
2854.76927	30873.925
2857.28724	30846.425
2859.80367	30852.025
2862.31855	30837.625
2864.83189	30784.525
2867.34368	30718.925
2869.85393	30693.125
2872.36264	30683.225
2874.8698	30704.725
2877.37543	30708.325
2879.87952	30660.625
2882.38207	30617.925
2884.88308	30600.125
2887.38256	30663.925
2889.88051	30654.425
2892.37692	30680.625
2894.8718	30656.625
2897.36515	30702.725
2899.85698	30706.425
2902.34727	30718.425
2904.83604	30742.325
2907.32328	30823.825
2909.809	30804.625
2912.29319	30878.625
2914.77587	30847.425
2917.25702	30860.625
2919.73665	30812.725
2922.21476	30803.825
2924.69136	30799.625
2927.16644	30739.725
2929.64	30643.325
2932.11205	30652.925
2934.58258	30559.225
2937.05161	30646.825
2939.51912	30670.325
2941.98513	30617.325
2944.44962	30587.525
2946.91261	30527.325
2949.37409	30595.225
2951.83407	30557.325
2954.29254	30560.725
2956.74951	30514.725
2959.20498	30571.625
2961.65895	30513.925
2964.11142	30562.725
2966.56239	30485.225
2969.01186	30491.725
2971.45984	30367.525
2973.90632	30365.125
2976.35131	30258.125
2978.7948	30267.925
2981.23681	30224.825
2983.67732	30205.825
2986.11635	30097.025
2988.55388	30084.425
2990.98993	30047.925
2993.4245	29969.125
2995.85758	29934.725
2998.28917	29866.425
3000.71928	29817.425
3003.14791	29753.325
3005.57506	29753.125
3008.00073	29641.825
3010.42493	29658.525
3012.84764	29570.425
3015.26888	29524.625
3017.68865	29495.625
3020.10694	29474.825
3022.52376	29393.425
3024.9391	29383.225
3027.35298	29351.525
3029.76539	29344.525
3032.17632	29303.325
3034.5858	29248.225
3036.9938	29226.725
3039.40034	29204.625
3041.80542	29218.225
3044.20903	29122.125
3046.61118	29106.225
3049.01187	29038.225
3051.4111	28959.425
3053.80888	28896.525
3056.20519	28884.325
3058.60005	28815.725
3060.99345	28823.425
3063.3854	28750.725
3065.7759	28615.825
3068.16494	28531.925
3070.55254	28510.325
3072.93868	28419.925
3075.32338	28287.425
3077.70662	28290.825
3080.08842	28178.825
3082.46878	28130.825
3084.84769	28113.425
3087.22515	28102.325
3089.60118	28098.025
3091.97576	28057.725
3094.3489	28058.225
3096.72061	28049.925
3099.09087	28096.425
3101.4597	28061.825
3103.82709	28059.025
3106.19305	28071.725
3108.55757	28018.225
3110.92066	27958.025
3113.28232	27942.525
3115.64255	27853.725
3118.00134	27772.025
3120.35871	27747.125
3122.71466	27655.925
3125.06917	27616.325
