Data from AgNPs_FTO_APTES_UA_20uM_CRN_2uM_R6G_10uM_NaF_0.1M_Addition_RamanShift__34__13-20-12-113.txt Node

Date: Thu Feb 17 13:20:12 GMT 2022
User: TCL
Spectrometer: QEP01345
Trigger mode: 4
Integration Time (sec): 7.000000E0
Scans to average: 10
Electric dark correction enabled: true
Nonlinearity correction enabled: false
Boxcar width: 0
XAxis mode: Raman Shifts
Number of Pixels in Spectrum: 1044
>>>>>Begin Spectral Data<<<<<
46.04893	1.675
50.45542	-0.725
54.85868	-2.425
59.25871	-1.725
63.6555	117.175
68.04907	120.375
72.43941	126.575
76.82654	126.475
81.21044	133.475
85.59113	137.075
89.96862	136.975
94.34289	144.575
98.71396	147.475
103.08183	147.875
107.4465	157.875
111.80798	158.075
116.16626	162.675
120.52136	172.275
124.87327	175.175
129.222	187.875
133.56755	200.675
137.90993	214.975
142.24913	240.875
146.58517	271.875
150.91804	322.875
155.24774	375.075
159.57429	476.975
163.89768	620.475
168.21792	832.575
172.53501	1146.275
176.84895	1600.575
181.15975	2266.675
185.46741	3192.975
189.77193	4409.875
194.07331	5932.175
198.37157	7653.975
202.6667	9478.775
206.9587	11296.275
211.24758	13055.775
215.53334	14849.575
219.81599	16763.675
224.09553	18903.875
228.37195	21241.675
232.64527	23843.575
236.91549	26497.775
241.18261	29156.175
245.44663	31640.575
249.70755	33831.075
253.96539	35771.275
258.22014	37492.975
262.4718	38973.475
266.72039	40077.675
270.96589	40669.675
275.20832	40712.475
279.44768	40363.775
283.68397	39899.275
287.91719	39467.475
292.14735	39152.175
296.37445	39181.175
300.59849	39468.675
304.81948	39882.775
309.03742	40066.475
313.25231	39962.375
317.46415	39334.875
321.67296	38505.275
325.87872	37761.775
330.08145	37514.075
334.28114	37564.775
338.47781	37942.975
342.67145	38469.075
346.86207	39209.275
351.04966	40137.275
355.23424	41001.075
359.4158	41801.275
363.59435	42377.375
367.76989	42743.475
371.94243	43077.075
376.11196	43398.975
380.27849	43672.675
384.44203	43940.575
388.60257	44095.375
392.76012	44338.875
396.91468	44726.075
401.06626	45293.475
405.21485	45737.175
409.36047	45629.775
413.50311	44960.775
417.64277	44397.475
421.77947	44138.475
425.9132	44188.975
430.04396	44489.375
434.17176	44935.875
438.2966	45654.175
442.41849	46872.675
446.53742	48491.675
450.6534	50242.075
454.76644	51418.975
458.87653	51646.275
462.98368	50987.875
467.08789	50005.975
471.18916	49040.775
475.2875	48170.375
479.38291	47666.475
483.4754	47220.075
487.56496	46721.075
491.6516	46205.975
495.73531	45680.675
499.81612	45293.275
503.89401	45438.575
507.96899	45528.875
512.04106	45619.875
516.11023	45533.175
520.1765	45515.575
524.23987	45497.875
528.30034	45520.975
532.35792	45388.075
536.41261	44956.475
540.46441	44355.975
544.51333	44206.975
548.55936	44454.375
552.60252	45286.575
556.64279	46391.675
560.6802	47310.775
564.71473	47691.675
568.7464	48369.675
572.7752	49311.975
576.80114	49647.775
580.82422	49862.575
584.84444	50623.075
588.86181	52347.275
592.87633	54837.175
596.888	55944.675
600.89682	55000.075
604.9028	55149.575
608.90594	59351.475
612.90624	64633.275
616.90371	61546.975
620.89834	51972.275
624.89015	47790.175
628.87913	47311.675
632.86528	47192.375
636.84862	46901.475
640.82913	46149.375
644.80683	45113.975
648.78172	44426.775
652.75379	44509.575
656.72306	45306.275
660.68952	46251.975
664.65319	46095.275
668.61405	45180.775
672.57211	44985.575
676.52738	45036.075
680.47986	44927.675
684.42955	44716.575
688.37646	44707.075
692.32058	45089.375
696.26192	45636.075
700.20048	46107.875
704.13626	46568.175
708.06928	46322.175
711.99952	45990.875
715.927	46111.575
719.85171	46341.075
723.77365	46318.175
727.69284	45891.875
731.60928	45587.275
735.52295	45540.075
739.43388	45731.275
743.34206	45899.975
747.24749	46072.475
751.15017	46293.975
755.05012	46871.975
758.94733	47910.675
762.8418	49994.575
766.73354	53322.875
770.62254	56743.575
774.50882	57872.575
778.39237	56002.775
782.27321	52437.975
786.15132	49189.775
790.02671	47310.775
793.89938	46421.375
797.76935	46111.175
801.6366	45985.275
805.50115	45841.475
809.36299	45705.475
813.22213	45558.175
817.07857	45468.875
820.93231	45451.875
824.78336	45472.875
828.63172	45508.975
832.47738	45620.975
836.32036	45811.475
840.16066	45973.775
843.99827	46152.875
847.8332	46052.275
851.66546	45948.875
855.49504	45897.975
859.32195	45910.875
863.1462	45777.475
866.96777	45724.375
870.78668	45629.475
874.60293	45672.175
878.41652	45756.175
882.22745	45902.875
886.03573	46006.575
889.84136	45946.575
893.64433	45746.475
897.44466	45558.375
901.24235	45430.175
905.0374	45369.875
908.8298	45357.675
912.61957	45388.175
916.40671	45815.175
920.19121	46196.775
923.97308	46657.275
927.75233	46870.975
931.52895	46754.675
935.30295	46465.175
939.07433	45830.575
942.84309	45378.275
946.60924	45200.975
950.37278	45192.475
954.13371	45154.075
957.89203	44926.475
961.64774	44757.375
965.40086	44717.575
969.15137	44637.675
972.89929	44527.575
976.64461	44570.075
980.38733	44703.375
984.12747	44939.775
987.86502	45363.975
991.59999	46103.275
995.33237	46943.775
999.06217	47968.175
1002.78939	49273.575
1006.51404	50039.175
1010.23611	50483.475
1013.95561	50836.875
1017.67255	50843.575
1021.38692	50408.675
1025.09872	49812.475
1028.80796	49973.175
1032.51465	50926.775
1036.21877	51852.275
1039.92035	51913.575
1043.61937	51290.175
1047.31584	50337.875
1051.00976	49337.975
1054.70114	48796.475
1058.38998	48682.975
1062.07627	48787.175
1065.76003	48941.175
1069.44126	49162.175
1073.11995	49571.275
1076.79611	50098.675
1080.46974	50606.875
1084.14085	51202.975
1087.80943	51855.975
1091.47549	52231.675
1095.13903	52037.875
1098.80005	51332.675
1102.45857	50749.875
1106.11456	50468.675
1109.76805	50599.775
1113.41903	51009.475
1117.06751	51501.775
1120.71348	52091.075
1124.35696	52580.675
1127.99793	52957.975
1131.63641	52930.675
1135.2724	52349.075
1138.90589	51692.875
1142.5369	51400.175
1146.16542	51403.875
1149.79145	51588.275
1153.415	51868.175
1157.03607	52362.875
1160.65467	53312.775
1164.27079	54939.075
1167.88443	57234.175
1171.49561	60378.675
1175.10432	64681.475
1178.71056	70136.375
1182.31434	75117.975
1185.91565	76892.275
1189.51451	75424.575
1193.11091	72167.075
1196.70485	68832.275
1200.29634	66297.575
1203.88538	64475.475
1207.47197	63109.775
1211.05612	61811.475
1214.63782	61025.775
1218.21708	60688.775
1221.79391	60911.675
1225.36829	61144.875
1228.94024	60631.775
1232.50976	59257.075
1236.07685	57872.375
1239.6415	57214.775
1243.20374	57207.575
1246.76355	57666.675
1250.32093	58497.975
1253.8759	59579.175
1257.42845	60868.075
1260.97859	62191.975
1264.52631	63581.575
1268.07163	65064.575
1271.61453	66570.175
1275.15503	68044.875
1278.69312	69519.275
1282.22882	71096.875
1285.76211	72926.275
1289.29301	75119.975
1292.82151	77803.275
1296.34761	81123.975
1299.87133	85384.675
1303.39266	90652.075
1306.9116	96713.575
1310.42815	102883.875
1313.94233	106765.875
1317.45412	106615.775
1320.96354	103426.675
1324.47058	99212.675
1327.97525	95291.975
1331.47754	92370.275
1334.97747	90685.575
1338.47502	89878.675
1341.97022	88953.875
1345.46305	87880.575
1348.95352	87676.875
1352.44163	89175.575
1355.92738	93202.675
1359.41078	99489.675
1362.89183	104940.075
1366.37053	103369.575
1369.84688	94173.375
1373.32088	83190.875
1376.79254	76088.475
1380.26186	73523.275
1383.72883	73227.475
1387.19347	72991.975
1390.65578	72116.775
1394.11575	71722.875
1397.57339	72530.875
1401.0287	74057.675
1404.48168	75270.175
1407.93234	75740.775
1411.38068	75091.075
1414.82669	73588.375
1418.27039	71527.575
1421.71177	69036.975
1425.15083	66677.175
1428.58758	65460.875
1432.02203	65822.575
1435.45416	67228.075
1438.88399	68925.675
1442.31151	70145.875
1445.73673	71010.875
1449.15965	71683.075
1452.58027	71666.175
1455.9986	71112.875
1459.41463	70881.075
1462.82837	71448.375
1466.23982	72706.675
1469.64898	74173.675
1473.05586	75324.475
1476.46045	76037.675
1479.86276	76316.575
1483.26279	76071.175
1486.66054	75727.075
1490.05602	75959.475
1493.44922	76405.375
1496.84016	76911.275
1500.22882	78191.275
1503.61521	80524.075
1506.99934	83590.675
1510.38121	86267.475
1513.76081	86884.275
1517.13816	84472.075
1520.51324	80217.675
1523.88607	76513.575
1527.25665	74504.675
1530.62498	73936.375
1533.99105	73836.375
1537.35488	73425.375
1540.71647	72665.075
1544.07581	71595.975
1547.4329	70426.875
1550.78776	69120.675
1554.14038	68125.975
1557.49077	67500.475
1560.83892	67270.875
1564.18484	67374.575
1567.52853	67789.375
1570.86999	68528.075
1574.20922	69564.475
1577.54624	70194.475
1580.88103	69888.475
1584.2136	69762.575
1587.54395	71278.275
1590.87208	74689.675
1594.19801	79819.975
1597.52172	85387.875
1600.84321	87830.575
1604.16251	85198.175
1607.47959	78972.175
1610.79447	71713.975
1614.10715	65533.975
1617.41763	60972.475
1620.7259	58373.175
1624.03199	57316.075
1627.33587	57558.575
1630.63757	59044.675
1633.93707	62063.075
1637.23439	67023.075
1640.52951	74344.975
1643.82246	83210.775
1647.11321	90618.675
1650.40179	92160.175
1653.68819	85892.975
1656.97241	75037.675
1660.25446	65045.375
1663.53433	58093.775
1666.81203	53885.375
1670.08756	51368.375
1673.36092	49789.775
1676.63211	48793.675
1679.90115	48040.075
1683.16801	47467.675
1686.43272	47094.875
1689.69527	46848.475
1692.95567	46626.675
1696.2139	46503.175
1699.46999	46494.175
1702.72392	46381.775
1705.97571	46338.575
1709.22535	46254.675
1712.47284	46269.975
1715.71819	46274.075
1718.96139	46206.875
1722.20246	46051.975
1725.44139	45934.175
1728.67818	45769.375
1731.91284	45588.475
1735.14537	45385.275
1738.37576	45269.875
1741.60403	45093.375
1744.83017	44983.875
1748.05418	44851.775
1751.27607	44859.775
1754.49584	44744.875
1757.71349	44804.775
1760.92903	44754.275
1764.14244	44736.075
1767.35375	44699.575
1770.56294	44676.575
1773.77002	44739.675
1776.97499	44691.175
1780.17785	44648.275
1783.37861	44535.775
1786.57727	44482.375
1789.77382	44400.675
1792.96828	44403.775
1796.16064	44367.975
1799.3509	44295.375
1802.53907	44251.275
1805.72514	44156.475
1808.90913	44050.975
1812.09102	44005.575
1815.27083	43945.075
1818.44856	43919.775
1821.6242	43841.175
1824.79776	43782.175
1827.96924	43796.275
1831.13864	43803.775
1834.30597	43707.875
1837.47122	43673.675
1840.6344	43614.275
1843.7955	43620.875
1846.95454	43618.775
1850.11151	43607.075
1853.26642	43574.775
1856.41926	43581.375
1859.57004	43575.775
1862.71876	43508.375
1865.86542	43523.375
1869.01003	43498.475
1872.15258	43504.175
1875.29308	43415.475
1878.43152	43362.375
1881.56792	43459.275
1884.70227	43491.675
1887.83457	43503.875
1890.96482	43520.375
1894.09304	43443.175
1897.21921	43386.875
1900.34335	43367.675
1903.46544	43338.675
1906.58551	43355.075
1909.70353	43392.675
1912.81953	43344.675
1915.93349	43278.975
1919.04543	43213.575
1922.15534	43210.875
1925.26322	43176.275
1928.36908	43052.475
1931.47292	43026.675
1934.57473	42933.175
1937.67453	42877.675
1940.77232	42795.375
1943.86808	42617.575
1946.96184	42522.475
1950.05358	42424.975
1953.14331	42291.175
1956.23103	42260.675
1959.31675	42158.575
1962.40046	42009.975
1965.48217	41870.375
1968.56188	41799.675
1971.63959	41691.475
1974.7153	41634.775
1977.78901	41506.475
1980.86073	41363.575
1983.93046	41297.275
1986.99819	41184.275
1990.06394	41124.575
1993.1277	41035.375
1996.18947	40948.775
1999.24925	40842.675
2002.30706	40712.475
2005.36288	40628.375
2008.41672	40495.275
2011.46859	40407.275
2014.51848	40252.575
2017.56639	40198.575
2020.61233	40095.575
2023.6563	39999.275
2026.6983	39956.075
2029.73833	39832.375
2032.7764	39800.775
2035.8125	39815.975
2038.84664	39764.275
2041.87881	39678.075
2044.90903	39609.375
2047.93729	39600.575
2050.96359	39569.775
2053.98794	39479.875
2057.01034	39541.575
2060.03078	39579.175
2063.04927	39557.475
2066.06582	39528.275
2069.08042	39454.675
2072.09307	39436.775
2075.10378	39378.675
2078.11255	39387.675
2081.11938	39410.275
2084.12426	39425.275
2087.12722	39364.675
2090.12824	39374.675
2093.12732	39393.575
2096.12447	39326.075
2099.11969	39326.175
2102.11299	39324.075
2105.10435	39420.775
2108.09379	39431.575
2111.08131	39419.575
2114.0669	39425.875
2117.05057	39477.275
2120.03233	39494.775
2123.01216	39564.975
2125.99008	39596.875
2128.96609	39696.275
2131.94018	39698.175
2134.91236	39794.575
2137.88263	39816.875
2140.851	39852.175
2143.81746	39929.775
2146.78201	39894.275
2149.74466	39941.575
2152.7054	39968.675
2155.66425	39991.375
2158.6212	40027.775
2161.57625	39938.575
2164.52941	39951.775
2167.48067	39905.675
2170.43004	39929.375
2173.37752	39889.375
2176.32311	40010.875
2179.26681	40017.175
2182.20863	39995.675
2185.14856	40090.975
2188.08661	40056.075
2191.02278	40075.975
2193.95707	40022.475
2196.88948	39992.275
2199.82001	40013.875
2202.74867	40028.875
2205.67545	40013.375
2208.60037	39928.275
2211.52341	39905.075
2214.44458	39926.975
2217.36388	39932.075
2220.28132	39871.375
2223.1969	39731.375
2226.11061	39704.475
2229.02246	39468.175
2231.93245	39473.275
2234.84058	39427.375
2237.74686	39466.275
2240.65128	39403.875
2243.55385	39404.475
2246.45456	39349.175
2249.35343	39282.375
2252.25044	39227.975
2255.14561	39171.275
2258.03893	39149.475
2260.93041	39055.075
2263.82004	38985.275
2266.70783	38885.275
2269.59378	38798.475
2272.4779	38750.475
2275.36017	38712.475
2278.24061	38652.575
2281.11922	38584.775
2283.996	38518.875
2286.87094	38516.875
2289.74405	38500.275
2292.61534	38468.975
2295.4848	38436.075
2298.35243	38491.175
2301.21824	38448.675
2304.08223	38489.475
2306.94439	38465.875
2309.80474	38504.775
2312.66327	38524.175
2315.51999	38448.475
2318.37489	38440.975
2321.22797	38422.175
2324.07925	38432.175
2326.92871	38288.475
2329.77637	38238.275
2332.62222	38204.075
2335.46626	38214.675
2338.3085	38272.875
2341.14893	38214.275
2343.98756	38239.875
2346.8244	38251.075
2349.65943	38257.275
2352.49267	38291.375
2355.32411	38268.675
2358.15376	38176.375
2360.98161	38194.775
2363.80768	38166.475
2366.63195	38102.975
2369.45444	38101.275
2372.27514	38059.175
2375.09405	38064.375
2377.91118	37934.775
2380.72652	37820.575
2383.54009	37753.775
2386.35187	37684.275
2389.16188	37614.675
2391.97011	37569.975
2394.77657	37505.275
2397.58125	37514.475
2400.38416	37454.975
2403.18529	37335.075
2405.98466	37284.075
2408.78226	37244.075
2411.57809	37195.575
2414.37216	37115.875
2417.16446	37146.975
2419.955	37108.775
2422.74378	37093.675
2425.5308	37112.775
2428.31606	37063.675
2431.09956	37030.775
2433.88131	37073.475
2436.6613	37082.475
2439.43954	37054.275
2442.21603	37007.575
2444.99077	36991.875
2447.76377	37024.475
2450.53501	36952.075
2453.30451	36974.275
2456.07226	36932.775
2458.83827	36925.175
2461.60254	36909.675
2464.36507	36870.175
2467.12586	36873.075
2469.88492	36876.075
2472.64224	36923.075
2475.39782	36874.775
2478.15167	36925.375
2480.90379	36960.475
2483.65417	36950.875
2486.40283	36956.275
2489.14976	37054.875
2491.89497	36964.275
2494.63845	37048.575
2497.3802	37032.075
2500.12024	37075.675
2502.85855	36946.675
2505.59514	36953.275
2508.33002	36847.475
2511.06318	36812.075
2513.79462	36789.875
2516.52435	36807.575
2519.25237	36731.175
2521.97867	36704.375
2524.70327	36705.775
2527.42616	36637.675
2530.14734	36645.775
2532.86681	36567.475
2535.58458	36577.075
2538.30065	36553.875
2541.01501	36620.975
2543.72768	36552.175
2546.43864	36566.675
2549.14791	36500.675
2551.85548	36470.175
2554.56136	36417.675
2557.26554	36338.075
2559.96803	36316.075
2562.66883	36291.275
2565.36794	36224.375
2568.06536	36211.975
2570.7611	36138.675
2573.45514	36063.475
2576.14751	36089.375
2578.83819	36082.875
2581.52719	36140.875
2584.21451	36060.975
2586.90015	36032.275
2589.58411	35984.475
2592.2664	35982.875
2594.94701	35953.875
2597.62594	35910.575
2600.30321	35901.475
2602.9788	35960.875
2605.65273	35879.175
2608.32498	35927.675
2610.99557	35885.575
2613.66449	35910.575
2616.33175	35808.875
2618.99734	35807.675
2621.66128	35780.475
2624.32355	35748.375
2626.98416	35752.275
2629.64311	35701.375
2632.30041	35735.475
2634.95605	35671.975
2637.61004	35671.675
2640.26238	35625.775
2642.91306	35609.075
2645.56209	35529.575
2648.20948	35566.275
2650.85521	35540.175
2653.4993	35532.175
2656.14175	35506.175
2658.78255	35589.075
2661.42171	35613.175
2664.05923	35662.975
2666.6951	35663.475
2669.32934	35631.675
2671.96194	35668.375
2674.59291	35699.775
2677.22224	35707.775
2679.84993	35727.875
2682.476	35646.375
2685.10043	35589.775
2687.72324	35534.375
2690.34441	35563.075
2692.96396	35539.775
2695.58188	35602.475
2698.19818	35547.275
2700.81285	35554.575
2703.4259	35533.775
2706.03733	35603.175
2708.64714	35553.375
2711.25533	35617.075
2713.86191	35584.875
2716.46687	35706.575
2719.07021	35677.375
2721.67194	35688.375
2724.27206	35618.175
2726.87057	35737.975
2729.46747	35790.975
2732.06276	35726.075
2734.65644	35729.375
2737.24852	35740.975
2739.83899	35685.975
2742.42786	35677.375
2745.01513	35655.575
2747.60079	35610.675
2750.18486	35619.675
2752.76733	35626.275
2755.3482	35548.575
2757.92747	35530.975
2760.50515	35523.175
2763.08123	35513.375
2765.65573	35507.575
2768.22863	35526.775
2770.79994	35412.175
2773.36967	35466.875
2775.9378	35491.575
2778.50435	35509.475
2781.06932	35457.075
2783.6327	35446.875
2786.1945	35405.775
2788.75471	35384.775
2791.31335	35320.475
2793.87041	35293.675
2796.42589	35238.175
2798.97979	35179.075
2801.53212	35039.275
2804.08288	34986.375
2806.63206	34939.775
2809.17967	34920.075
2811.72571	34762.875
2814.27018	34687.275
2816.81308	34590.575
2819.35442	34576.375
2821.89419	34552.675
2824.43239	34563.075
2826.96904	34575.675
2829.50412	34549.375
2832.03763	34458.075
2834.56959	34463.175
2837.1	34435.475
2839.62884	34395.175
2842.15613	34356.775
2844.68186	34325.175
2847.20604	34304.775
2849.72867	34281.275
2852.24974	34225.675
2854.76927	34188.575
2857.28724	34170.175
2859.80367	34157.875
2862.31855	34132.675
2864.83189	34091.575
2867.34368	34011.675
2869.85393	34087.275
2872.36264	34034.575
2874.8698	33976.575
2877.37543	33945.575
2879.87952	33945.375
2882.38207	33958.575
2884.88308	33963.075
2887.38256	33980.875
2889.88051	34000.275
2892.37692	34023.575
2894.8718	33990.675
2897.36515	34065.475
2899.85698	34032.475
2902.34727	34172.075
2904.83604	34081.175
2907.32328	34191.875
2909.809	34223.175
2912.29319	34278.575
2914.77587	34262.675
2917.25702	34286.675
2919.73665	34208.575
2922.21476	34197.675
2924.69136	34143.775
2927.16644	34208.275
2929.64	34103.275
2932.11205	34109.975
2934.58258	34052.075
2937.05161	34065.475
2939.51912	34058.475
2941.98513	34024.275
2944.44962	33953.275
2946.91261	33905.175
2949.37409	33964.575
2951.83407	33976.875
2954.29254	33915.775
2956.74951	33950.875
2959.20498	33967.575
2961.65895	33981.275
2964.11142	33961.775
2966.56239	33947.175
2969.01186	33962.175
2971.45984	33771.975
2973.90632	33777.475
2976.35131	33732.275
2978.7948	33630.575
2981.23681	33616.875
2983.67732	33544.275
2986.11635	33476.775
2988.55388	33422.675
2990.98993	33391.475
2993.4245	33397.375
2995.85758	33270.275
2998.28917	33173.075
3000.71928	33129.375
3003.14791	33059.075
3005.57506	33091.675
3008.00073	33028.475
3010.42493	32975.875
3012.84764	32870.375
3015.26888	32851.275
3017.68865	32824.375
3020.10694	32795.975
3022.52376	32678.675
3024.9391	32649.575
3027.35298	32601.175
3029.76539	32657.975
3032.17632	32603.475
3034.5858	32553.875
3036.9938	32530.975
3039.40034	32497.875
3041.80542	32514.875
3044.20903	32455.975
3046.61118	32483.175
3049.01187	32319.275
3051.4111	32285.675
3053.80888	32199.175
3056.20519	32202.775
3058.60005	32142.375
3060.99345	32091.975
3063.3854	32028.775
3065.7759	31933.175
3068.16494	31897.875
3070.55254	31735.775
3072.93868	31684.275
3075.32338	31580.075
3077.70662	31546.775
3080.08842	31502.775
3082.46878	31387.375
3084.84769	31347.675
3087.22515	31358.775
3089.60118	31345.575
3091.97576	31350.375
3094.3489	31310.075
3096.72061	31308.775
3099.09087	31335.675
3101.4597	31292.575
3103.82709	31300.875
3106.19305	31272.975
3108.55757	31320.075
3110.92066	31248.875
3113.28232	31242.475
3115.64255	31122.475
3118.00134	31040.375
3120.35871	30911.875
3122.71466	30854.175
3125.06917	30816.275
