Data from AgNPs_FTO_APTES_UA_20uM_CRN_0uM_R6G_10uM_NaF_0.1M_Addition_RamanShift__24__11-17-41-954.txt Node

Date: Thu Feb 17 11:17:41 GMT 2022
User: TCL
Spectrometer: QEP01345
Trigger mode: 4
Integration Time (sec): 7.000000E0
Scans to average: 10
Electric dark correction enabled: true
Nonlinearity correction enabled: false
Boxcar width: 0
XAxis mode: Raman Shifts
Number of Pixels in Spectrum: 1044
>>>>>Begin Spectral Data<<<<<
46.04893	0.9125
50.45542	-0.2875
54.85868	-2.2875
59.25871	0.4125
63.6555	31.2125
68.04907	32.6125
72.43941	35.3125
76.82654	37.1125
81.21044	42.0125
85.59113	44.5125
89.96862	44.8125
94.34289	45.8125
98.71396	44.8125
103.08183	48.0125
107.4465	48.0125
111.80798	47.5125
116.16626	51.2125
120.52136	55.9125
124.87327	52.0125
129.222	57.1125
133.56755	62.0125
137.90993	57.9125
142.24913	61.8125
146.58517	70.5125
150.91804	78.3125
155.24774	89.1125
159.57429	112.6125
163.89768	146.3125
168.21792	195.0125
172.53501	260.7125
176.84895	365.0125
181.15975	502.6125
185.46741	705.0125
189.77193	961.5125
194.07331	1285.1125
198.37157	1651.7125
202.6667	2059.7125
206.9587	2439.8125
211.24758	2857.2125
215.53334	3311.9125
219.81599	3799.7125
224.09553	4357.2125
228.37195	4994.8125
232.64527	5686.2125
236.91549	6330.0125
241.18261	6922.9125
245.44663	7354.3125
249.70755	7711.0125
253.96539	8013.4125
258.22014	8211.4125
262.4718	8334.1125
266.72039	8344.6125
270.96589	8234.8125
275.20832	8030.9125
279.44768	7791.1125
283.68397	7565.6125
287.91719	7416.5125
292.14735	7456.3125
296.37445	7709.6125
300.59849	8214.9125
304.81948	8843.5125
309.03742	9397.5125
313.25231	9556.1125
317.46415	9145.7125
321.67296	8270.5125
325.87872	7452.3125
330.08145	7058.8125
334.28114	7041.6125
338.47781	7211.1125
342.67145	7464.4125
346.86207	7867.4125
351.04966	8530.5125
355.23424	9316.3125
359.4158	9886.3125
363.59435	10133.3125
367.76989	10143.2125
371.94243	9993.9125
376.11196	9817.6125
380.27849	9674.2125
384.44203	9461.4125
388.60257	9178.5125
392.76012	9020.7125
396.91468	9056.6125
401.06626	9308.2125
405.21485	9511.9125
409.36047	9247.0125
413.50311	8605.2125
417.64277	8074.3125
421.77947	7779.8125
425.9132	7432.1125
430.04396	7356.0125
434.17176	7465.7125
438.2966	7741.0125
442.41849	8226.0125
446.53742	8854.8125
450.6534	9381.4125
454.76644	9535.9125
458.87653	9366.4125
462.98368	8923.1125
467.08789	8440.1125
471.18916	8031.2125
475.2875	7627.8125
479.38291	7215.7125
483.4754	6880.4125
487.56496	6673.2125
491.6516	6569.6125
495.73531	6501.5125
499.81612	6517.7125
503.89401	6613.2125
507.96899	6767.2125
512.04106	6947.8125
516.11023	7181.6125
520.1765	7386.0125
524.23987	7439.6125
528.30034	7384.4125
532.35792	7216.7125
536.41261	7015.0125
540.46441	6715.2125
544.51333	6558.5125
548.55936	6571.6125
552.60252	6780.2125
556.64279	7114.0125
560.6802	7302.0125
564.71473	7465.0125
568.7464	7961.6125
572.7752	8285.5125
576.80114	7855.8125
580.82422	7313.1125
584.84444	7178.5125
588.86181	7587.4125
592.87633	8386.8125
596.888	8745.4125
600.89682	8571.4125
604.9028	9417.1125
608.90594	13062.2125
612.90624	18234.3125
616.90371	17610.5125
620.89834	10890.3125
624.89015	7427.7125
628.87913	6715.3125
632.86528	6736.0125
636.84862	6896.5125
640.82913	6689.3125
644.80683	6131.1125
648.78172	5751.2125
652.75379	5747.9125
656.72306	6214.0125
660.68952	6761.1125
664.65319	6633.9125
668.61405	6023.7125
672.57211	5731.4125
676.52738	5715.8125
680.47986	5633.3125
684.42955	5483.8125
688.37646	5418.2125
692.32058	5484.5125
696.26192	5634.7125
700.20048	5841.8125
704.13626	5919.3125
708.06928	5847.9125
711.99952	5747.3125
715.927	5750.4125
719.85171	5835.1125
723.77365	5850.3125
727.69284	5755.6125
731.60928	5700.5125
735.52295	5736.8125
739.43388	5813.2125
743.34206	5840.9125
747.24749	5839.8125
751.15017	5835.4125
755.05012	6009.5125
758.94733	6534.5125
762.8418	7858.4125
766.73354	10066.0125
770.62254	12273.6125
774.50882	13541.8125
778.39237	13185.1125
782.27321	10951.2125
786.15132	8344.8125
790.02671	6821.6125
793.89938	6137.0125
797.76935	5851.1125
801.6366	5727.5125
805.50115	5629.0125
809.36299	5604.8125
813.22213	5560.1125
817.07857	5509.2125
820.93231	5503.4125
824.78336	5526.1125
828.63172	5586.4125
832.47738	5615.7125
836.32036	5554.1125
840.16066	5467.6125
843.99827	5418.6125
847.8332	5379.3125
851.66546	5372.8125
855.49504	5352.8125
859.32195	5333.9125
863.1462	5279.7125
866.96777	5255.3125
870.78668	5238.8125
874.60293	5280.2125
878.41652	5347.8125
882.22745	5425.0125
886.03573	5479.0125
889.84136	5445.7125
893.64433	5393.8125
897.44466	5377.7125
901.24235	5369.0125
905.0374	5304.3125
908.8298	5201.8125
912.61957	5151.0125
916.40671	5167.9125
920.19121	5196.6125
923.97308	5310.7125
927.75233	5454.4125
931.52895	5597.2125
935.30295	5474.5125
939.07433	5179.8125
942.84309	4902.8125
946.60924	4742.7125
950.37278	4686.5125
954.13371	4656.4125
957.89203	4639.3125
961.64774	4618.4125
965.40086	4596.5125
969.15137	4591.9125
972.89929	4576.8125
976.64461	4564.3125
980.38733	4580.1125
984.12747	4578.9125
987.86502	4619.4125
991.59999	4679.5125
995.33237	4833.9125
999.06217	5074.0125
1002.78939	5336.1125
1006.51404	5535.5125
1010.23611	5753.1125
1013.95561	5882.5125
1017.67255	5827.4125
1021.38692	5565.1125
1025.09872	5254.7125
1028.80796	5070.7125
1032.51465	5029.1125
1036.21877	5052.2125
1039.92035	5129.5125
1043.61937	5179.6125
1047.31584	5194.8125
1051.00976	5189.4125
1054.70114	5132.0125
1058.38998	5095.5125
1062.07627	5086.4125
1065.76003	5091.8125
1069.44126	5139.3125
1073.11995	5281.4125
1076.79611	5478.2125
1080.46974	5790.8125
1084.14085	6202.3125
1087.80943	6573.1125
1091.47549	6640.6125
1095.13903	6379.3125
1098.80005	5956.0125
1102.45857	5626.2125
1106.11456	5558.4125
1109.76805	5693.7125
1113.41903	6023.5125
1117.06751	6516.9125
1120.71348	7176.7125
1124.35696	7943.1125
1127.99793	8443.9125
1131.63641	8174.2125
1135.2724	7383.6125
1138.90589	6716.1125
1142.5369	6320.8125
1146.16542	6121.9125
1149.79145	5983.1125
1153.415	5924.3125
1157.03607	5976.6125
1160.65467	6180.1125
1164.27079	6628.8125
1167.88443	7343.5125
1171.49561	8540.1125
1175.10432	10427.9125
1178.71056	12883.1125
1182.31434	14827.0125
1185.91565	15304.5125
1189.51451	14697.0125
1193.11091	13542.8125
1196.70485	12239.4125
1200.29634	11072.9125
1203.88538	9934.6125
1207.47197	8745.1125
1211.05612	7852.8125
1214.63782	7505.1125
1218.21708	7526.6125
1221.79391	7636.0125
1225.36829	7587.2125
1228.94024	7309.6125
1232.50976	7080.1125
1236.07685	6993.4125
1239.6415	7114.3125
1243.20374	7240.5125
1246.76355	7234.9125
1250.32093	7308.2125
1253.8759	7547.6125
1257.42845	7970.4125
1260.97859	8516.3125
1264.52631	9132.0125
1268.07163	9674.8125
1271.61453	10028.9125
1275.15503	10177.9125
1278.69312	10155.2125
1282.22882	10269.9125
1285.76211	10834.5125
1289.29301	11611.4125
1292.82151	12473.3125
1296.34761	13358.5125
1299.87133	14474.2125
1303.39266	16223.0125
1306.9116	18910.9125
1310.42815	21915.9125
1313.94233	23430.7125
1317.45412	22290.3125
1320.96354	19586.6125
1324.47058	16794.0125
1327.97525	14578.1125
1331.47754	13443.3125
1334.97747	13339.8125
1338.47502	13917.0125
1341.97022	14636.8125
1345.46305	15469.0125
1348.95352	16810.3125
1352.44163	18900.1125
1355.92738	22027.2125
1359.41078	26277.3125
1362.89183	29462.4125
1366.37053	27768.3125
1369.84688	22444.7125
1373.32088	17600.9125
1376.79254	14736.5125
1380.26186	13227.5125
1383.72883	12289.9125
1387.19347	11388.4125
1390.65578	10472.2125
1394.11575	9891.5125
1397.57339	9766.1125
1401.0287	9871.7125
1404.48168	10066.6125
1407.93234	10199.3125
1411.38068	10302.3125
1414.82669	10257.9125
1418.27039	10001.5125
1421.71177	9611.9125
1425.15083	9344.9125
1428.58758	9391.1125
1432.02203	9747.1125
1435.45416	10117.4125
1438.88399	10258.3125
1442.31151	10256.7125
1445.73673	10276.8125
1449.15965	10290.0125
1452.58027	10139.4125
1455.9986	9804.5125
1459.41463	9626.7125
1462.82837	9912.3125
1466.23982	10398.9125
1469.64898	10954.1125
1473.05586	11314.7125
1476.46045	11575.0125
1479.86276	11904.7125
1483.26279	12217.4125
1486.66054	12528.1125
1490.05602	12915.3125
1493.44922	13397.1125
1496.84016	14117.4125
1500.22882	15708.8125
1503.61521	18177.9125
1506.99934	21169.7125
1510.38121	23769.7125
1513.76081	24417.8125
1517.13816	22199.1125
1520.51324	18295.4125
1523.88607	14903.9125
1527.25665	12912.8125
1530.62498	12056.6125
1533.99105	11665.6125
1537.35488	11418.8125
1540.71647	11229.1125
1544.07581	11035.6125
1547.4329	10848.7125
1550.78776	10561.8125
1554.14038	10264.9125
1557.49077	10098.6125
1560.83892	10135.5125
1564.18484	10505.2125
1567.52853	11134.1125
1570.86999	11743.4125
1574.20922	12094.2125
1577.54624	11992.5125
1580.88103	11112.2125
1584.2136	9878.2125
1587.54395	9338.3125
1590.87208	9734.4125
1594.19801	11007.8125
1597.52172	12801.1125
1600.84321	14026.3125
1604.16251	13796.8125
1607.47959	12248.2125
1610.79447	10268.6125
1614.10715	8499.0125
1617.41763	7352.5125
1620.7259	6687.9125
1624.03199	6429.3125
1627.33587	6477.2125
1630.63757	6797.8125
1633.93707	7546.5125
1637.23439	8870.2125
1640.52951	11014.4125
1643.82246	13981.5125
1647.11321	17041.6125
1650.40179	18441.1125
1653.68819	16913.3125
1656.97241	13290.9125
1660.25446	9799.8125
1663.53433	7488.8125
1666.81203	6170.1125
1670.08756	5439.5125
1673.36092	5012.5125
1676.63211	4737.8125
1679.90115	4553.5125
1683.16801	4436.5125
1686.43272	4354.5125
1689.69527	4288.9125
1692.95567	4232.4125
1696.2139	4220.6125
1699.46999	4204.8125
1702.72392	4175.3125
1705.97571	4158.0125
1709.22535	4087.1125
1712.47284	4100.0125
1715.71819	4126.9125
1718.96139	4127.0125
1722.20246	4099.2125
1725.44139	4049.9125
1728.67818	3982.9125
1731.91284	3920.3125
1735.14537	3854.2125
1738.37576	3781.0125
1741.60403	3787.8125
1744.83017	3769.7125
1748.05418	3761.8125
1751.27607	3746.0125
1754.49584	3747.0125
1757.71349	3721.3125
1760.92903	3720.2125
1764.14244	3693.3125
1767.35375	3676.1125
1770.56294	3653.6125
1773.77002	3624.9125
1776.97499	3613.3125
1780.17785	3573.5125
1783.37861	3553.6125
1786.57727	3540.8125
1789.77382	3517.6125
1792.96828	3527.1125
1796.16064	3511.8125
1799.3509	3498.7125
1802.53907	3482.4125
1805.72514	3471.0125
1808.90913	3467.6125
1812.09102	3441.8125
1815.27083	3426.0125
1818.44856	3405.8125
1821.6242	3387.6125
1824.79776	3386.0125
1827.96924	3370.3125
1831.13864	3381.0125
1834.30597	3349.4125
1837.47122	3342.1125
1840.6344	3336.4125
1843.7955	3332.7125
1846.95454	3330.4125
1850.11151	3317.0125
1853.26642	3308.8125
1856.41926	3323.6125
1859.57004	3323.4125
1862.71876	3306.6125
1865.86542	3312.3125
1869.01003	3318.4125
1872.15258	3305.2125
1875.29308	3304.7125
1878.43152	3310.9125
1881.56792	3314.5125
1884.70227	3312.6125
1887.83457	3323.7125
1890.96482	3315.7125
1894.09304	3313.4125
1897.21921	3316.8125
1900.34335	3319.9125
1903.46544	3315.7125
1906.58551	3319.4125
1909.70353	3330.3125
1912.81953	3311.9125
1915.93349	3321.2125
1919.04543	3299.8125
1922.15534	3280.7125
1925.26322	3270.9125
1928.36908	3265.2125
1931.47292	3231.3125
1934.57473	3208.8125
1937.67453	3194.7125
1940.77232	3178.3125
1943.86808	3171.7125
1946.96184	3164.5125
1950.05358	3151.7125
1953.14331	3137.7125
1956.23103	3127.8125
1959.31675	3120.9125
1962.40046	3126.4125
1965.48217	3110.0125
1968.56188	3104.9125
1971.63959	3110.0125
1974.7153	3111.2125
1977.78901	3090.3125
1980.86073	3075.3125
1983.93046	3055.7125
1986.99819	3040.9125
1990.06394	3026.2125
1993.1277	3016.0125
1996.18947	2997.6125
1999.24925	2983.4125
2002.30706	2977.4125
2005.36288	2947.4125
2008.41672	2953.2125
2011.46859	2936.8125
2014.51848	2930.2125
2017.56639	2939.0125
2020.61233	2907.6125
2023.6563	2907.3125
2026.6983	2884.4125
2029.73833	2884.8125
2032.7764	2875.2125
2035.8125	2854.9125
2038.84664	2855.0125
2041.87881	2852.1125
2044.90903	2850.5125
2047.93729	2842.6125
2050.96359	2827.6125
2053.98794	2830.1125
2057.01034	2831.4125
2060.03078	2832.3125
2063.04927	2815.8125
2066.06582	2811.5125
2069.08042	2807.5125
2072.09307	2792.6125
2075.10378	2792.4125
2078.11255	2788.0125
2081.11938	2794.9125
2084.12426	2786.6125
2087.12722	2786.0125
2090.12824	2773.7125
2093.12732	2780.9125
2096.12447	2789.8125
2099.11969	2779.5125
2102.11299	2780.1125
2105.10435	2786.3125
2108.09379	2781.2125
2111.08131	2776.7125
2114.0669	2776.6125
2117.05057	2769.7125
2120.03233	2786.2125
2123.01216	2778.8125
2125.99008	2795.2125
2128.96609	2803.3125
2131.94018	2795.5125
2134.91236	2778.0125
2137.88263	2790.8125
2140.851	2788.6125
2143.81746	2772.9125
2146.78201	2770.3125
2149.74466	2760.5125
2152.7054	2755.3125
2155.66425	2768.3125
2158.6212	2754.0125
2161.57625	2744.9125
2164.52941	2747.2125
2167.48067	2749.4125
2170.43004	2729.9125
2173.37752	2736.6125
2176.32311	2745.1125
2179.26681	2735.4125
2182.20863	2747.7125
2185.14856	2751.4125
2188.08661	2747.7125
2191.02278	2745.7125
2193.95707	2749.6125
2196.88948	2729.7125
2199.82001	2726.0125
2202.74867	2724.9125
2205.67545	2734.3125
2208.60037	2731.9125
2211.52341	2718.8125
2214.44458	2714.9125
2217.36388	2701.0125
2220.28132	2699.2125
2223.1969	2684.0125
2226.11061	2674.2125
2229.02246	2671.9125
2231.93245	2661.9125
2234.84058	2664.1125
2237.74686	2656.9125
2240.65128	2652.4125
2243.55385	2655.7125
2246.45456	2649.5125
2249.35343	2652.1125
2252.25044	2663.0125
2255.14561	2664.3125
2258.03893	2668.0125
2260.93041	2667.1125
2263.82004	2658.1125
2266.70783	2657.9125
2269.59378	2648.9125
2272.4779	2629.4125
2275.36017	2639.3125
2278.24061	2640.5125
2281.11922	2613.9125
2283.996	2610.5125
2286.87094	2597.2125
2289.74405	2588.8125
2292.61534	2577.7125
2295.4848	2581.7125
2298.35243	2579.3125
2301.21824	2570.9125
2304.08223	2561.8125
2306.94439	2566.8125
2309.80474	2556.2125
2312.66327	2582.2125
2315.51999	2575.5125
2318.37489	2557.4125
2321.22797	2561.3125
2324.07925	2555.4125
2326.92871	2558.9125
2329.77637	2537.7125
2332.62222	2537.2125
2335.46626	2555.1125
2338.3085	2538.3125
2341.14893	2554.8125
2343.98756	2556.5125
2346.8244	2563.3125
2349.65943	2567.1125
2352.49267	2574.4125
2355.32411	2586.0125
2358.15376	2603.5125
2360.98161	2597.7125
2363.80768	2620.1125
2366.63195	2621.8125
2369.45444	2637.7125
2372.27514	2640.4125
2375.09405	2641.2125
2377.91118	2633.6125
2380.72652	2613.6125
2383.54009	2583.3125
2386.35187	2585.1125
2389.16188	2560.9125
2391.97011	2542.4125
2394.77657	2538.1125
2397.58125	2517.7125
2400.38416	2517.0125
2403.18529	2506.8125
2405.98466	2489.4125
2408.78226	2487.0125
2411.57809	2479.8125
2414.37216	2480.6125
2417.16446	2481.1125
2419.955	2475.8125
2422.74378	2480.7125
2425.5308	2482.5125
2428.31606	2482.8125
2431.09956	2493.9125
2433.88131	2502.4125
2436.6613	2505.9125
2439.43954	2508.1125
2442.21603	2507.5125
2444.99077	2514.2125
2447.76377	2520.0125
2450.53501	2528.2125
2453.30451	2542.3125
2456.07226	2524.3125
2458.83827	2528.8125
2461.60254	2525.5125
2464.36507	2533.0125
2467.12586	2534.8125
2469.88492	2520.4125
2472.64224	2532.2125
2475.39782	2548.3125
2478.15167	2562.6125
2480.90379	2576.1125
2483.65417	2583.0125
2486.40283	2599.9125
2489.14976	2615.6125
2491.89497	2632.6125
2494.63845	2634.5125
2497.3802	2632.3125
2500.12024	2629.8125
2502.85855	2610.3125
2505.59514	2601.5125
2508.33002	2577.9125
2511.06318	2575.9125
2513.79462	2529.9125
2516.52435	2520.9125
2519.25237	2517.6125
2521.97867	2499.3125
2524.70327	2495.9125
2527.42616	2483.8125
2530.14734	2485.6125
2532.86681	2471.6125
2535.58458	2488.6125
2538.30065	2492.2125
2541.01501	2491.7125
2543.72768	2508.0125
2546.43864	2500.4125
2549.14791	2510.1125
2551.85548	2514.3125
2554.56136	2512.0125
2557.26554	2505.2125
2559.96803	2499.4125
2562.66883	2496.2125
2565.36794	2510.0125
2568.06536	2505.3125
2570.7611	2493.6125
2573.45514	2501.7125
2576.14751	2495.2125
2578.83819	2492.4125
2581.52719	2488.3125
2584.21451	2478.3125
2586.90015	2475.4125
2589.58411	2478.7125
2592.2664	2470.9125
2594.94701	2475.8125
2597.62594	2480.7125
2600.30321	2486.6125
2602.9788	2468.7125
2605.65273	2474.4125
2608.32498	2479.8125
2610.99557	2485.8125
2613.66449	2497.4125
2616.33175	2488.7125
2618.99734	2488.5125
2621.66128	2484.2125
2624.32355	2478.8125
2626.98416	2488.9125
2629.64311	2488.1125
2632.30041	2471.8125
2634.95605	2467.1125
2637.61004	2468.7125
2640.26238	2469.8125
2642.91306	2461.7125
2645.56209	2462.5125
2648.20948	2475.6125
2650.85521	2480.9125
2653.4993	2475.8125
2656.14175	2474.3125
2658.78255	2495.4125
2661.42171	2510.1125
2664.05923	2513.0125
2666.6951	2515.7125
2669.32934	2524.4125
2671.96194	2516.8125
2674.59291	2522.3125
2677.22224	2530.6125
2679.84993	2531.4125
2682.476	2517.8125
2685.10043	2525.2125
2687.72324	2533.1125
2690.34441	2531.9125
2692.96396	2523.4125
2695.58188	2526.7125
2698.19818	2524.9125
2700.81285	2524.7125
2703.4259	2540.2125
2706.03733	2560.3125
2708.64714	2556.9125
2711.25533	2569.0125
2713.86191	2563.8125
2716.46687	2575.2125
2719.07021	2583.4125
2721.67194	2579.9125
2724.27206	2580.9125
2726.87057	2583.8125
2729.46747	2586.9125
2732.06276	2575.8125
2734.65644	2576.1125
2737.24852	2579.2125
2739.83899	2559.8125
2742.42786	2564.0125
2745.01513	2554.2125
2747.60079	2556.8125
2750.18486	2555.4125
2752.76733	2548.4125
2755.3482	2538.1125
2757.92747	2550.1125
2760.50515	2545.6125
2763.08123	2531.6125
2765.65573	2537.2125
2768.22863	2528.1125
2770.79994	2539.1125
2773.36967	2533.8125
2775.9378	2550.2125
2778.50435	2550.5125
2781.06932	2548.4125
2783.6327	2565.1125
2786.1945	2573.8125
2788.75471	2573.2125
2791.31335	2576.8125
2793.87041	2581.3125
2796.42589	2587.4125
2798.97979	2598.3125
2801.53212	2601.6125
2804.08288	2594.2125
2806.63206	2601.3125
2809.17967	2596.6125
2811.72571	2613.5125
2814.27018	2626.4125
2816.81308	2622.8125
2819.35442	2642.7125
2821.89419	2651.4125
2824.43239	2659.7125
2826.96904	2667.2125
2829.50412	2669.6125
2832.03763	2677.3125
2834.56959	2678.7125
2837.1	2680.8125
2839.62884	2691.0125
2842.15613	2712.0125
2844.68186	2745.7125
2847.20604	2771.3125
2849.72867	2802.1125
2852.24974	2812.5125
2854.76927	2807.3125
2857.28724	2824.3125
2859.80367	2824.3125
2862.31855	2825.5125
2864.83189	2824.9125
2867.34368	2814.8125
2869.85393	2819.7125
2872.36264	2803.0125
2874.8698	2795.1125
2877.37543	2788.4125
2879.87952	2783.6125
2882.38207	2783.4125
2884.88308	2772.0125
2887.38256	2761.8125
2889.88051	2762.6125
2892.37692	2758.6125
2894.8718	2771.3125
2897.36515	2772.7125
2899.85698	2771.9125
2902.34727	2786.8125
2904.83604	2778.6125
2907.32328	2781.1125
2909.809	2784.4125
2912.29319	2787.9125
2914.77587	2783.5125
2917.25702	2767.4125
2919.73665	2760.8125
2922.21476	2744.6125
2924.69136	2755.6125
2927.16644	2716.2125
2929.64	2717.8125
2932.11205	2705.1125
2934.58258	2688.4125
2937.05161	2675.2125
2939.51912	2664.8125
2941.98513	2651.5125
2944.44962	2624.5125
2946.91261	2601.4125
2949.37409	2576.0125
2951.83407	2570.4125
2954.29254	2556.0125
2956.74951	2548.2125
2959.20498	2543.5125
2961.65895	2545.6125
2964.11142	2545.7125
2966.56239	2522.7125
2969.01186	2516.1125
2971.45984	2502.9125
2973.90632	2477.5125
2976.35131	2471.6125
2978.7948	2445.7125
2981.23681	2437.6125
2983.67732	2433.5125
2986.11635	2421.5125
2988.55388	2406.6125
2990.98993	2404.5125
2993.4245	2397.6125
2995.85758	2392.7125
2998.28917	2382.4125
3000.71928	2378.8125
3003.14791	2368.1125
3005.57506	2383.8125
3008.00073	2364.4125
3010.42493	2377.6125
3012.84764	2369.2125
3015.26888	2379.1125
3017.68865	2366.7125
3020.10694	2367.0125
3022.52376	2355.2125
3024.9391	2334.5125
3027.35298	2338.3125
3029.76539	2331.8125
3032.17632	2325.1125
3034.5858	2313.9125
3036.9938	2300.0125
3039.40034	2307.6125
3041.80542	2306.0125
3044.20903	2283.9125
3046.61118	2290.8125
3049.01187	2282.0125
3051.4111	2285.6125
3053.80888	2277.4125
3056.20519	2280.2125
3058.60005	2282.2125
3060.99345	2267.7125
3063.3854	2269.6125
3065.7759	2253.6125
3068.16494	2263.6125
3070.55254	2247.1125
3072.93868	2237.3125
3075.32338	2238.3125
3077.70662	2224.2125
3080.08842	2206.8125
3082.46878	2211.4125
3084.84769	2200.7125
3087.22515	2193.8125
3089.60118	2190.6125
3091.97576	2205.6125
3094.3489	2183.0125
3096.72061	2176.4125
3099.09087	2189.8125
3101.4597	2182.5125
3103.82709	2190.4125
3106.19305	2182.1125
3108.55757	2179.8125
3110.92066	2166.0125
3113.28232	2176.6125
