Data from AgNPs_FTO_APTES_UA_20uM_CRN_1uM_R6G_10uM_NaF_0.1M_Addition_RamanShift__10__12-13-42-027.txt Node

Date: Thu Feb 17 12:13:42 GMT 2022
User: TCL
Spectrometer: QEP01345
Trigger mode: 4
Integration Time (sec): 7.000000E0
Scans to average: 10
Electric dark correction enabled: true
Nonlinearity correction enabled: false
Boxcar width: 0
XAxis mode: Raman Shifts
Number of Pixels in Spectrum: 1044
>>>>>Begin Spectral Data<<<<<
46.04893	0.2
50.45542	-0.8
54.85868	-3.4
59.25871	-2.4
63.6555	115.3
68.04907	114.1
72.43941	123
76.82654	123.9
81.21044	127.7
85.59113	136
89.96862	135.1
94.34289	138.2
98.71396	146.7
103.08183	147.8
107.4465	155.6
111.80798	156.2
116.16626	161.6
120.52136	173.5
124.87327	177.2
129.222	190.3
133.56755	196.4
137.90993	218.4
142.24913	237.8
146.58517	272.5
150.91804	323.9
155.24774	383.6
159.57429	491
163.89768	632.2
168.21792	843.8
172.53501	1160.6
176.84895	1627.5
181.15975	2294.7
185.46741	3247.3
189.77193	4483.6
194.07331	6023.9
198.37157	7755.7
202.6667	9627.4
206.9587	11449.2
211.24758	13238.1
215.53334	15022.5
219.81599	16888.1
224.09553	18938.7
228.37195	21239.9
232.64527	23734.9
236.91549	26367.5
241.18261	29148.1
245.44663	31726.2
249.70755	34025.5
253.96539	36071.6
258.22014	37798.4
262.4718	39171.8
266.72039	40121.5
270.96589	40622.4
275.20832	40679.7
279.44768	40449.9
283.68397	40084.1
287.91719	39783.6
292.14735	39540.3
296.37445	39389.6
300.59849	39435
304.81948	39548.9
309.03742	39642.5
313.25231	39614.6
317.46415	39325.2
321.67296	38825.4
325.87872	38386
330.08145	38165.1
334.28114	38233.3
338.47781	38501.5
342.67145	38963.4
346.86207	39559.8
351.04966	40186.5
355.23424	40733.3
359.4158	41271.5
363.59435	41664.1
367.76989	41994.8
371.94243	42222.1
376.11196	42378.4
380.27849	42565.4
384.44203	42763.4
388.60257	43081.9
392.76012	43537.9
396.91468	44206.3
401.06626	44800
405.21485	45235.8
409.36047	45206.1
413.50311	44894.5
417.64277	44796.3
421.77947	44975
425.9132	45340.9
430.04396	45652.7
434.17176	45877.4
438.2966	46063.5
442.41849	46597.6
446.53742	47512.3
450.6534	48530
454.76644	49305.9
458.87653	49642.8
462.98368	49641.9
467.08789	49243.3
471.18916	48780.2
475.2875	48202.4
479.38291	47809.7
483.4754	47568.9
487.56496	47307.3
491.6516	46948.2
495.73531	46561.8
499.81612	46330.8
503.89401	46458.6
507.96899	46735.5
512.04106	46808.8
516.11023	46679.3
520.1765	46423.3
524.23987	46224.3
528.30034	46066.1
532.35792	45819
536.41261	45433.5
540.46441	45178.7
544.51333	45171.7
548.55936	45470.6
552.60252	46120.6
556.64279	46996.8
560.6802	47652.5
564.71473	48142.6
568.7464	48851.5
572.7752	50199
576.80114	51957.7
580.82422	53692.6
584.84444	55362.4
588.86181	57460.6
592.87633	59548.8
596.888	59454
600.89682	57082.5
604.9028	55684.4
608.90594	57187
612.90624	58838.7
616.90371	55851.2
620.89834	50259.1
624.89015	47924.1
628.87913	47874.3
632.86528	48341.8
636.84862	48314.9
640.82913	47673.9
644.80683	46800.9
648.78172	46224.5
652.75379	46122.9
656.72306	46590.3
660.68952	47126.9
664.65319	47056.2
668.61405	46587.4
672.57211	46624.9
676.52738	46847.2
680.47986	46826
684.42955	46595.7
688.37646	46470.8
692.32058	46698.1
696.26192	47296.8
700.20048	47784.2
704.13626	48238.7
708.06928	48410.1
711.99952	48339.1
715.927	48293.9
719.85171	48340
723.77365	48109.9
727.69284	47611
731.60928	47078.2
735.52295	46878.6
739.43388	46906.7
743.34206	47045.2
747.24749	47342.7
751.15017	47780.2
755.05012	48406.7
758.94733	49388.4
762.8418	51076.6
766.73354	53487
770.62254	55729.6
774.50882	55818.3
778.39237	53871
782.27321	51572
786.15132	49671.2
790.02671	48477.1
793.89938	47728.1
797.76935	47430.6
801.6366	47236.4
805.50115	47141.8
809.36299	47087.6
813.22213	46853.1
817.07857	46763.3
820.93231	46732.6
824.78336	46581.7
828.63172	46484.7
832.47738	46357.4
836.32036	46377.8
840.16066	46398.6
843.99827	46528.9
847.8332	46719.8
851.66546	46817.5
855.49504	46850.8
859.32195	46957.2
863.1462	46900
866.96777	46964.4
870.78668	46927.1
874.60293	46923.5
878.41652	46965.6
882.22745	47103
886.03573	47285.6
889.84136	47259.5
893.64433	47157.9
897.44466	47060.1
901.24235	46948.6
905.0374	46880
908.8298	46830.8
912.61957	46932.8
916.40671	47201.6
920.19121	47750.2
923.97308	48220.1
927.75233	48277.2
931.52895	47833.9
935.30295	47215.4
939.07433	46669.2
942.84309	46297.7
946.60924	46086.3
950.37278	46112.7
954.13371	46140.3
957.89203	46116.9
961.64774	46127.5
965.40086	46147.5
969.15137	46130.5
972.89929	46012.3
976.64461	45915.2
980.38733	45867.8
984.12747	45986.6
987.86502	46127.2
991.59999	46376.8
995.33237	46722.9
999.06217	47303
1002.78939	48049.6
1006.51404	48922.3
1010.23611	49807
1013.95561	50308.1
1017.67255	50403.1
1021.38692	49979.8
1025.09872	49320.4
1028.80796	48674.7
1032.51465	48403.2
1036.21877	48556.8
1039.92035	48683
1043.61937	48728.5
1047.31584	48832.5
1051.00976	48840.2
1054.70114	49041.9
1058.38998	49270.2
1062.07627	49693.1
1065.76003	50268.9
1069.44126	50887.8
1073.11995	51690.8
1076.79611	52324.5
1080.46974	52711.3
1084.14085	53003
1087.80943	53406
1091.47549	53814.7
1095.13903	54001.5
1098.80005	53479
1102.45857	52529.9
1106.11456	51775.7
1109.76805	51218.4
1113.41903	51180
1117.06751	51236.3
1120.71348	51497.2
1124.35696	51859.6
1127.99793	52158.1
1131.63641	52401.5
1135.2724	52367.1
1138.90589	52430.6
1142.5369	52619.9
1146.16542	52836.9
1149.79145	53291.6
1153.415	53646.9
1157.03607	54062.4
1160.65467	54982.7
1164.27079	56498.2
1167.88443	58433.8
1171.49561	60691.4
1175.10432	63344.3
1178.71056	66560
1182.31434	69599.8
1185.91565	71229.4
1189.51451	71347.3
1193.11091	70565.6
1196.70485	69206.6
1200.29634	67508.1
1203.88538	66263.3
1207.47197	65731
1211.05612	65343.6
1214.63782	64570.5
1218.21708	63311.3
1221.79391	61891.2
1225.36829	60911.3
1228.94024	60371.5
1232.50976	59824.3
1236.07685	59144.3
1239.6415	58763
1243.20374	58712.8
1246.76355	58988.1
1250.32093	59655.5
1253.8759	60601.8
1257.42845	61965.9
1260.97859	63434.7
1264.52631	64860.7
1268.07163	66385.7
1271.61453	67816.5
1275.15503	69085.4
1278.69312	70445.2
1282.22882	71953.6
1285.76211	73895.3
1289.29301	76019.8
1292.82151	78542.7
1296.34761	81535.1
1299.87133	85031.1
1303.39266	88599.6
1306.9116	91746.7
1310.42815	94247.6
1313.94233	95310.2
1317.45412	94554.7
1320.96354	93150.6
1324.47058	91933.5
1327.97525	91384.8
1331.47754	90965
1334.97747	90663.8
1338.47502	90434.8
1341.97022	90406.2
1345.46305	90339
1348.95352	90060.9
1352.44163	89674.6
1355.92738	90037
1359.41078	91546.5
1362.89183	92866.2
1366.37053	91631.2
1369.84688	86735.3
1373.32088	79994.2
1376.79254	75083.2
1380.26186	73045.8
1383.72883	72852.3
1387.19347	72911.8
1390.65578	72395.9
1394.11575	72019.1
1397.57339	72224.8
1401.0287	72871.8
1404.48168	73398.2
1407.93234	73311
1411.38068	72170.2
1414.82669	70463.8
1418.27039	68527.4
1421.71177	66653.8
1425.15083	65278.5
1428.58758	64756.3
1432.02203	65392.2
1435.45416	66682.7
1438.88399	68182.8
1442.31151	69278.6
1445.73673	69861.2
1449.15965	70146.3
1452.58027	70261.8
1455.9986	70255.9
1459.41463	70814.4
1462.82837	71873.3
1466.23982	72927.1
1469.64898	73819.8
1473.05586	74469.8
1476.46045	74700.6
1479.86276	74592.7
1483.26279	74258.3
1486.66054	74026.9
1490.05602	74329.8
1493.44922	75053.7
1496.84016	75923.5
1500.22882	77168
1503.61521	78709.8
1506.99934	80102.9
1510.38121	80926.3
1513.76081	80692.9
1517.13816	79320.7
1520.51324	77916.9
1523.88607	77350.9
1527.25665	77516.2
1530.62498	77784.8
1533.99105	77614.1
1537.35488	76688.5
1540.71647	75097
1544.07581	73569
1547.4329	71969.7
1550.78776	70619.4
1554.14038	69596.3
1557.49077	69025.9
1560.83892	68633.6
1564.18484	68386.6
1567.52853	68404.9
1570.86999	68693.7
1574.20922	69506.6
1577.54624	70213.3
1580.88103	70287
1584.2136	70690.3
1587.54395	72285
1590.87208	75129.6
1594.19801	78781.5
1597.52172	82132.4
1600.84321	82809
1604.16251	80034.3
1607.47959	75540
1610.79447	70660.9
1614.10715	66152.4
1617.41763	62318.4
1620.7259	59624.5
1624.03199	58281.6
1627.33587	58111.2
1630.63757	59284
1633.93707	62160.7
1637.23439	67074.7
1640.52951	74412.5
1643.82246	83118.8
1647.11321	89753.1
1650.40179	90494
1653.68819	84497.7
1656.97241	75031.9
1660.25446	66082.2
1663.53433	59546.7
1666.81203	55439
1670.08756	52860.8
1673.36092	51308.5
1676.63211	50239.1
1679.90115	49423.3
1683.16801	48766.9
1686.43272	48319.6
1689.69527	48001.3
1692.95567	47714.8
1696.2139	47592.3
1699.46999	47469.3
1702.72392	47381.7
1705.97571	47284.4
1709.22535	47201.3
1712.47284	47168
1715.71819	47186.9
1718.96139	47098.3
1722.20246	47000.3
1725.44139	46839.4
1728.67818	46655.6
1731.91284	46469.9
1735.14537	46227.8
1738.37576	46097.5
1741.60403	45957.5
1744.83017	45816.4
1748.05418	45697.4
1751.27607	45640.5
1754.49584	45604.1
1757.71349	45572.9
1760.92903	45588.5
1764.14244	45471.4
1767.35375	45521.8
1770.56294	45423.7
1773.77002	45467.7
1776.97499	45359.5
1780.17785	45330.8
1783.37861	45256.6
1786.57727	45207.9
1789.77382	45077.1
1792.96828	45039.7
1796.16064	45022.2
1799.3509	44971.2
1802.53907	44843.1
1805.72514	44806.3
1808.90913	44738.7
1812.09102	44618.1
1815.27083	44592.9
1818.44856	44530.4
1821.6242	44476.3
1824.79776	44385.6
1827.96924	44446
1831.13864	44408.7
1834.30597	44402.3
1837.47122	44362.8
1840.6344	44261.2
1843.7955	44327.7
1846.95454	44294.5
1850.11151	44286.3
1853.26642	44301.1
1856.41926	44299.8
1859.57004	44263.7
1862.71876	44150.5
1865.86542	44089.1
1869.01003	44091.8
1872.15258	44014.6
1875.29308	43976.3
1878.43152	43945.3
1881.56792	43976
1884.70227	43934
1887.83457	43889.3
1890.96482	43855.9
1894.09304	43791.4
1897.21921	43695.9
1900.34335	43657.7
1903.46544	43609.2
1906.58551	43630.5
1909.70353	43630.2
1912.81953	43531.2
1915.93349	43539
1919.04543	43393.2
1922.15534	43345.2
1925.26322	43251.5
1928.36908	43208.7
1931.47292	43180
1934.57473	43051.2
1937.67453	42978.2
1940.77232	42893.5
1943.86808	42768.7
1946.96184	42646.5
1950.05358	42558.7
1953.14331	42420.8
1956.23103	42375.1
1959.31675	42208.7
1962.40046	42107.8
1965.48217	41926.5
1968.56188	41865.6
1971.63959	41733.1
1974.7153	41708.8
1977.78901	41539.3
1980.86073	41383.5
1983.93046	41320.5
1986.99819	41191.2
1990.06394	41136.1
1993.1277	41027.9
1996.18947	40935.6
1999.24925	40847.5
2002.30706	40711.2
2005.36288	40621.1
2008.41672	40476.8
2011.46859	40376.9
2014.51848	40241.1
2017.56639	40128
2020.61233	40096.2
2023.6563	39942.2
2026.6983	39853.6
2029.73833	39763.7
2032.7764	39678
2035.8125	39613.9
2038.84664	39547.8
2041.87881	39520.5
2044.90903	39465.1
2047.93729	39357.9
2050.96359	39327.4
2053.98794	39345.2
2057.01034	39302.4
2060.03078	39304.8
2063.04927	39312.8
2066.06582	39335.4
2069.08042	39330.4
2072.09307	39211.7
2075.10378	39154.3
2078.11255	39132.7
2081.11938	39142.6
2084.12426	39151.7
2087.12722	39121.5
2090.12824	39112.6
2093.12732	39108.5
2096.12447	39113.1
2099.11969	39090.9
2102.11299	39073
2105.10435	39154.4
2108.09379	39191.7
2111.08131	39242.5
2114.0669	39197
2117.05057	39202.4
2120.03233	39202
2123.01216	39245.4
2125.99008	39289.1
2128.96609	39371
2131.94018	39433.3
2134.91236	39499.2
2137.88263	39515.3
2140.851	39551.2
2143.81746	39535.9
2146.78201	39544.5
2149.74466	39607.5
2152.7054	39600.2
2155.66425	39615.5
2158.6212	39588.5
2161.57625	39582.5
2164.52941	39549.4
2167.48067	39537.3
2170.43004	39556.8
2173.37752	39530.6
2176.32311	39586.9
2179.26681	39553.3
2182.20863	39584.7
2185.14856	39601.4
2188.08661	39631.3
2191.02278	39592.1
2193.95707	39537
2196.88948	39497.8
2199.82001	39444.8
2202.74867	39411.9
2205.67545	39377.4
2208.60037	39357.7
2211.52341	39286.9
2214.44458	39241.8
2217.36388	39196.6
2220.28132	39160.3
2223.1969	39077.1
2226.11061	38973
2229.02246	38909.1
2231.93245	38816
2234.84058	38798.7
2237.74686	38835.1
2240.65128	38771.6
2243.55385	38723.9
2246.45456	38663.6
2249.35343	38600.1
2252.25044	38525.8
2255.14561	38464.9
2258.03893	38432.2
2260.93041	38312.6
2263.82004	38248.9
2266.70783	38184.7
2269.59378	38056.5
2272.4779	38025
2275.36017	37982.2
2278.24061	37937.3
2281.11922	37851.2
2283.996	37796.3
2286.87094	37762.4
2289.74405	37692
2292.61534	37708.5
2295.4848	37687.7
2298.35243	37699.8
2301.21824	37574.2
2304.08223	37554.6
2306.94439	37515.3
2309.80474	37527.7
2312.66327	37589.7
2315.51999	37457.4
2318.37489	37451.2
2321.22797	37365.4
2324.07925	37342.3
2326.92871	37235.8
2329.77637	37209.3
2332.62222	37139
2335.46626	37134
2338.3085	37096.5
2341.14893	37048.8
2343.98756	37090.7
2346.8244	37040
2349.65943	37071.2
2352.49267	37025
2355.32411	37050
2358.15376	37044.1
2360.98161	37033
2363.80768	37023.7
2366.63195	36925.7
2369.45444	36893.8
2372.27514	36882
2375.09405	36864.5
2377.91118	36794.5
2380.72652	36695.4
2383.54009	36638.1
2386.35187	36617.1
2389.16188	36447.9
2391.97011	36406.7
2394.77657	36367.5
2397.58125	36341.3
2400.38416	36296.9
2403.18529	36248.9
2405.98466	36171.1
2408.78226	36124.5
2411.57809	36110.1
2414.37216	36064.8
2417.16446	36046
2419.955	36053.7
2422.74378	36025.8
2425.5308	35981.8
2428.31606	36019.7
2431.09956	35976.8
2433.88131	35987.7
2436.6613	35978.4
2439.43954	35909.7
2442.21603	35906.7
2444.99077	35859.9
2447.76377	35861.3
2450.53501	35824.8
2453.30451	35830.7
2456.07226	35811.3
2458.83827	35755.9
2461.60254	35742.1
2464.36507	35743.2
2467.12586	35692.5
2469.88492	35724.4
2472.64224	35674.3
2475.39782	35675.9
2478.15167	35685.2
2480.90379	35664.7
2483.65417	35680.5
2486.40283	35685
2489.14976	35644.9
2491.89497	35634.5
2494.63845	35673.4
2497.3802	35568.8
2500.12024	35592.9
2502.85855	35572.6
2505.59514	35549.1
2508.33002	35458
2511.06318	35470.1
2513.79462	35472.8
2516.52435	35458.7
2519.25237	35403.9
2521.97867	35388.3
2524.70327	35438.9
2527.42616	35320.2
2530.14734	35337.4
2532.86681	35265.9
2535.58458	35226.9
2538.30065	35224.2
2541.01501	35232.7
2543.72768	35172.2
2546.43864	35199.7
2549.14791	35076
2551.85548	35057.3
2554.56136	34954.6
2557.26554	34879.4
2559.96803	34849
2562.66883	34851.7
2565.36794	34819.4
2568.06536	34765.2
2570.7611	34657.5
2573.45514	34653.7
2576.14751	34618.4
2578.83819	34573.5
2581.52719	34568
2584.21451	34525.2
2586.90015	34467.8
2589.58411	34381.3
2592.2664	34387.9
2594.94701	34366.9
2597.62594	34333
2600.30321	34317.4
2602.9788	34333.8
2605.65273	34287.1
2608.32498	34259.9
2610.99557	34245.2
2613.66449	34267.2
2616.33175	34209.3
2618.99734	34139.5
2621.66128	34049.1
2624.32355	34006.8
2626.98416	34007.7
2629.64311	33953.9
2632.30041	33930.7
2634.95605	33863.3
2637.61004	33824.5
2640.26238	33897.8
2642.91306	33812.8
2645.56209	33781.2
2648.20948	33783.1
2650.85521	33791.6
2653.4993	33819
2656.14175	33823.7
2658.78255	33823.6
2661.42171	33884.7
2664.05923	33940.4
2666.6951	33900.5
2669.32934	33885.9
2671.96194	33922.6
2674.59291	33926.2
2677.22224	33916.7
2679.84993	33942.7
2682.476	33856.2
2685.10043	33834.9
2687.72324	33847
2690.34441	33809.7
2692.96396	33823
2695.58188	33885.1
2698.19818	33857.4
2700.81285	33853.4
2703.4259	33820.1
2706.03733	33897.5
2708.64714	33834.9
2711.25533	33886.4
2713.86191	33874.7
2716.46687	33908.9
2719.07021	33965.4
2721.67194	33980
2724.27206	33925.8
2726.87057	33941.6
2729.46747	33982.8
2732.06276	33997.8
2734.65644	34000.2
2737.24852	33996.6
2739.83899	33974.2
2742.42786	33980.1
2745.01513	33905.7
2747.60079	33870.1
2750.18486	33852.4
2752.76733	33831.3
2755.3482	33790.8
2757.92747	33779.8
2760.50515	33715.6
2763.08123	33686.7
2765.65573	33637.6
2768.22863	33647.6
2770.79994	33542.7
2773.36967	33614.6
2775.9378	33562.6
2778.50435	33583.5
2781.06932	33512
2783.6327	33541.6
2786.1945	33497.5
2788.75471	33432.1
2791.31335	33321.4
2793.87041	33320.2
2796.42589	33253
2798.97979	33200.6
2801.53212	33068.7
2804.08288	33050
2806.63206	32985.2
2809.17967	32961.1
2811.72571	32861.7
2814.27018	32767.3
2816.81308	32673.2
2819.35442	32630.6
2821.89419	32617
2824.43239	32507.5
2826.96904	32527.2
2829.50412	32488
2832.03763	32395.9
2834.56959	32445.9
2837.1	32342.6
2839.62884	32350.9
2842.15613	32313
2844.68186	32320.9
2847.20604	32294.7
2849.72867	32211
2852.24974	32170.2
2854.76927	32130.2
2857.28724	32079.2
2859.80367	32043.4
2862.31855	32047.3
2864.83189	32032
2867.34368	31940.6
2869.85393	31900.6
2872.36264	31824.9
2874.8698	31803.4
2877.37543	31771.1
2879.87952	31745.5
2882.38207	31793.3
2884.88308	31739.2
2887.38256	31767.9
2889.88051	31735.9
2892.37692	31783.7
2894.8718	31747.8
2897.36515	31771.8
2899.85698	31783.8
2902.34727	31823.7
2904.83604	31818
2907.32328	31842.7
2909.809	31820.1
2912.29319	31892.3
2914.77587	31837.1
2917.25702	31853.7
2919.73665	31809.4
2922.21476	31835.3
2924.69136	31809.9
2927.16644	31788
2929.64	31743.3
2932.11205	31716.5
2934.58258	31653.4
2937.05161	31660.2
2939.51912	31681.7
2941.98513	31626.9
2944.44962	31558.8
2946.91261	31527.1
2949.37409	31585.1
2951.83407	31508.1
2954.29254	31542
2956.74951	31560.1
2959.20498	31575.6
2961.65895	31521.1
2964.11142	31526.5
2966.56239	31489.9
2969.01186	31460.5
2971.45984	31361
2973.90632	31302.7
2976.35131	31296.7
2978.7948	31242.2
2981.23681	31183.6
2983.67732	31139.6
2986.11635	31063.9
2988.55388	31014.5
2990.98993	30917.3
2993.4245	30873.8
2995.85758	30795.5
2998.28917	30665.6
3000.71928	30614.6
3003.14791	30557.3
3005.57506	30552.3
3008.00073	30439
3010.42493	30414.6
3012.84764	30379.8
3015.26888	30329.7
3017.68865	30285.6
3020.10694	30234.6
3022.52376	30132.7
3024.9391	30110.8
3027.35298	30066.4
3029.76539	30094.9
3032.17632	30051.2
3034.5858	29995.3
3036.9938	29998.7
3039.40034	29985.6
3041.80542	29939.1
3044.20903	29898.9
3046.61118	29884.1
3049.01187	29749.7
3051.4111	29732.5
3053.80888	29642.3
3056.20519	29618.8
3058.60005	29536.4
3060.99345	29466.4
3063.3854	29388.3
3065.7759	29327.1
3068.16494	29218.4
3070.55254	29142.9
3072.93868	29074.1
3075.32338	28987.5
3077.70662	28915.8
3080.08842	28866.8
3082.46878	28764.6
3084.84769	28720.8
3087.22515	28734.2
3089.60118	28701.1
3091.97576	28698.8
3094.3489	28646.2
3096.72061	28627.8
3099.09087	28699.1
3101.4597	28651.2
3103.82709	28618.7
3106.19305	28570.3
3108.55757	28553.9
3110.92066	28518.3
3113.28232	28481.2
3115.64255	28401.3
3118.00134	28284.4
3120.35871	28193
3122.71466	28116.2
3125.06917	28112
3127.42226	28009.8
3129.77393	28060.7
3132.12417	27957.7
3134.47299	27904.7
3136.82039	27917.4
3139.16636	27869.2
3141.51092	27865.3
3143.85406	27851.4
3146.19579	27846.1
3148.53609	27841.3
3150.87499	27853.9
3153.21246	27846.5
3155.54853	27862.7
3157.88318	27824.1
3160.21642	27848
3162.54826	27762
3164.87868	27764.5
3167.2077	27685.1
3169.5353	27695.8
3171.86151	27698.8
3174.18631	27693.9
3176.5097	27679.6
3178.83169	27637
3181.15228	27566.6
3183.47147	27475.5
3185.78926	27447.9
3188.10565	27368
3190.42065	27332.8
3192.73424	27320.6
3195.04645	27260.5
3197.35725	27221
3199.66667	27197.8
3201.97469	27215.3
3204.28132	27142.4
3206.58656	27189.9
3208.8904	27143.9
3211.19287	27184.8
3213.49394	27147.5
3215.79363	27166.3
3218.09193	27153.6
3220.38884	27188.1
3222.68438	27194.3
3224.97853	27106.9
3227.2713	27064.2
3229.56269	26987.8
3231.8527	27038.2
3234.14133	26949
3236.42858	26889.8
3238.71446	26845.9
3240.99896	26753
3243.28209	26776.6
3245.56384	26734.1
3247.84423	26689.1
3250.12324	26666.6
3252.40088	26648.9
3254.67715	26659.7
3256.95205	26627.9
3259.22558	26550.2
3261.49775	26512.7
3263.76855	26482.4
3266.03799	26389
3268.30606	26355.7
3270.57277	26308.1
3272.83812	26313.5
3275.10211	26215.4
3277.36474	26151.7
3279.62601	26168.2
3281.88593	26137.8
3284.14448	26137
3286.40168	26125.8
3288.65753	26076.3
3290.91202	26036.6
3293.16516	25996.1
3295.41695	25965.2
3297.66738	25812.3
3299.91647	25648.2
3302.16421	25476.5
3304.4106	25335.6
3306.65564	25193.7
3308.89933	25002.3
3311.14169	24868.6
3313.38269	24655.3
3315.62236	24487.9
3317.86068	24234.2
3320.09766	24049.1
3322.3333	23908.4
3324.5676	23775.4
3326.80056	23416.1
3329.03219	23248.6
3331.26248	6.1
3333.49143	1.7
3335.71905	-1.4
