Data from AgNPs_FTO_APTES_UA_20uM_CRN_5uM_R6G_10uM_NaF_0.1M_Addition_RamanShift__11__13-44-42-145.txt Node

Date: Thu Feb 17 13:44:42 GMT 2022
User: TCL
Spectrometer: QEP01345
Trigger mode: 4
Integration Time (sec): 7.000000E0
Scans to average: 10
Electric dark correction enabled: true
Nonlinearity correction enabled: false
Boxcar width: 0
XAxis mode: Raman Shifts
Number of Pixels in Spectrum: 1044
>>>>>Begin Spectral Data<<<<<
46.04893	0.4125
50.45542	-0.5875
54.85868	-4.0875
59.25871	-0.8875
63.6555	130.7125
68.04907	129.2125
72.43941	139.5125
76.82654	140.4125
81.21044	140.7125
85.59113	151.9125
89.96862	152.9125
94.34289	159.3125
98.71396	162.1125
103.08183	164.2125
107.4465	175.9125
111.80798	175.1125
116.16626	181.2125
120.52136	191.9125
124.87327	196.0125
129.222	214.0125
133.56755	229.6125
137.90993	242.2125
142.24913	269.0125
146.58517	311.1125
150.91804	365.2125
155.24774	437.8125
159.57429	550.7125
163.89768	712.5125
168.21792	951.6125
172.53501	1308.0125
176.84895	1833.2125
181.15975	2589.0125
185.46741	3661.9125
189.77193	5073.4125
194.07331	6831.2125
198.37157	8862.1125
202.6667	10990.2125
206.9587	13097.3125
211.24758	15184.9125
215.53334	17188.1125
219.81599	19306.3125
224.09553	21627.8125
228.37195	24141.5125
232.64527	26927.3125
236.91549	29958.1125
241.18261	33063.7125
245.44663	36149.2125
249.70755	38985.7125
253.96539	41515.7125
258.22014	43611.2125
262.4718	45286.6125
266.72039	46477.1125
270.96589	47123.6125
275.20832	47281.7125
279.44768	47125.9125
283.68397	46777.9125
287.91719	46480.9125
292.14735	46236.4125
296.37445	46149.2125
300.59849	46095.2125
304.81948	46121.1125
309.03742	46113.2125
313.25231	45909.2125
317.46415	45454.1125
321.67296	44904.7125
325.87872	44445.9125
330.08145	44319.8125
334.28114	44459.5125
338.47781	44767.0125
342.67145	45236.7125
346.86207	45854.4125
351.04966	46451.7125
355.23424	47031.7125
359.4158	47543.4125
363.59435	48023.0125
367.76989	48394.2125
371.94243	48645.1125
376.11196	48973.9125
380.27849	49203.5125
384.44203	49481.9125
388.60257	49853.8125
392.76012	50373.9125
396.91468	50941.0125
401.06626	51648.0125
405.21485	52143.0125
409.36047	52212.8125
413.50311	51998.4125
417.64277	51833.4125
421.77947	51921.0125
425.9132	52257.9125
430.04396	52520.9125
434.17176	52926.2125
438.2966	53219.9125
442.41849	53784.7125
446.53742	54512.6125
450.6534	55428.7125
454.76644	56150.8125
458.87653	56594.3125
462.98368	56753.1125
467.08789	56674.5125
471.18916	56413.2125
475.2875	56124.1125
479.38291	55931.4125
483.4754	55778.2125
487.56496	55511.8125
491.6516	55257.3125
495.73531	54932.6125
499.81612	54566.2125
503.89401	54643.8125
507.96899	54925.8125
512.04106	55024.5125
516.11023	55011.5125
520.1765	54799.8125
524.23987	54632.2125
528.30034	54469.5125
532.35792	54189.4125
536.41261	54006.1125
540.46441	53818.6125
544.51333	53906.0125
548.55936	54268.1125
552.60252	54964.5125
556.64279	55744.9125
560.6802	56292.1125
564.71473	56752.1125
568.7464	57427.0125
572.7752	58634.1125
576.80114	60247.3125
580.82422	61746.3125
584.84444	62714.0125
588.86181	63480.7125
592.87633	64178.4125
596.888	64114.9125
600.89682	63194.7125
604.9028	63197.3125
608.90594	64927.6125
612.90624	66537.6125
616.90371	63856.9125
620.89834	58933.1125
624.89015	56934.2125
628.87913	56845.2125
632.86528	57328.8125
636.84862	57491.9125
640.82913	56959.8125
644.80683	56243.3125
648.78172	55718.8125
652.75379	55588.6125
656.72306	55960.4125
660.68952	56529.1125
664.65319	56462.3125
668.61405	56147.6125
672.57211	56205.7125
676.52738	56454.2125
680.47986	56404.2125
684.42955	56302.5125
688.37646	56230.2125
692.32058	56543.5125
696.26192	56873.6125
700.20048	57373.3125
704.13626	57759.6125
708.06928	58057.8125
711.99952	57958.9125
715.927	57846.7125
719.85171	57817.3125
723.77365	57645.7125
727.69284	57290.4125
731.60928	56957.8125
735.52295	56776.4125
739.43388	56755.9125
743.34206	56956.1125
747.24749	57245.6125
751.15017	57500.1125
755.05012	58063.2125
758.94733	58964.8125
762.8418	60384.9125
766.73354	62775.5125
770.62254	64828.2125
774.50882	65074.1125
778.39237	63407.6125
782.27321	61217.2125
786.15132	59436.0125
790.02671	58301.0125
793.89938	57603.8125
797.76935	57248.4125
801.6366	57066.2125
805.50115	56952.2125
809.36299	56873.1125
813.22213	56786.9125
817.07857	56782.7125
820.93231	56881.3125
824.78336	56890.4125
828.63172	56861.6125
832.47738	56776.1125
836.32036	56802.8125
840.16066	56772.5125
843.99827	56844.1125
847.8332	56910.2125
851.66546	57074.0125
855.49504	57148.2125
859.32195	57247.8125
863.1462	57285.0125
866.96777	57383.8125
870.78668	57413.1125
874.60293	57515.9125
878.41652	57542.9125
882.22745	57687.7125
886.03573	57783.9125
889.84136	57744.4125
893.64433	57663.9125
897.44466	57523.1125
901.24235	57490.7125
905.0374	57469.5125
908.8298	57438.5125
912.61957	57533.8125
916.40671	57848.2125
920.19121	58245.5125
923.97308	58631.7125
927.75233	58464.6125
931.52895	58012.7125
935.30295	57572.9125
939.07433	57173.6125
942.84309	56765.8125
946.60924	56539.9125
950.37278	56509.6125
954.13371	56616.1125
957.89203	56695.6125
961.64774	56598.5125
965.40086	56566.4125
969.15137	56522.7125
972.89929	56391.1125
976.64461	56361.2125
980.38733	56252.5125
984.12747	56273.1125
987.86502	56487.2125
991.59999	56725.6125
995.33237	56927.6125
999.06217	57361.0125
1002.78939	57947.1125
1006.51404	58660.0125
1010.23611	59373.8125
1013.95561	59812.8125
1017.67255	59919.8125
1021.38692	59638.9125
1025.09872	59165.0125
1028.80796	58715.2125
1032.51465	58429.5125
1036.21877	58414.7125
1039.92035	58477.5125
1043.61937	58701.7125
1047.31584	58801.3125
1051.00976	59031.3125
1054.70114	59259.6125
1058.38998	59677.0125
1062.07627	60064.5125
1065.76003	60723.9125
1069.44126	61353.2125
1073.11995	62048.0125
1076.79611	62638.6125
1080.46974	62942.2125
1084.14085	63051.4125
1087.80943	63339.3125
1091.47549	63688.4125
1095.13903	63848.5125
1098.80005	63511.5125
1102.45857	62837.5125
1106.11456	62119.8125
1109.76805	61665.3125
1113.41903	61439.2125
1117.06751	61476.2125
1120.71348	61776.6125
1124.35696	62077.4125
1127.99793	62333.2125
1131.63641	62483.7125
1135.2724	62423.7125
1138.90589	62418.8125
1142.5369	62486.1125
1146.16542	62701.8125
1149.79145	63068.9125
1153.415	63324.1125
1157.03607	63749.0125
1160.65467	64354.7125
1164.27079	65490.8125
1167.88443	67032.1125
1171.49561	68912.0125
1175.10432	71095.3125
1178.71056	73766.7125
1182.31434	76320.2125
1185.91565	77944.9125
1189.51451	78548.4125
1193.11091	78403.1125
1196.70485	77391.0125
1200.29634	76019.4125
1203.88538	74696.7125
1207.47197	74022.5125
1211.05612	73456.5125
1214.63782	72710.0125
1218.21708	71555.7125
1221.79391	70263.1125
1225.36829	69395.4125
1228.94024	68872.5125
1232.50976	68427.7125
1236.07685	68100.2125
1239.6415	67998.8125
1243.20374	68069.5125
1246.76355	68357.9125
1250.32093	68867.0125
1253.8759	69680.6125
1257.42845	70722.0125
1260.97859	71986.0125
1264.52631	73117.3125
1268.07163	74304.4125
1271.61453	75277.9125
1275.15503	76091.9125
1278.69312	77129.4125
1282.22882	78151.9125
1285.76211	79424.6125
1289.29301	81029.2125
1292.82151	82752.5125
1296.34761	84909.2125
1299.87133	87433.8125
1303.39266	89938.9125
1306.9116	92264.1125
1310.42815	94081.5125
1313.94233	94992.1125
1317.45412	94760.6125
1320.96354	94189.4125
1324.47058	93767.1125
1327.97525	93627.2125
1331.47754	93521.7125
1334.97747	93635.9125
1338.47502	94179.7125
1341.97022	94985.9125
1345.46305	95841.4125
1348.95352	96260.4125
1352.44163	95764.5125
1355.92738	95098.1125
1359.41078	94878.9125
1362.89183	94749.5125
1366.37053	93152.8125
1369.84688	89256.4125
1373.32088	84378.9125
1376.79254	80814.4125
1380.26186	79085.7125
1383.72883	78672.6125
1387.19347	78641.5125
1390.65578	78315.3125
1394.11575	77803.1125
1397.57339	77594.7125
1401.0287	77547.2125
1404.48168	77658.8125
1407.93234	77243.6125
1411.38068	76537.9125
1414.82669	75183.1125
1418.27039	73715.6125
1421.71177	72221.9125
1425.15083	71056.5125
1428.58758	70481.9125
1432.02203	70678.0125
1435.45416	71361.6125
1438.88399	72465.3125
1442.31151	73428.1125
1445.73673	74114.8125
1449.15965	74674.8125
1452.58027	75098.4125
1455.9986	75458.1125
1459.41463	76062.1125
1462.82837	76976.7125
1466.23982	77860.7125
1469.64898	78774.3125
1473.05586	79341.4125
1476.46045	79719.1125
1479.86276	79682.3125
1483.26279	79417.2125
1486.66054	79229.4125
1490.05602	79514.2125
1493.44922	80127.9125
1496.84016	81061.4125
1500.22882	82390.8125
1503.61521	84183.2125
1506.99934	85961.2125
1510.38121	86997.3125
1513.76081	86711.5125
1517.13816	85480.9125
1520.51324	84281.9125
1523.88607	83438.7125
1527.25665	83223.1125
1530.62498	83274.5125
1533.99105	83083.6125
1537.35488	82243.8125
1540.71647	81185.3125
1544.07581	79971.1125
1547.4329	78825.5125
1550.78776	77758.3125
1554.14038	77000.3125
1557.49077	76467.5125
1560.83892	76132.4125
1564.18484	76039.1125
1567.52853	76057.5125
1570.86999	76340.7125
1574.20922	76929.6125
1577.54624	77301.7125
1580.88103	77144.4125
1584.2136	77047.0125
1587.54395	77786.6125
1590.87208	79540.8125
1594.19801	81816.8125
1597.52172	84040.6125
1600.84321	84618.6125
1604.16251	82950.9125
1607.47959	80234.9125
1610.79447	77142.9125
1614.10715	73819.7125
1617.41763	70813.1125
1620.7259	68300.0125
1624.03199	66820.7125
1627.33587	66389.9125
1630.63757	66962.6125
1633.93707	68906.2125
1637.23439	72204.8125
1640.52951	77389.3125
1643.82246	83678.1125
1647.11321	88789.4125
1650.40179	90287.9125
1653.68819	87070.6125
1656.97241	80630.1125
1660.25446	73800.0125
1663.53433	68311.2125
1666.81203	64518.6125
1670.08756	62159.5125
1673.36092	60609.9125
1676.63211	59492.7125
1679.90115	58817.5125
1683.16801	58147.5125
1686.43272	57755.8125
1689.69527	57404.2125
1692.95567	57176.4125
1696.2139	57014.8125
1699.46999	57005.4125
1702.72392	56854.5125
1705.97571	56745.1125
1709.22535	56681.7125
1712.47284	56592.2125
1715.71819	56700.3125
1718.96139	56557.2125
1722.20246	56419.1125
1725.44139	56239.2125
1728.67818	56129.0125
1731.91284	55864.4125
1735.14537	55734.4125
1738.37576	55519.3125
1741.60403	55423.2125
1744.83017	55215.5125
1748.05418	55132.8125
1751.27607	55042.2125
1754.49584	54926.3125
1757.71349	55021.5125
1760.92903	54996.1125
1764.14244	54930.9125
1767.35375	54806.4125
1770.56294	54771.5125
1773.77002	54762.0125
1776.97499	54703.0125
1780.17785	54659.3125
1783.37861	54584.3125
1786.57727	54506.2125
1789.77382	54442.9125
1792.96828	54443.6125
1796.16064	54337.5125
1799.3509	54221.5125
1802.53907	54099.1125
1805.72514	53998.2125
1808.90913	53880.0125
1812.09102	53831.4125
1815.27083	53714.5125
1818.44856	53660.5125
1821.6242	53614.2125
1824.79776	53561.4125
1827.96924	53570.6125
1831.13864	53534.4125
1834.30597	53459.5125
1837.47122	53417.5125
1840.6344	53387.8125
1843.7955	53372.0125
1846.95454	53382.5125
1850.11151	53371.6125
1853.26642	53261.2125
1856.41926	53245.3125
1859.57004	53215.6125
1862.71876	53174.0125
1865.86542	53102.2125
1869.01003	53036.3125
1872.15258	52932.0125
1875.29308	52872.1125
1878.43152	52776.5125
1881.56792	52782.0125
1884.70227	52744.2125
1887.83457	52740.0125
1890.96482	52668.2125
1894.09304	52601.9125
1897.21921	52530.0125
1900.34335	52417.4125
1903.46544	52356.9125
1906.58551	52334.5125
1909.70353	52341.3125
1912.81953	52262.3125
1915.93349	52116.3125
1919.04543	52041.4125
1922.15534	51993.3125
1925.26322	51960.7125
1928.36908	51834.1125
1931.47292	51829.7125
1934.57473	51661.2125
1937.67453	51532.6125
1940.77232	51475.1125
1943.86808	51310.4125
1946.96184	51222.8125
1950.05358	51047.2125
1953.14331	50920.5125
1956.23103	50781.2125
1959.31675	50669.9125
1962.40046	50533.2125
1965.48217	50304.3125
1968.56188	50189.8125
1971.63959	50064.8125
1974.7153	49878.2125
1977.78901	49793.7125
1980.86073	49660.9125
1983.93046	49546.0125
1986.99819	49390.2125
1990.06394	49224.1125
1993.1277	49168.2125
1996.18947	48998.7125
1999.24925	48891.2125
2002.30706	48776.9125
2005.36288	48574.6125
2008.41672	48462.9125
2011.46859	48299.6125
2014.51848	48177.8125
2017.56639	48019.7125
2020.61233	47902.8125
2023.6563	47693.0125
2026.6983	47676.9125
2029.73833	47514.5125
2032.7764	47393.1125
2035.8125	47374.7125
2038.84664	47235.1125
2041.87881	47130.0125
2044.90903	47107.6125
2047.93729	47069.4125
2050.96359	46997.3125
2053.98794	46923.6125
2057.01034	46917.3125
2060.03078	46893.9125
2063.04927	46846.5125
2066.06582	46814.4125
2069.08042	46834.5125
2072.09307	46757.3125
2075.10378	46666.1125
2078.11255	46648.4125
2081.11938	46689.6125
2084.12426	46621.9125
2087.12722	46655.7125
2090.12824	46584.3125
2093.12732	46623.3125
2096.12447	46629.7125
2099.11969	46592.2125
2102.11299	46603.2125
2105.10435	46589.1125
2108.09379	46648.7125
2111.08131	46680.4125
2114.0669	46670.6125
2117.05057	46691.4125
2120.03233	46762.5125
2123.01216	46847.9125
2125.99008	46910.3125
2128.96609	46997.4125
2131.94018	47014.4125
2134.91236	47044.7125
2137.88263	47036.9125
2140.851	47028.5125
2143.81746	47065.0125
2146.78201	47067.6125
2149.74466	47150.7125
2152.7054	47100.9125
2155.66425	47115.1125
2158.6212	47150.3125
2161.57625	47080.9125
2164.52941	47039.8125
2167.48067	46990.2125
2170.43004	47026.3125
2173.37752	47013.3125
2176.32311	46991.0125
2179.26681	47033.0125
2182.20863	46918.7125
2185.14856	47011.4125
2188.08661	47036.8125
2191.02278	46973.0125
2193.95707	46881.5125
2196.88948	46871.3125
2199.82001	46851.1125
2202.74867	46759.9125
2205.67545	46688.5125
2208.60037	46582.4125
2211.52341	46634.3125
2214.44458	46588.1125
2217.36388	46493.9125
2220.28132	46365.9125
2223.1969	46301.4125
2226.11061	46187.1125
2229.02246	46019.7125
2231.93245	45946.8125
2234.84058	45919.5125
2237.74686	45841.3125
2240.65128	45886.8125
2243.55385	45787.9125
2246.45456	45757.5125
2249.35343	45709.6125
2252.25044	45677.7125
2255.14561	45560.1125
2258.03893	45538.8125
2260.93041	45382.6125
2263.82004	45319.5125
2266.70783	45179.9125
2269.59378	45120.2125
2272.4779	44962.4125
2275.36017	44872.7125
2278.24061	44926.7125
2281.11922	44784.8125
2283.996	44671.9125
2286.87094	44621.1125
2289.74405	44585.1125
2292.61534	44501.6125
2295.4848	44434.3125
2298.35243	44449.8125
2301.21824	44346.7125
2304.08223	44307.7125
2306.94439	44274.4125
2309.80474	44364.1125
2312.66327	44285.6125
2315.51999	44200.1125
2318.37489	44157.8125
2321.22797	44054.0125
2324.07925	44037.0125
2326.92871	43925.4125
2329.77637	43812.3125
2332.62222	43779.8125
2335.46626	43740.3125
2338.3085	43681.3125
2341.14893	43618.9125
2343.98756	43551.8125
2346.8244	43580.4125
2349.65943	43526.4125
2352.49267	43477.5125
2355.32411	43536.6125
2358.15376	43499.5125
2360.98161	43464.5125
2363.80768	43397.9125
2366.63195	43363.5125
2369.45444	43317.7125
2372.27514	43279.0125
2375.09405	43271.1125
2377.91118	43216.3125
2380.72652	43028.3125
2383.54009	42984.4125
2386.35187	42892.7125
2389.16188	42765.6125
2391.97011	42708.9125
2394.77657	42643.9125
2397.58125	42566.1125
2400.38416	42464.5125
2403.18529	42421.3125
2405.98466	42410.3125
2408.78226	42343.4125
2411.57809	42250.4125
2414.37216	42228.9125
2417.16446	42219.2125
2419.955	42114.3125
2422.74378	42094.9125
2425.5308	42126.0125
2428.31606	42066.4125
2431.09956	42092.5125
2433.88131	41999.6125
2436.6613	41981.2125
2439.43954	41929.8125
2442.21603	41926.7125
2444.99077	41828.8125
2447.76377	41813.7125
2450.53501	41755.0125
2453.30451	41791.7125
2456.07226	41702.6125
2458.83827	41629.9125
2461.60254	41573.0125
2464.36507	41589.3125
2467.12586	41558.0125
2469.88492	41491.9125
2472.64224	41466.7125
2475.39782	41412.8125
2478.15167	41438.4125
2480.90379	41442.7125
2483.65417	41466.7125
2486.40283	41427.8125
2489.14976	41401.6125
2491.89497	41288.4125
2494.63845	41377.3125
2497.3802	41259.3125
2500.12024	41242.1125
2502.85855	41218.1125
2505.59514	41162.9125
2508.33002	41100.6125
2511.06318	41013.3125
2513.79462	40971.0125
2516.52435	40951.2125
2519.25237	40909.6125
2521.97867	40962.1125
2524.70327	40916.8125
2527.42616	40873.0125
2530.14734	40810.5125
2532.86681	40678.5125
2535.58458	40675.3125
2538.30065	40612.2125
2541.01501	40636.7125
2543.72768	40558.6125
2546.43864	40540.4125
2549.14791	40496.0125
2551.85548	40363.0125
2554.56136	40282.4125
2557.26554	40217.3125
2559.96803	40031.4125
2562.66883	40080.8125
2565.36794	40016.7125
2568.06536	39921.5125
2570.7611	39860.4125
2573.45514	39731.4125
2576.14751	39714.1125
2578.83819	39624.5125
2581.52719	39580.8125
2584.21451	39468.7125
2586.90015	39457.5125
2589.58411	39382.0125
2592.2664	39364.2125
2594.94701	39269.3125
2597.62594	39288.6125
2600.30321	39222.7125
2602.9788	39191.0125
2605.65273	39104.7125
2608.32498	39078.3125
2610.99557	39043.9125
2613.66449	39019.8125
2616.33175	38935.6125
2618.99734	38866.6125
2621.66128	38752.8125
2624.32355	38723.8125
2626.98416	38668.7125
2629.64311	38649.8125
2632.30041	38578.2125
2634.95605	38540.8125
2637.61004	38516.8125
2640.26238	38500.5125
2642.91306	38439.5125
2645.56209	38333.5125
2648.20948	38386.7125
2650.85521	38359.6125
2653.4993	38359.8125
2656.14175	38374.1125
2658.78255	38381.4125
2661.42171	38354.4125
2664.05923	38396.1125
2666.6951	38331.1125
2669.32934	38337.9125
2671.96194	38323.5125
2674.59291	38398.5125
2677.22224	38343.0125
2679.84993	38396.3125
2682.476	38333.4125
2685.10043	38255.3125
2687.72324	38274.8125
2690.34441	38265.0125
2692.96396	38218.8125
2695.58188	38310.9125
2698.19818	38278.0125
2700.81285	38178.1125
2703.4259	38172.8125
2706.03733	38306.2125
2708.64714	38209.5125
2711.25533	38254.3125
2713.86191	38249.6125
2716.46687	38259.6125
2719.07021	38270.4125
2721.67194	38254.8125
2724.27206	38213.4125
2726.87057	38253.9125
2729.46747	38236.8125
2732.06276	38194.4125
2734.65644	38130.5125
2737.24852	38241.9125
2739.83899	38157.8125
2742.42786	38177.5125
2745.01513	38116.3125
2747.60079	38077.1125
2750.18486	37960.7125
2752.76733	38015.6125
2755.3482	37888.6125
2757.92747	37856.9125
2760.50515	37742.6125
2763.08123	37762.7125
2765.65573	37736.5125
2768.22863	37731.0125
2770.79994	37648.3125
2773.36967	37657.6125
2775.9378	37614.3125
2778.50435	37584.0125
2781.06932	37468.3125
2783.6327	37413.3125
2786.1945	37419.2125
2788.75471	37369.5125
2791.31335	37278.0125
2793.87041	37185.1125
2796.42589	37113.0125
2798.97979	37095.3125
2801.53212	36960.6125
2804.08288	36917.0125
2806.63206	36805.9125
2809.17967	36763.4125
2811.72571	36666.2125
2814.27018	36512.3125
2816.81308	36368.3125
2819.35442	36305.5125
2821.89419	36282.5125
2824.43239	36262.4125
2826.96904	36238.1125
2829.50412	36186.9125
2832.03763	36062.9125
2834.56959	36028.9125
2837.1	35956.9125
2839.62884	35897.2125
2842.15613	35832.9125
2844.68186	35857.9125
2847.20604	35794.6125
2849.72867	35794.5125
2852.24974	35713.0125
2854.76927	35653.1125
2857.28724	35616.2125
2859.80367	35597.2125
2862.31855	35594.6125
2864.83189	35455.8125
2867.34368	35377.6125
2869.85393	35382.7125
2872.36264	35339.3125
2874.8698	35298.1125
2877.37543	35193.4125
2879.87952	35168.9125
2882.38207	35219.9125
2884.88308	35145.5125
2887.38256	35151.0125
2889.88051	35179.6125
2892.37692	35160.7125
2894.8718	35127.4125
2897.36515	35140.3125
2899.85698	35137.1125
2902.34727	35197.7125
2904.83604	35150.2125
2907.32328	35231.9125
2909.809	35160.5125
2912.29319	35181.6125
2914.77587	35197.6125
2917.25702	35175.0125
2919.73665	35180.8125
2922.21476	35100.0125
2924.69136	35061.5125
2927.16644	35052.1125
2929.64	35013.7125
2932.11205	34952.6125
2934.58258	34905.7125
2937.05161	34972.4125
2939.51912	34957.9125
2941.98513	34920.7125
2944.44962	34873.7125
2946.91261	34823.3125
2949.37409	34853.7125
2951.83407	34794.2125
2954.29254	34749.9125
2956.74951	34801.4125
2959.20498	34778.5125
2961.65895	34728.9125
2964.11142	34754.8125
2966.56239	34738.8125
2969.01186	34720.4125
2971.45984	34586.8125
2973.90632	34549.8125
2976.35131	34518.3125
2978.7948	34514.7125
2981.23681	34362.6125
2983.67732	34360.5125
2986.11635	34312.5125
2988.55388	34222.3125
2990.98993	34177.1125
2993.4245	34106.2125
2995.85758	34037.9125
2998.28917	33883.8125
3000.71928	33850.3125
3003.14791	33776.3125
3005.57506	33745.4125
3008.00073	33647.5125
3010.42493	33642.7125
3012.84764	33519.3125
3015.26888	33546.4125
3017.68865	33436.4125
3020.10694	33371.5125
3022.52376	33289.6125
