Data from AgNPs_FTO_APTES_UA_10uM_CRN_50uM_R6G_10uM_NaF_0.1M_Addition_RamanShift__30__17-10-24-850.txt Node

Date: Thu Feb 17 17:10:24 GMT 2022
User: TCL
Spectrometer: QEP01345
Trigger mode: 4
Integration Time (sec): 1.000000E1
Scans to average: 7
Electric dark correction enabled: true
Nonlinearity correction enabled: false
Boxcar width: 0
XAxis mode: Raman Shifts
Number of Pixels in Spectrum: 1044
>>>>>Begin Spectral Data<<<<<
46.04893	0.14286
50.45542	-0.42857
54.85868	0.28571
59.25871	-1.42857
63.6555	52
68.04907	53.85714
72.43941	63.85714
76.82654	64.42857
81.21044	65.14286
85.59113	67.57143
89.96862	71.85714
94.34289	71.85714
98.71396	79.28571
103.08183	76.14286
107.4465	80.85714
111.80798	75.57143
116.16626	79.85714
120.52136	81.14286
124.87327	85.42857
129.222	87.14286
133.56755	88.85714
137.90993	96.85714
142.24913	102
146.58517	107
150.91804	128.71429
155.24774	147.42857
159.57429	178.71429
163.89768	230.57143
168.21792	300.28571
172.53501	410.57143
176.84895	563
181.15975	778.85714
185.46741	1094.57143
189.77193	1515.57143
194.07331	2035.57143
198.37157	2643.71429
202.6667	3258.71429
206.9587	3890.28571
211.24758	4539.71429
215.53334	5245.85714
219.81599	6029.85714
224.09553	6946.71429
228.37195	7969.85714
232.64527	9074.71429
236.91549	10161.14286
241.18261	11095
245.44663	11843.85714
249.70755	12486.71429
253.96539	12934.14286
258.22014	13168.71429
262.4718	13368.42857
266.72039	13451.28571
270.96589	13369.85714
275.20832	13186.42857
279.44768	12829.85714
283.68397	12405.42857
287.91719	12173.14286
292.14735	12268
296.37445	12812.71429
300.59849	13768.85714
304.81948	14949
309.03742	15849.57143
313.25231	15964
317.46415	14956.71429
321.67296	13284.71429
325.87872	11885
330.08145	11194.57143
334.28114	11172.57143
338.47781	11511.42857
342.67145	12030.85714
346.86207	12827.42857
351.04966	14122.28571
355.23424	15555.57143
359.4158	16595.42857
363.59435	17026.85714
367.76989	17054.85714
371.94243	16896.28571
376.11196	16668
380.27849	16407.71429
384.44203	16035
388.60257	15518.85714
392.76012	15196
396.91468	15221.85714
401.06626	15694.71429
405.21485	16021.42857
409.36047	15474.14286
413.50311	14137.28571
417.64277	12828.42857
421.77947	12016.42857
425.9132	11648.57143
430.04396	11501.57143
434.17176	11594.28571
438.2966	11835
442.41849	12183.85714
446.53742	12697.57143
450.6534	13084.42857
454.76644	13296.57143
458.87653	13183.28571
462.98368	13004.14286
467.08789	12660.71429
471.18916	12244
475.2875	11750
479.38291	11395.28571
483.4754	11154.14286
487.56496	10956
491.6516	10883.42857
495.73531	10875.28571
499.81612	10941.28571
503.89401	11163.85714
507.96899	11529
512.04106	11940.42857
516.11023	12473.57143
520.1765	12796.42857
524.23987	12814.57143
528.30034	12452.28571
532.35792	12086.71429
536.41261	11678
540.46441	11219.14286
544.51333	10911
548.55936	10888.71429
552.60252	11154.42857
556.64279	11578.71429
560.6802	11747.57143
564.71473	12106.57143
568.7464	12967.28571
572.7752	13431.57143
576.80114	12537.28571
580.82422	11483
584.84444	10974.71429
588.86181	10890.14286
592.87633	10993.42857
596.888	11227.14286
600.89682	11911.14286
604.9028	14370.71429
608.90594	21222.28571
612.90624	30929.57143
616.90371	30016.71429
620.89834	18364.42857
624.89015	12724.85714
628.87913	11662.28571
632.86528	11847
636.84862	12251.14286
640.82913	12019
644.80683	11143.42857
648.78172	10521.42857
652.75379	10607.42857
656.72306	11381.85714
660.68952	12320.85714
664.65319	12083
668.61405	10959.71429
672.57211	10416.57143
676.52738	10402.71429
680.47986	10405.28571
684.42955	10271
688.37646	10202
692.32058	10183.42857
696.26192	10278.42857
700.20048	10513.71429
704.13626	10630.42857
708.06928	10510.57143
711.99952	10401.71429
715.927	10428.71429
719.85171	10530.28571
723.77365	10626.42857
727.69284	10544.14286
731.60928	10437.42857
735.52295	10415.42857
739.43388	10452.71429
743.34206	10507.42857
747.24749	10486.42857
751.15017	10541.71429
755.05012	10785
758.94733	11615.71429
762.8418	13688.71429
766.73354	17279.85714
770.62254	21028.14286
774.50882	23483.57143
778.39237	22937.85714
782.27321	19023
786.15132	14695.85714
790.02671	12201.42857
793.89938	11154.14286
797.76935	10735.28571
801.6366	10576.85714
805.50115	10501.42857
809.36299	10436.14286
813.22213	10409.28571
817.07857	10377.14286
820.93231	10343.14286
824.78336	10350.85714
828.63172	10457
832.47738	10493.85714
836.32036	10387.85714
840.16066	10263
843.99827	10191.71429
847.8332	10164.14286
851.66546	10166.28571
855.49504	10183.85714
859.32195	10161.57143
863.1462	10085.14286
866.96777	10095
870.78668	10093
874.60293	10156.14286
878.41652	10218
882.22745	10364.28571
886.03573	10473.42857
889.84136	10402.85714
893.64433	10303.42857
897.44466	10306.42857
901.24235	10322
905.0374	10207.42857
908.8298	10118.85714
912.61957	9981
916.40671	9971.57143
920.19121	10024.85714
923.97308	10134.42857
927.75233	10373.71429
931.52895	10682.85714
935.30295	10606.42857
939.07433	10189.85714
942.84309	9758.14286
946.60924	9457.85714
950.37278	9380.57143
954.13371	9312.42857
957.89203	9272.85714
961.64774	9236.57143
965.40086	9212
969.15137	9204.14286
972.89929	9201
976.64461	9181.71429
980.38733	9191.28571
984.12747	9219.71429
987.86502	9243.14286
991.59999	9302.71429
995.33237	9407.71429
999.06217	9563.42857
1002.78939	9830.28571
1006.51404	10075.85714
1010.23611	10333.57143
1013.95561	10529
1017.67255	10485.28571
1021.38692	10322.28571
1025.09872	10132.85714
1028.80796	10011.42857
1032.51465	10027.57143
1036.21877	10131.28571
1039.92035	10241.57143
1043.61937	10299.85714
1047.31584	10296.71429
1051.00976	10280.14286
1054.70114	10219.42857
1058.38998	10147.71429
1062.07627	10131
1065.76003	10113.57143
1069.44126	10128.85714
1073.11995	10250.71429
1076.79611	10542.57143
1080.46974	10946.71429
1084.14085	11529.14286
1087.80943	12094
1091.47549	12223.14286
1095.13903	11817.14286
1098.80005	11205.14286
1102.45857	10728.71429
1106.11456	10684.14286
1109.76805	10928.28571
1113.41903	11495.71429
1117.06751	12303
1120.71348	13388.28571
1124.35696	14572.14286
1127.99793	15358.28571
1131.63641	14865.28571
1135.2724	13544.14286
1138.90589	12399.57143
1142.5369	11654.57143
1146.16542	11183.85714
1149.79145	10907.85714
1153.415	10819.14286
1157.03607	10918.71429
1160.65467	11161
1164.27079	11663.57143
1167.88443	12521.57143
1171.49561	13907.42857
1175.10432	16358.42857
1178.71056	19780.57143
1182.31434	22226.71429
1185.91565	22609.85714
1189.51451	21364.28571
1193.11091	19339.57143
1196.70485	17259.28571
1200.29634	15828.85714
1203.88538	14826.57143
1207.47197	13520
1211.05612	12383
1214.63782	11679.57143
1218.21708	11390.71429
1221.79391	11303.57143
1225.36829	11310.42857
1228.94024	11289
1232.50976	11347.57143
1236.07685	11403
1239.6415	11556.42857
1243.20374	11706
1246.76355	11857
1250.32093	12015
1253.8759	12306.14286
1257.42845	12807.28571
1260.97859	13362.85714
1264.52631	14019.42857
1268.07163	14549.42857
1271.61453	15029.42857
1275.15503	15209.85714
1278.69312	15177.28571
1282.22882	15156
1285.76211	15581.14286
1289.29301	16255.71429
1292.82151	16963.85714
1296.34761	17683.14286
1299.87133	19021.42857
1303.39266	21387.42857
1306.9116	25210.85714
1310.42815	29250.57143
1313.94233	30708.28571
1317.45412	28650.28571
1320.96354	24894.28571
1324.47058	21222
1327.97525	18445.57143
1331.47754	16839.85714
1334.97747	16454.71429
1338.47502	16870.85714
1341.97022	18003.71429
1345.46305	19893
1348.95352	22592.71429
1352.44163	25994.14286
1355.92738	30710.71429
1359.41078	37476
1362.89183	42510
1366.37053	39705.71429
1369.84688	31654.42857
1373.32088	24608.42857
1376.79254	20101
1380.26186	17636.14286
1383.72883	16168
1387.19347	15015
1390.65578	13944.28571
1394.11575	13113.71429
1397.57339	12623.85714
1401.0287	12476
1404.48168	12463.71429
1407.93234	12592.28571
1411.38068	12862.28571
1414.82669	13129.42857
1418.27039	13216.42857
1421.71177	13157.85714
1425.15083	13038
1428.58758	13064.57143
1432.02203	13226.42857
1435.45416	13449.42857
1438.88399	13461.57143
1442.31151	13376.57143
1445.73673	13363.71429
1449.15965	13432.42857
1452.58027	13319.14286
1455.9986	13039.85714
1459.41463	12904.42857
1462.82837	13105
1466.23982	13476.85714
1469.64898	13851.57143
1473.05586	14149.71429
1476.46045	14386.85714
1479.86276	14784.28571
1483.26279	15373.42857
1486.66054	16103
1490.05602	17126.28571
1493.44922	18566.14286
1496.84016	20874.71429
1500.22882	24473.14286
1503.61521	29526.85714
1506.99934	35224.57143
1510.38121	39891.14286
1513.76081	40985.28571
1517.13816	37095.28571
1520.51324	30160.57143
1523.88607	23936.42857
1527.25665	19936.28571
1530.62498	17782.14286
1533.99105	16563.57143
1537.35488	15817.71429
1540.71647	15577
1544.07581	15611
1547.4329	15780
1550.78776	15945
1554.14038	16076.85714
1557.49077	16257.57143
1560.83892	16685
1564.18484	17479.71429
1567.52853	18548.57143
1570.86999	19416.85714
1574.20922	19896
1577.54624	19593.57143
1580.88103	17936.28571
1584.2136	15809.57143
1587.54395	14493.42857
1590.87208	14273.57143
1594.19801	15109.42857
1597.52172	16486.42857
1600.84321	17215.42857
1604.16251	16661
1607.47959	15533.85714
1610.79447	14316.28571
1614.10715	13080.85714
1617.41763	12136.85714
1620.7259	11587
1624.03199	11377.14286
1627.33587	11424.42857
1630.63757	11773
1633.93707	12400.57143
1637.23439	13480.42857
1640.52951	15285.42857
1643.82246	18165
1647.11321	21897
1650.40179	24767.14286
1653.68819	24100.71429
1656.97241	20158.85714
1660.25446	15883
1663.53433	13135
1666.81203	11570
1670.08756	10692.57143
1673.36092	10131.71429
1676.63211	9825.14286
1679.90115	9609.71429
1683.16801	9406.42857
1686.43272	9243.71429
1689.69527	9170.42857
1692.95567	9072
1696.2139	9035.57143
1699.46999	9045
1702.72392	9010.14286
1705.97571	8984.71429
1709.22535	8988.71429
1712.47284	9012.57143
1715.71819	9035.85714
1718.96139	9022
1722.20246	9004.57143
1725.44139	8941.57143
1728.67818	8857.42857
1731.91284	8758.42857
1735.14537	8674.14286
1738.37576	8630.71429
1741.60403	8565
1744.83017	8552.28571
1748.05418	8491.42857
1751.27607	8473
1754.49584	8436
1757.71349	8432.57143
1760.92903	8397.14286
1764.14244	8360.71429
1767.35375	8368
1770.56294	8324
1773.77002	8280.42857
1776.97499	8238
1780.17785	8208.42857
1783.37861	8161.85714
1786.57727	8145.14286
1789.77382	8142.57143
1792.96828	8122.14286
1796.16064	8105.42857
1799.3509	8106.57143
1802.53907	8059.14286
1805.72514	8044.85714
1808.90913	8027.57143
1812.09102	7989.14286
1815.27083	7939.85714
1818.44856	7966.57143
1821.6242	7934.42857
1824.79776	7931.28571
1827.96924	7904.42857
1831.13864	7873.14286
1834.30597	7872.85714
1837.47122	7842.85714
1840.6344	7832.57143
1843.7955	7827.28571
1846.95454	7817.85714
1850.11151	7820.85714
1853.26642	7799.57143
1856.41926	7787.42857
1859.57004	7791.71429
1862.71876	7807.71429
1865.86542	7804.14286
1869.01003	7805.28571
1872.15258	7789.71429
1875.29308	7803
1878.43152	7784.85714
1881.56792	7801.85714
1884.70227	7763.14286
1887.83457	7771.28571
1890.96482	7759.14286
1894.09304	7728.14286
1897.21921	7752.42857
1900.34335	7746.85714
1903.46544	7742.28571
1906.58551	7732.28571
1909.70353	7726.42857
1912.81953	7716
1915.93349	7722
1919.04543	7711.57143
1922.15534	7667.71429
1925.26322	7682.14286
1928.36908	7666.57143
1931.47292	7638.57143
1934.57473	7589.71429
1937.67453	7572.28571
1940.77232	7558
1943.86808	7508.42857
1946.96184	7490.14286
1950.05358	7480.57143
1953.14331	7445.85714
1956.23103	7461.14286
1959.31675	7444.57143
1962.40046	7421.42857
1965.48217	7384.71429
1968.56188	7379.28571
1971.63959	7391.71429
1974.7153	7354.14286
1977.78901	7344.85714
1980.86073	7331.85714
1983.93046	7269.28571
1986.99819	7251.85714
1990.06394	7217.85714
1993.1277	7185.57143
1996.18947	7151.28571
1999.24925	7151.71429
2002.30706	7116.28571
2005.36288	7092.42857
2008.41672	7059
2011.46859	7053.85714
2014.51848	7042.42857
2017.56639	6998.71429
2020.61233	6957.85714
2023.6563	6946.42857
2026.6983	6925.42857
2029.73833	6901.57143
2032.7764	6910.14286
2035.8125	6885.85714
2038.84664	6870.28571
2041.87881	6850.71429
2044.90903	6836.71429
2047.93729	6822.42857
2050.96359	6809.14286
2053.98794	6824.28571
2057.01034	6807.42857
2060.03078	6783.42857
2063.04927	6783
2066.06582	6774.14286
2069.08042	6783.28571
2072.09307	6755.71429
2075.10378	6754.28571
2078.11255	6739.71429
2081.11938	6736.85714
2084.12426	6736.85714
2087.12722	6757.85714
2090.12824	6744.42857
2093.12732	6730.71429
2096.12447	6743.14286
2099.11969	6725.14286
2102.11299	6752.14286
2105.10435	6753.57143
2108.09379	6739.42857
2111.08131	6754
2114.0669	6764.57143
2117.05057	6781.42857
2120.03233	6771.57143
2123.01216	6771.28571
2125.99008	6791.85714
2128.96609	6803.28571
2131.94018	6810
2134.91236	6789.14286
2137.88263	6801.85714
2140.851	6778.42857
2143.81746	6802.71429
2146.78201	6776.28571
2149.74466	6795.28571
2152.7054	6772.14286
2155.66425	6759.71429
2158.6212	6756.14286
2161.57625	6743
2164.52941	6754.57143
2167.48067	6709.71429
2170.43004	6705.28571
2173.37752	6721.71429
2176.32311	6719.57143
2179.26681	6748.14286
2182.20863	6721.71429
2185.14856	6718.42857
2188.08661	6735.28571
2191.02278	6751.71429
2193.95707	6732
2196.88948	6713.85714
2199.82001	6713.57143
2202.74867	6692.42857
2205.67545	6685.85714
2208.60037	6671.57143
2211.52341	6665.42857
2214.44458	6657.42857
2217.36388	6630
2220.28132	6624.28571
2223.1969	6606.71429
2226.11061	6576.14286
2229.02246	6554.42857
2231.93245	6547.42857
2234.84058	6532
2237.74686	6513
2240.65128	6533.28571
2243.55385	6536.71429
2246.45456	6534.57143
2249.35343	6551.28571
2252.25044	6537.42857
2255.14561	6526
2258.03893	6556.42857
2260.93041	6533.57143
2263.82004	6521.71429
2266.70783	6528.28571
2269.59378	6484.71429
2272.4779	6471.71429
2275.36017	6471.57143
2278.24061	6442.71429
2281.11922	6427.42857
2283.996	6424.42857
2286.87094	6406.85714
2289.74405	6387.85714
2292.61534	6362
2295.4848	6371.57143
2298.35243	6334.42857
2301.21824	6346.42857
2304.08223	6326
2306.94439	6341
2309.80474	6339.57143
2312.66327	6335.28571
2315.51999	6320
2318.37489	6328.71429
2321.22797	6298.57143
2324.07925	6296.57143
2326.92871	6281
2329.77637	6281.71429
2332.62222	6291.57143
2335.46626	6278.57143
2338.3085	6273.14286
2341.14893	6277.57143
2343.98756	6268.57143
2346.8244	6259.85714
2349.65943	6271
2352.49267	6299.71429
2355.32411	6286
2358.15376	6305.28571
2360.98161	6335.85714
2363.80768	6359.85714
2366.63195	6373
2369.45444	6369.14286
2372.27514	6359.28571
2375.09405	6354
2377.91118	6330.85714
2380.72652	6299.28571
2383.54009	6265.42857
2386.35187	6251.71429
2389.16188	6176.28571
2391.97011	6167
2394.77657	6160.57143
2397.58125	6128.57143
2400.38416	6127.42857
2403.18529	6096.28571
2405.98466	6073.85714
2408.78226	6055.57143
2411.57809	6043.28571
2414.37216	6053.57143
2417.16446	6017
2419.955	6042.71429
2422.74378	6047.14286
2425.5308	6038.42857
2428.31606	6018.14286
2431.09956	6047.71429
2433.88131	6020.85714
2436.6613	6038
2439.43954	6041.85714
2442.21603	6042.14286
2444.99077	6028.28571
2447.76377	6042
2450.53501	6049.71429
2453.30451	6047.42857
2456.07226	6050
2458.83827	6047
2461.60254	6031.42857
2464.36507	6020.57143
2467.12586	6017
2469.88492	5996.85714
2472.64224	6011
2475.39782	5990.57143
2478.15167	6018.85714
2480.90379	6058.71429
2483.65417	6066.42857
2486.40283	6103.42857
2489.14976	6120.42857
2491.89497	6140.57143
2494.63845	6125
2497.3802	6120.71429
2500.12024	6119.85714
2502.85855	6085.71429
2505.59514	6056.71429
2508.33002	6034.14286
2511.06318	5980.42857
2513.79462	5924.71429
2516.52435	5899
2519.25237	5876.71429
2521.97867	5849
2524.70327	5854.42857
2527.42616	5822.28571
2530.14734	5822.28571
2532.86681	5804.85714
2535.58458	5811.14286
2538.30065	5805.85714
2541.01501	5827.14286
2543.72768	5805.57143
2546.43864	5799
2549.14791	5808.71429
2551.85548	5826.42857
2554.56136	5808.71429
2557.26554	5807
2559.96803	5808.28571
2562.66883	5789.57143
2565.36794	5769.28571
2568.06536	5750.42857
2570.7611	5760.57143
2573.45514	5727
2576.14751	5718.28571
2578.83819	5701.57143
2581.52719	5683.28571
2584.21451	5681.71429
2586.90015	5675.42857
2589.58411	5637.28571
2592.2664	5651.14286
2594.94701	5641.85714
2597.62594	5654.28571
2600.30321	5635.42857
2602.9788	5640.57143
2605.65273	5623.85714
2608.32498	5638.42857
2610.99557	5614.28571
2613.66449	5611.42857
2616.33175	5629.28571
2618.99734	5608
2621.66128	5612.28571
2624.32355	5584.85714
2626.98416	5588
2629.64311	5564.14286
2632.30041	5567.57143
2634.95605	5532.85714
2637.61004	5555.85714
2640.26238	5519.57143
2642.91306	5509.42857
2645.56209	5509.42857
2648.20948	5523.57143
2650.85521	5497.57143
2653.4993	5494.71429
2656.14175	5504
2658.78255	5514.28571
2661.42171	5530.28571
2664.05923	5519.14286
2666.6951	5543.57143
2669.32934	5538.28571
2671.96194	5555.57143
2674.59291	5574.71429
2677.22224	5549
2679.84993	5554.28571
2682.476	5574.57143
2685.10043	5548.57143
2687.72324	5525
2690.34441	5554.28571
2692.96396	5546.42857
2695.58188	5534
2698.19818	5545.28571
2700.81285	5534.42857
2703.4259	5516.14286
2706.03733	5536
2708.64714	5530.71429
2711.25533	5554.57143
2713.86191	5556.28571
2716.46687	5562.28571
2719.07021	5556.57143
2721.67194	5580
2724.27206	5574.85714
2726.87057	5565.28571
2729.46747	5570.28571
2732.06276	5564.14286
2734.65644	5525
2737.24852	5533.14286
2739.83899	5497.71429
2742.42786	5528.71429
2745.01513	5486.57143
2747.60079	5494.28571
2750.18486	5469.85714
2752.76733	5470.14286
2755.3482	5473.14286
2757.92747	5456.85714
2760.50515	5451.28571
2763.08123	5437
2765.65573	5439.71429
2768.22863	5418.42857
2770.79994	5424.57143
2773.36967	5400.57143
2775.9378	5424
2778.50435	5397
2781.06932	5398.85714
2783.6327	5396.28571
2786.1945	5393.57143
2788.75471	5400.42857
2791.31335	5400.85714
2793.87041	5414.28571
2796.42589	5389.71429
2798.97979	5398.57143
2801.53212	5380.57143
2804.08288	5403.28571
2806.63206	5396.85714
2809.17967	5376.57143
2811.72571	5379.42857
2814.27018	5404.28571
2816.81308	5426.28571
2819.35442	5402
2821.89419	5400.42857
2824.43239	5402.57143
2826.96904	5437.28571
2829.50412	5427.57143
2832.03763	5419.85714
2834.56959	5437.71429
2837.1	5441.28571
2839.62884	5424.42857
2842.15613	5463.42857
2844.68186	5496.14286
2847.20604	5539.85714
2849.72867	5593.71429
2852.24974	5612.28571
2854.76927	5616.57143
2857.28724	5597.71429
2859.80367	5588.14286
2862.31855	5590.42857
2864.83189	5598.14286
2867.34368	5569.14286
2869.85393	5592.85714
2872.36264	5584.14286
2874.8698	5570.28571
2877.37543	5548.57143
2879.87952	5531
2882.38207	5535.14286
2884.88308	5523.42857
2887.38256	5502.57143
2889.88051	5497
2892.37692	5513.14286
2894.8718	5513.85714
2897.36515	5510
2899.85698	5494.57143
2902.34727	5534.71429
2904.83604	5513.42857
2907.32328	5510.57143
2909.809	5526.42857
2912.29319	5493.57143
2914.77587	5493.71429
2917.25702	5512.71429
2919.73665	5500.57143
2922.21476	5490.85714
2924.69136	5479.71429
2927.16644	5488.14286
2929.64	5452.85714
2932.11205	5449.85714
2934.58258	5415.28571
2937.05161	5434.28571
2939.51912	5408.57143
2941.98513	5383.14286
2944.44962	5349.85714
2946.91261	5323.28571
2949.37409	5294.71429
2951.83407	5270.57143
2954.29254	5288.42857
2956.74951	5282.57143
2959.20498	5260.85714
2961.65895	5236.71429
2964.11142	5223.42857
2966.56239	5254.71429
2969.01186	5220.28571
2971.45984	5199.28571
2973.90632	5207.71429
2976.35131	5195.42857
2978.7948	5166.71429
2981.23681	5163.28571
2983.67732	5167.57143
2986.11635	5128.57143
2988.55388	5135.42857
2990.98993	5117.85714
2993.4245	5110.85714
2995.85758	5080.28571
2998.28917	5085.28571
3000.71928	5076.85714
3003.14791	5071.28571
3005.57506	5061.71429
3008.00073	5055.85714
3010.42493	5065.42857
3012.84764	5045.28571
3015.26888	5047.28571
3017.68865	5054.14286
3020.10694	5031.71429
3022.52376	5033.85714
3024.9391	5022.57143
3027.35298	5002.28571
3029.76539	4986.42857
3032.17632	4986.85714
3034.5858	4965.57143
3036.9938	4972.42857
3039.40034	4970.85714
3041.80542	4965.42857
3044.20903	4943
3046.61118	4947.71429
3049.01187	4918.71429
3051.4111	4931
3053.80888	4919
3056.20519	4910.71429
3058.60005	4894.71429
3060.99345	4895
3063.3854	4873.71429
3065.7759	4854.14286
3068.16494	4857.85714
3070.55254	4840.28571
3072.93868	4838.42857
