Data from AgNPs_FTO_APTES_UA_20uM_CRN_10uM_R6G_10uM_NaF_0.1M_Addition_RamanShift__7__14-18-32-190.txt Node

Date: Thu Feb 17 14:18:32 GMT 2022
User: TCL
Spectrometer: QEP01345
Trigger mode: 4
Integration Time (sec): 7.000000E0
Scans to average: 10
Electric dark correction enabled: true
Nonlinearity correction enabled: false
Boxcar width: 0
XAxis mode: Raman Shifts
Number of Pixels in Spectrum: 1044
>>>>>Begin Spectral Data<<<<<
46.04893	-0.1
50.45542	-0.8
54.85868	-3.4
59.25871	-1.4
63.6555	124.4
68.04907	124.6
72.43941	131.9
76.82654	133.3
81.21044	138.6
85.59113	144.7
89.96862	149.3
94.34289	147.4
98.71396	154.1
103.08183	162.4
107.4465	164.7
111.80798	171.2
116.16626	176
120.52136	187.6
124.87327	195.1
129.222	207
133.56755	220.3
137.90993	235.5
142.24913	263.7
146.58517	298.3
150.91804	356
155.24774	426.3
159.57429	539
163.89768	694.1
168.21792	931.8
172.53501	1277.6
176.84895	1798.3
181.15975	2534
185.46741	3572.9
189.77193	4933.4
194.07331	6644.3
198.37157	8582.5
202.6667	10635.2
206.9587	12675.2
211.24758	14631.7
215.53334	16596.5
219.81599	18725.2
224.09553	20999.2
228.37195	23494
232.64527	26242.1
236.91549	29197
241.18261	32206
245.44663	35101.8
249.70755	37673.2
253.96539	39981.4
258.22014	41931.9
262.4718	43445.2
266.72039	44568.1
270.96589	45179.9
275.20832	45283.3
279.44768	45132.5
283.68397	44783.9
287.91719	44365.1
292.14735	44171.1
296.37445	44132.4
300.59849	44199.1
304.81948	44327.8
309.03742	44436.7
313.25231	44257.1
317.46415	43834
321.67296	43280.8
325.87872	42728.7
330.08145	42438.1
334.28114	42509.3
338.47781	42815.7
342.67145	43353.1
346.86207	44007.2
351.04966	44624.3
355.23424	45313.7
359.4158	45837.8
363.59435	46306.8
367.76989	46574.3
371.94243	46858
376.11196	47156.4
380.27849	47420.3
384.44203	47653.4
388.60257	48072.3
392.76012	48538.4
396.91468	49102
401.06626	49717.1
405.21485	50149.3
409.36047	50119.7
413.50311	49737.6
417.64277	49494.7
421.77947	49601.9
425.9132	49867.2
430.04396	50126.2
434.17176	50416.5
438.2966	50757.3
442.41849	51470.4
446.53742	52603.7
450.6534	53933.1
454.76644	54807.7
458.87653	55225.6
462.98368	55077.4
467.08789	54617.4
471.18916	54032.5
475.2875	53425.3
479.38291	53099.6
483.4754	52824.8
487.56496	52372.9
491.6516	51971.2
495.73531	51441.3
499.81612	51139.2
503.89401	51336.4
507.96899	51528.6
512.04106	51543.1
516.11023	51360.2
520.1765	51212.1
524.23987	51037.3
528.30034	50863.6
532.35792	50641.7
536.41261	50284
540.46441	49969.8
544.51333	49939.9
548.55936	50358.2
552.60252	51101.4
556.64279	52153.3
560.6802	52927.6
564.71473	53394.1
568.7464	54036.2
572.7752	55355.7
576.80114	56858.1
580.82422	58296.1
584.84444	59717.6
588.86181	61524.8
592.87633	63303.9
596.888	63229.6
600.89682	61237.9
604.9028	60531.9
608.90594	62604.3
612.90624	64761.9
616.90371	61630.5
620.89834	55239.5
624.89015	52628.9
628.87913	52344.4
632.86528	52701.3
636.84862	52722.4
640.82913	52165.7
644.80683	51335.9
648.78172	50702.7
652.75379	50656.9
656.72306	51162.6
660.68952	51801.6
664.65319	51657.9
668.61405	51086.7
672.57211	51115.8
676.52738	51353.1
680.47986	51409.1
684.42955	51166.1
688.37646	51065.3
692.32058	51349.8
696.26192	51892.8
700.20048	52478.4
704.13626	52856.9
708.06928	53050.9
711.99952	52920.8
715.927	52849.2
719.85171	52869.3
723.77365	52718.8
727.69284	52272
731.60928	51694.7
735.52295	51504.4
739.43388	51544.1
743.34206	51832.1
747.24749	52020.8
751.15017	52374.2
755.05012	53106.3
758.94733	54190.6
762.8418	55981.3
766.73354	58558.9
770.62254	61021.5
774.50882	61300.9
778.39237	59370.2
782.27321	56639.8
786.15132	54447.5
790.02671	53009.1
793.89938	52311.5
797.76935	51883
801.6366	51742.2
805.50115	51654
809.36299	51584.8
813.22213	51388.6
817.07857	51247.2
820.93231	51196.6
824.78336	51138.7
828.63172	51030
832.47738	50979.2
836.32036	50987.1
840.16066	51051.2
843.99827	51115.5
847.8332	51167.1
851.66546	51336.5
855.49504	51373.7
859.32195	51441
863.1462	51345.4
866.96777	51368.7
870.78668	51392.6
874.60293	51450.2
878.41652	51457.6
882.22745	51585.9
886.03573	51645.3
889.84136	51696.6
893.64433	51545.2
897.44466	51328.7
901.24235	51217.6
905.0374	51184.3
908.8298	51142.9
912.61957	51254
916.40671	51586
920.19121	52102.3
923.97308	52569.2
927.75233	52512.1
931.52895	51977.6
935.30295	51498
939.07433	50905.7
942.84309	50519.2
946.60924	50328.7
950.37278	50316.2
954.13371	50365.9
957.89203	50476.5
961.64774	50407.1
965.40086	50393.4
969.15137	50363
972.89929	50208.8
976.64461	50141.6
980.38733	50126.8
984.12747	50238
987.86502	50455.8
991.59999	50769.1
995.33237	51131.3
999.06217	51690.8
1002.78939	52509.1
1006.51404	53371.3
1010.23611	54158.7
1013.95561	54698
1017.67255	54789.7
1021.38692	54384.6
1025.09872	53786.7
1028.80796	53223.2
1032.51465	53129.5
1036.21877	53249.4
1039.92035	53363.3
1043.61937	53462.2
1047.31584	53353.6
1051.00976	53277
1054.70114	53410.7
1058.38998	53674.3
1062.07627	54124.6
1065.76003	54680.6
1069.44126	55318.9
1073.11995	56087.7
1076.79611	56698
1080.46974	57046
1084.14085	57305.4
1087.80943	57755.4
1091.47549	58042.4
1095.13903	58158.2
1098.80005	57683.2
1102.45857	56850.9
1106.11456	56140.5
1109.76805	55692.9
1113.41903	55662.2
1117.06751	55795.3
1120.71348	56152.5
1124.35696	56552.9
1127.99793	56821.3
1131.63641	57017.5
1135.2724	56917.4
1138.90589	56822.7
1142.5369	56999.4
1146.16542	57290.6
1149.79145	57712.1
1153.415	58109.1
1157.03607	58602.5
1160.65467	59549.6
1164.27079	61259.5
1167.88443	63338.7
1171.49561	65755.2
1175.10432	68661.3
1178.71056	72355
1182.31434	75723.6
1185.91565	77491.8
1189.51451	77291.9
1193.11091	76252.2
1196.70485	74495.2
1200.29634	72753.4
1203.88538	71387.4
1207.47197	70786.7
1211.05612	70200
1214.63782	69239.8
1218.21708	67980.8
1221.79391	66695.7
1225.36829	65752.1
1228.94024	65208.3
1232.50976	64448.6
1236.07685	63689
1239.6415	63164.2
1243.20374	63111.8
1246.76355	63530.8
1250.32093	64296.6
1253.8759	65238.2
1257.42845	66521.5
1260.97859	67971.5
1264.52631	69350.1
1268.07163	70866.2
1271.61453	72235.7
1275.15503	73564.7
1278.69312	75018.3
1282.22882	76558.9
1285.76211	78436.1
1289.29301	80869.1
1292.82151	83658.6
1296.34761	87066.7
1299.87133	91003.3
1303.39266	95001.9
1306.9116	98563.8
1310.42815	101388.9
1313.94233	102731.7
1317.45412	102291.9
1320.96354	100875.2
1324.47058	99648.6
1327.97525	98674.8
1331.47754	97776.7
1334.97747	97045.3
1338.47502	96666.5
1341.97022	96370.7
1345.46305	96094.3
1348.95352	95746.2
1352.44163	95512.5
1355.92738	96222.7
1359.41078	98117.5
1362.89183	99878.1
1366.37053	98429.1
1369.84688	92691.7
1373.32088	85356.2
1376.79254	80152.2
1380.26186	78239.8
1383.72883	78330.3
1387.19347	78685.2
1390.65578	78280.3
1394.11575	77799.7
1397.57339	78057
1401.0287	78544.5
1404.48168	78912.5
1407.93234	78501.7
1411.38068	77487.8
1414.82669	75706.6
1418.27039	73530.4
1421.71177	71446.4
1425.15083	69795.3
1428.58758	69078.3
1432.02203	69624.4
1435.45416	70944
1438.88399	72547.3
1442.31151	73838
1445.73673	74477
1449.15965	74842.2
1452.58027	74993.1
1455.9986	75029.3
1459.41463	75260.2
1462.82837	76155.5
1466.23982	77179.1
1469.64898	78307.9
1473.05586	79110.4
1476.46045	79410.1
1479.86276	79098.1
1483.26279	78582.3
1486.66054	78160.3
1490.05602	78433.2
1493.44922	79186.8
1496.84016	79960.1
1500.22882	81146.1
1503.61521	83009.8
1506.99934	84895.9
1510.38121	86316.3
1513.76081	86199.6
1517.13816	84806.4
1520.51324	83006.7
1523.88607	82021.2
1527.25665	82004.2
1530.62498	82294.6
1533.99105	82287.5
1537.35488	81451.4
1540.71647	79991.1
1544.07581	78286.7
1547.4329	76585.5
1550.78776	75111.8
1554.14038	74095.2
1557.49077	73432.9
1560.83892	72986.9
1564.18484	72781.7
1567.52853	72892.3
1570.86999	73495.4
1574.20922	74532.1
1577.54624	75224.1
1580.88103	75383.1
1584.2136	75688
1587.54395	77309
1590.87208	80090.7
1594.19801	83692
1597.52172	87161.7
1600.84321	88059.5
1604.16251	85164.2
1607.47959	80384.4
1610.79447	75282.2
1614.10715	70619.1
1617.41763	66726.3
1620.7259	63991.5
1624.03199	62489.5
1627.33587	62303.9
1630.63757	63487.8
1633.93707	66410.3
1637.23439	71467.5
1640.52951	78920.9
1643.82246	87578
1647.11321	94392.7
1650.40179	95112.2
1653.68819	89311
1656.97241	79771.4
1660.25446	70555.2
1663.53433	63795.8
1666.81203	59412.2
1670.08756	56686.5
1673.36092	54956.1
1676.63211	53784.1
1679.90115	52883
1683.16801	52216.7
1686.43272	51794.3
1689.69527	51500.7
1692.95567	51252.3
1696.2139	51093.5
1699.46999	50925.6
1702.72392	50812.4
1705.97571	50722.6
1709.22535	50635.6
1712.47284	50611.9
1715.71819	50652
1718.96139	50582.2
1722.20246	50401.9
1725.44139	50241.1
1728.67818	50087.8
1731.91284	49778.9
1735.14537	49671.7
1738.37576	49458.9
1741.60403	49375.6
1744.83017	49094.4
1748.05418	49004.7
1751.27607	48969.1
1754.49584	48972.8
1757.71349	48956.7
1760.92903	48975
1764.14244	48877.8
1767.35375	48846.1
1770.56294	48721.8
1773.77002	48722
1776.97499	48708.5
1780.17785	48642.3
1783.37861	48519.4
1786.57727	48418.3
1789.77382	48386.3
1792.96828	48381
1796.16064	48252.4
1799.3509	48247.3
1802.53907	48186.6
1805.72514	48011.4
1808.90913	47887.8
1812.09102	47843.1
1815.27083	47820.9
1818.44856	47702.7
1821.6242	47683
1824.79776	47608.3
1827.96924	47594.2
1831.13864	47576.6
1834.30597	47586.8
1837.47122	47494.3
1840.6344	47469.1
1843.7955	47440.2
1846.95454	47455.9
1850.11151	47424.9
1853.26642	47395.2
1856.41926	47435.3
1859.57004	47381.5
1862.71876	47296.5
1865.86542	47234.1
1869.01003	47236.1
1872.15258	47109.4
1875.29308	47149.2
1878.43152	47004.5
1881.56792	47070.4
1884.70227	47070.8
1887.83457	47071.7
1890.96482	47041
1894.09304	46873.4
1897.21921	46902.7
1900.34335	46807.6
1903.46544	46713
1906.58551	46713.3
1909.70353	46693
1912.81953	46632.6
1915.93349	46574.3
1919.04543	46512.8
1922.15534	46442.8
1925.26322	46352.1
1928.36908	46274.6
1931.47292	46238.9
1934.57473	46179.4
1937.67453	46020.8
1940.77232	45982.7
1943.86808	45837.5
1946.96184	45768.1
1950.05358	45615.9
1953.14331	45529.9
1956.23103	45399.1
1959.31675	45273.2
1962.40046	45201.9
1965.48217	44981.7
1968.56188	44924.9
1971.63959	44782.7
1974.7153	44605.7
1977.78901	44564.5
1980.86073	44412.4
1983.93046	44369.8
1986.99819	44174.5
1990.06394	44061.3
1993.1277	43958.5
1996.18947	43900.9
1999.24925	43735.2
2002.30706	43660.9
2005.36288	43541
2008.41672	43400.3
2011.46859	43320.6
2014.51848	43172.7
2017.56639	43104.4
2020.61233	42973.7
2023.6563	42870.6
2026.6983	42773
2029.73833	42617.8
2032.7764	42574.7
2035.8125	42513.1
2038.84664	42407.1
2041.87881	42381.9
2044.90903	42355.7
2047.93729	42322.2
2050.96359	42248.4
2053.98794	42232.7
2057.01034	42198
2060.03078	42142.9
2063.04927	42095.9
2066.06582	42139.4
2069.08042	42081.6
2072.09307	42015
2075.10378	41955.9
2078.11255	41947.8
2081.11938	42026.1
2084.12426	41961.1
2087.12722	41995.7
2090.12824	41985.9
2093.12732	42006.8
2096.12447	41990.5
2099.11969	41959.2
2102.11299	41978.8
2105.10435	42012.3
2108.09379	42053.4
2111.08131	42093.8
2114.0669	42044.9
2117.05057	42120.8
2120.03233	42196.7
2123.01216	42257.2
2125.99008	42320
2128.96609	42337.2
2131.94018	42320.6
2134.91236	42354.1
2137.88263	42430.2
2140.851	42425.6
2143.81746	42472
2146.78201	42560.3
2149.74466	42535.1
2152.7054	42505.9
2155.66425	42497.8
2158.6212	42518.8
2161.57625	42462.6
2164.52941	42500.5
2167.48067	42472.2
2170.43004	42445.3
2173.37752	42391.9
2176.32311	42427.9
2179.26681	42492.4
2182.20863	42418.7
2185.14856	42540.4
2188.08661	42504.7
2191.02278	42500.4
2193.95707	42428.6
2196.88948	42412.6
2199.82001	42389.4
2202.74867	42272.3
2205.67545	42268.5
2208.60037	42176.2
2211.52341	42189.8
2214.44458	42172.4
2217.36388	42116.6
2220.28132	42014
2223.1969	41882.4
2226.11061	41841.9
2229.02246	41708.4
2231.93245	41702.8
2234.84058	41671
2237.74686	41564.9
2240.65128	41575.8
2243.55385	41486.5
2246.45456	41524.7
2249.35343	41491.7
2252.25044	41429
2255.14561	41369.6
2258.03893	41283.6
2260.93041	41220.7
2263.82004	41120.4
2266.70783	41086.9
2269.59378	40940.4
2272.4779	40894.3
2275.36017	40833.6
2278.24061	40806.7
2281.11922	40708.1
2283.996	40602.8
2286.87094	40595.1
2289.74405	40547.6
2292.61534	40474.5
2295.4848	40416.8
2298.35243	40410.9
2301.21824	40379
2304.08223	40388
2306.94439	40368.1
2309.80474	40367.1
2312.66327	40429.1
2315.51999	40332.2
2318.37489	40277.1
2321.22797	40219.8
2324.07925	40254.8
2326.92871	40091.1
2329.77637	40055.5
2332.62222	39970.2
2335.46626	39966.1
2338.3085	39942.9
2341.14893	39894.8
2343.98756	39865.2
2346.8244	39856.7
2349.65943	39825.3
2352.49267	39850
2355.32411	39825.8
2358.15376	39830.4
2360.98161	39831.5
2363.80768	39799.5
2366.63195	39749.3
2369.45444	39753.3
2372.27514	39663.1
2375.09405	39666.7
2377.91118	39629.9
2380.72652	39526.9
2383.54009	39428.3
2386.35187	39388.9
2389.16188	39231.9
2391.97011	39149.1
2394.77657	39114.9
2397.58125	39111.3
2400.38416	39046.1
2403.18529	38973.6
2405.98466	38924.9
2408.78226	38856.5
2411.57809	38853.3
2414.37216	38823.2
2417.16446	38859.7
2419.955	38739
2422.74378	38759.6
2425.5308	38673.4
2428.31606	38719.2
2431.09956	38701.4
2433.88131	38612
2436.6613	38649.9
2439.43954	38666.8
2442.21603	38566.9
2444.99077	38548.8
2447.76377	38531.5
2450.53501	38466.8
2453.30451	38479.7
2456.07226	38418.7
2458.83827	38393.9
2461.60254	38375.5
2464.36507	38375.3
2467.12586	38360.9
2469.88492	38365.6
2472.64224	38335.5
2475.39782	38329.5
2478.15167	38402.2
2480.90379	38352
2483.65417	38381.1
2486.40283	38322.5
2489.14976	38277
2491.89497	38302
2494.63845	38312.2
2497.3802	38285
2500.12024	38251.7
2502.85855	38228.6
2505.59514	38220.8
2508.33002	38172.7
2511.06318	38127.9
2513.79462	38069
2516.52435	38055.8
2519.25237	38000.3
2521.97867	38052.2
2524.70327	38059.5
2527.42616	38004.9
2530.14734	37962.1
2532.86681	37920.6
2535.58458	37882.1
2538.30065	37840.4
2541.01501	37794.7
2543.72768	37821.6
2546.43864	37811.4
2549.14791	37713.5
2551.85548	37652.7
2554.56136	37539.4
2557.26554	37463.6
2559.96803	37420.1
2562.66883	37426.9
2565.36794	37383
2568.06536	37344.2
2570.7611	37232.1
2573.45514	37240.9
2576.14751	37203.7
2578.83819	37139
2581.52719	37141.8
2584.21451	37052.9
2586.90015	37087.5
2589.58411	36996.2
2592.2664	36952
2594.94701	36902.4
2597.62594	36867.5
2600.30321	36831.7
2602.9788	36825.3
2605.65273	36804.2
2608.32498	36829.6
2610.99557	36770.5
2613.66449	36766.2
2616.33175	36713.9
2618.99734	36705.4
2621.66128	36607.5
2624.32355	36538.4
2626.98416	36528.4
2629.64311	36473.5
2632.30041	36503.7
2634.95605	36429.6
2637.61004	36427.7
2640.26238	36385.8
2642.91306	36356.2
2645.56209	36281.9
2648.20948	36283
2650.85521	36318.1
2653.4993	36293
2656.14175	36317.7
2658.78255	36409.4
2661.42171	36355
2664.05923	36429.1
2666.6951	36366.1
2669.32934	36404.9
2671.96194	36324.9
2674.59291	36428.1
2677.22224	36425.7
2679.84993	36405.8
2682.476	36363.7
2685.10043	36356.3
2687.72324	36371
2690.34441	36374.5
2692.96396	36313.1
2695.58188	36402.4
2698.19818	36283.7
2700.81285	36266.4
2703.4259	36254.6
2706.03733	36352.3
2708.64714	36401.2
2711.25533	36343.6
2713.86191	36406
2716.46687	36459.9
2719.07021	36434.1
2721.67194	36422.6
2724.27206	36394.9
2726.87057	36439.1
2729.46747	36410.9
2732.06276	36397.2
2734.65644	36398.2
2737.24852	36472.3
2739.83899	36406.4
2742.42786	36504.7
2745.01513	36436.8
2747.60079	36403.2
2750.18486	36323.5
2752.76733	36346
2755.3482	36258.6
2757.92747	36225.8
2760.50515	36168.4
2763.08123	36159.2
2765.65573	36128.1
2768.22863	36123.5
2770.79994	36086.3
2773.36967	36138.8
2775.9378	36128.2
2778.50435	36093.9
2781.06932	36025.6
2783.6327	36048.1
2786.1945	36005.7
2788.75471	35918.7
2791.31335	35853.5
2793.87041	35816.5
2796.42589	35750.6
2798.97979	35696.8
2801.53212	35628.5
2804.08288	35544.4
2806.63206	35479.5
2809.17967	35396.1
2811.72571	35276.6
2814.27018	35129.7
2816.81308	35047.5
2819.35442	35035.1
2821.89419	34924
2824.43239	34964.3
2826.96904	34930.7
2829.50412	34934.9
2832.03763	34902.5
2834.56959	34806.2
2837.1	34778.5
2839.62884	34730.1
2842.15613	34621.8
2844.68186	34668.7
2847.20604	34600.4
2849.72867	34603.3
2852.24974	34569.4
2854.76927	34467.2
2857.28724	34508.9
2859.80367	34474.1
2862.31855	34454.1
2864.83189	34359.4
2867.34368	34294.4
2869.85393	34280.3
2872.36264	34269.5
2874.8698	34252.9
2877.37543	34176.9
2879.87952	34181.3
2882.38207	34194.7
2884.88308	34142.5
2887.38256	34156.9
2889.88051	34156.2
2892.37692	34127.7
2894.8718	34143.6
2897.36515	34251.7
2899.85698	34127.3
2902.34727	34261.9
2904.83604	34198.9
2907.32328	34196.1
2909.809	34275.5
2912.29319	34288.1
2914.77587	34260.6
2917.25702	34253.8
2919.73665	34226.8
2922.21476	34248.8
2924.69136	34196.8
2927.16644	34159.1
2929.64	34109.6
2932.11205	34076.1
2934.58258	34006.5
2937.05161	34078.3
2939.51912	34077.8
2941.98513	34066.1
2944.44962	34049.8
2946.91261	33978.9
2949.37409	34068
2951.83407	33999.9
2954.29254	33965.4
2956.74951	33926.9
2959.20498	33916.1
2961.65895	33939.2
2964.11142	33946.3
2966.56239	33889.2
2969.01186	33873.6
2971.45984	33799.6
2973.90632	33777.4
2976.35131	33715.2
2978.7948	33665.2
2981.23681	33603.2
2983.67732	33544.2
2986.11635	33511
2988.55388	33451
2990.98993	33368.3
2993.4245	33331.4
2995.85758	33300
2998.28917	33197.9
3000.71928	33143
3003.14791	33035.8
3005.57506	33005.6
3008.00073	32909
3010.42493	32886.7
3012.84764	32789.3
3015.26888	32746.4
3017.68865	32731.7
3020.10694	32700.3
3022.52376	32618.2
3024.9391	32587.4
3027.35298	32595.5
3029.76539	32537.6
3032.17632	32472.8
3034.5858	32455.8
3036.9938	32393.6
3039.40034	32378.7
3041.80542	32333.2
3044.20903	32274.1
3046.61118	32253.7
3049.01187	32149.1
3051.4111	32076
3053.80888	32036.9
3056.20519	31977.6
3058.60005	31895.8
3060.99345	31883.1
3063.3854	31813.8
3065.7759	31668.2
3068.16494	31596.7
3070.55254	31474.8
3072.93868	31440.1
3075.32338	31312.6
3077.70662	31277.1
3080.08842	31158.8
3082.46878	31136.2
3084.84769	31087.6
3087.22515	31060.9
3089.60118	31030.1
3091.97576	30980.9
3094.3489	30943.6
3096.72061	30958.2
3099.09087	30970.1
3101.4597	30940.1
3103.82709	30940.7
3106.19305	30881.5
3108.55757	30908.8
3110.92066	30812.6
3113.28232	30820.1
3115.64255	30703.1
3118.00134	30569.7
3120.35871	30523
3122.71466	30428.6
3125.06917	30395.9
3127.42226	30340.7
3129.77393	30323.9
3132.12417	30298.7
3134.47299	30266.4
3136.82039	30252.6
3139.16636	30250
3141.51092	30208.3
3143.85406	30161
3146.19579	30185.7
3148.53609	30213.7
3150.87499	30222.6
3153.21246	30176.8
3155.54853	30193.2
3157.88318	30208.8
3160.21642	30230.1
3162.54826	30147.2
3164.87868	30138.8
3167.2077	30060.9
3169.5353	30059.9
3171.86151	30030.1
3174.18631	29996.4
3176.5097	29998
3178.83169	29902.3
3181.15228	29891.3
3183.47147	29822.5
3185.78926	29796
3188.10565	29751
3190.42065	29759.6
3192.73424	29672
3195.04645	29631.3
3197.35725	29564.4
3199.66667	29519.7
3201.97469	29556.4
3204.28132	29470.7
3206.58656	29522.3
3208.8904	29503.5
3211.19287	29511
3213.49394	29482.9
3215.79363	29500.6
3218.09193	29530.2
3220.38884	29573.5
3222.68438	29549.1
3224.97853	29447.7
3227.2713	29438.7
3229.56269	29378.8
3231.8527	29397.1
3234.14133	29325.6
3236.42858	29275.3
3238.71446	29221.7
3240.99896	29146.6
3243.28209	29136.4
3245.56384	29103.2
3247.84423	29076.4
3250.12324	29019.9
3252.40088	29039
3254.67715	29016.1
3256.95205	28976.4
3259.22558	28959.4
3261.49775	28874.8
3263.76855	28860.8
3266.03799	28774.6
3268.30606	28724.3
3270.57277	28668
3272.83812	28582.6
3275.10211	28538
3277.36474	28533.7
3279.62601	28528.1
3281.88593	28410.3
3284.14448	28475.7
3286.40168	28421.5
3288.65753	28391.5
3290.91202	28374.9
3293.16516	28316.8
3295.41695	28290
3297.66738	28142
3299.91647	27963.2
3302.16421	27839
3304.4106	27634.9
3306.65564	27464.7
3308.89933	27257.7
3311.14169	27082.1
3313.38269	26922.1
3315.62236	26751.5
3317.86068	26550
3320.09766	26239.4
3322.3333	26124.6
3324.5676	26018.7
3326.80056	25606
3329.03219	25455.7
3331.26248	6.4
3333.49143	0.8
3335.71905	-1.4
