Data from AgNPs_FTO_APTES_UA_20uM_CRN_2uM_R6G_10uM_NaF_0.1M_Addition_RamanShift__1__12-41-42-063.txt Node

Date: Thu Feb 17 12:41:42 GMT 2022
User: TCL
Spectrometer: QEP01345
Trigger mode: 4
Integration Time (sec): 7.000000E0
Scans to average: 10
Electric dark correction enabled: true
Nonlinearity correction enabled: false
Boxcar width: 0
XAxis mode: Raman Shifts
Number of Pixels in Spectrum: 1044
>>>>>Begin Spectral Data<<<<<
46.04893	0.125
50.45542	-1.775
54.85868	-3.075
59.25871	-0.575
63.6555	125.225
68.04907	123.825
72.43941	129.925
76.82654	131.925
81.21044	139.525
85.59113	139.525
89.96862	145.125
94.34289	151.625
98.71396	151.625
103.08183	157.025
107.4465	167.325
111.80798	164.225
116.16626	175.125
120.52136	181.825
124.87327	187.825
129.222	203.225
133.56755	215.125
137.90993	227.725
142.24913	255.425
146.58517	295.725
150.91804	348.625
155.24774	420.525
159.57429	523.225
163.89768	676.625
168.21792	909.125
172.53501	1252.025
176.84895	1749.725
181.15975	2476.025
185.46741	3494.025
189.77193	4818.425
194.07331	6485.325
198.37157	8377.825
202.6667	10335.925
206.9587	12307.725
211.24758	14230.025
215.53334	16167.825
219.81599	18219.625
224.09553	20500.825
228.37195	23056.825
232.64527	25788.725
236.91549	28631.225
241.18261	31572.025
245.44663	34296.225
249.70755	36756.025
253.96539	38849.925
258.22014	40636.725
262.4718	42139.725
266.72039	43157.425
270.96589	43782.325
275.20832	43798.125
279.44768	43466.125
283.68397	42999.125
287.91719	42544.925
292.14735	42233.725
296.37445	42135.925
300.59849	42324.425
304.81948	42666.825
309.03742	42875.225
313.25231	42833.425
317.46415	42373.625
321.67296	41680.525
325.87872	41102.825
330.08145	40876.025
334.28114	40898.325
338.47781	41227.425
342.67145	41735.225
346.86207	42441.625
351.04966	43278.325
355.23424	44214.225
359.4158	44865.425
363.59435	45398.425
367.76989	45751.625
371.94243	46026.425
376.11196	46325.925
380.27849	46569.925
384.44203	46831.925
388.60257	47123.125
392.76012	47523.025
396.91468	47994.625
401.06626	48617.325
405.21485	49047.825
409.36047	48988.125
413.50311	48443.925
417.64277	48125.325
421.77947	48139.925
425.9132	48264.625
430.04396	48528.825
434.17176	48801.125
438.2966	49365.025
442.41849	50368.825
446.53742	51804.425
450.6534	53403.025
454.76644	54415.925
458.87653	54668.425
462.98368	54132.225
467.08789	53313.925
471.18916	52437.825
475.2875	51527.425
479.38291	50858.625
483.4754	50531.125
487.56496	50093.025
491.6516	49603.325
495.73531	49121.625
499.81612	48822.625
503.89401	49074.025
507.96899	49236.925
512.04106	49287.125
516.11023	49077.225
520.1765	48921.525
524.23987	48844.725
528.30034	48757.225
532.35792	48555.725
536.41261	48047.325
540.46441	47571.725
544.51333	47437.125
548.55936	47683.525
552.60252	48525.525
556.64279	49778.725
560.6802	50691.325
564.71473	51223.625
568.7464	52039.225
572.7752	53300.525
576.80114	54412.725
580.82422	55486.625
584.84444	57176.825
588.86181	59910.025
592.87633	62606.325
596.888	62934.825
600.89682	60348.525
604.9028	59144.225
608.90594	62257.925
612.90624	66220.125
616.90371	62863.825
620.89834	54302.225
624.89015	50507.325
628.87913	49968.925
632.86528	50129.125
636.84862	50025.725
640.82913	49266.825
644.80683	48289.325
648.78172	47741.725
652.75379	47872.025
656.72306	48524.125
660.68952	49358.725
664.65319	49091.925
668.61405	48253.425
672.57211	48155.325
676.52738	48398.725
680.47986	48381.325
684.42955	48066.025
688.37646	47936.825
692.32058	48253.925
696.26192	48977.525
700.20048	49698.825
704.13626	50120.825
708.06928	50088.525
711.99952	49925.925
715.927	49925.125
719.85171	50174.725
723.77365	50063.825
727.69284	49573.125
731.60928	48998.025
735.52295	48887.925
739.43388	48907.325
743.34206	49179.925
747.24749	49484.925
751.15017	49777.025
755.05012	50444.125
758.94733	51510.325
762.8418	53571.025
766.73354	56654.725
770.62254	59577.925
774.50882	60235.125
778.39237	58141.325
782.27321	54982.325
786.15132	52181.725
790.02671	50499.325
793.89938	49621.825
797.76935	49258.325
801.6366	49132.925
805.50115	48943.225
809.36299	48832.325
813.22213	48616.725
817.07857	48469.425
820.93231	48384.325
824.78336	48262.725
828.63172	48235.725
832.47738	48229.925
836.32036	48319.625
840.16066	48420.225
843.99827	48559.225
847.8332	48559.425
851.66546	48532.525
855.49504	48591.625
859.32195	48693.425
863.1462	48613.925
866.96777	48560.625
870.78668	48481.925
874.60293	48568.725
878.41652	48606.425
882.22745	48779.425
886.03573	48893.525
889.84136	48877.725
893.64433	48661.225
897.44466	48484.725
901.24235	48318.225
905.0374	48240.925
908.8298	48217.525
912.61957	48347.025
916.40671	48672.525
920.19121	49168.225
923.97308	49658.725
927.75233	49774.025
931.52895	49528.325
935.30295	48955.825
939.07433	48294.825
942.84309	47857.625
946.60924	47699.425
950.37278	47660.725
954.13371	47750.425
957.89203	47635.325
961.64774	47587.125
965.40086	47586.225
969.15137	47586.025
972.89929	47431.325
976.64461	47484.325
980.38733	47521.825
984.12747	47747.925
987.86502	48087.125
991.59999	48476.725
995.33237	49077.325
999.06217	49826.325
1002.78939	50940.425
1006.51404	51942.625
1010.23611	52759.525
1013.95561	53309.025
1017.67255	53358.325
1021.38692	52804.025
1025.09872	51912.025
1028.80796	51394.825
1032.51465	51643.425
1036.21877	52141.325
1039.92035	52262.225
1043.61937	52133.425
1047.31584	51794.025
1051.00976	51383.525
1054.70114	51164.725
1058.38998	51284.425
1062.07627	51520.425
1065.76003	51933.825
1069.44126	52572.125
1073.11995	53312.825
1076.79611	54037.925
1080.46974	54444.425
1084.14085	54935.525
1087.80943	55599.725
1091.47549	55977.925
1095.13903	55822.425
1098.80005	55245.325
1102.45857	54319.925
1106.11456	53708.025
1109.76805	53462.425
1113.41903	53597.425
1117.06751	53819.825
1120.71348	54252.125
1124.35696	54743.725
1127.99793	55175.125
1131.63641	55299.825
1135.2724	55093.825
1138.90589	54799.025
1142.5369	54799.325
1146.16542	55045.525
1149.79145	55420.625
1153.415	55826.625
1157.03607	56406.625
1160.65467	57653.325
1164.27079	59629.525
1167.88443	62225.025
1171.49561	65137.625
1175.10432	68864.625
1178.71056	73665.625
1182.31434	78012.425
1185.91565	79566.025
1189.51451	78414.525
1193.11091	75920.825
1196.70485	73365.525
1200.29634	71253.725
1203.88538	69888.325
1207.47197	69043.325
1211.05612	68221.625
1214.63782	67255.925
1218.21708	66118.625
1221.79391	65310.325
1225.36829	64819.325
1228.94024	64356.325
1232.50976	63379.825
1236.07685	62214.325
1239.6415	61547.125
1243.20374	61415.425
1246.76355	61908.125
1250.32093	62805.825
1253.8759	63898.525
1257.42845	65239.125
1260.97859	66843.825
1264.52631	68492.025
1268.07163	70321.925
1271.61453	72154.525
1275.15503	73713.725
1278.69312	75384.225
1282.22882	77129.225
1285.76211	79406.225
1289.29301	82240.325
1292.82151	85454.025
1296.34761	89395.025
1299.87133	94122.325
1303.39266	99225.225
1306.9116	104353.225
1310.42815	108804.225
1313.94233	111226.825
1317.45412	110536.525
1320.96354	107927.925
1324.47058	105073.925
1327.97525	102613.625
1331.47754	100630.425
1334.97747	99132.125
1338.47502	97861.225
1341.97022	96557.625
1345.46305	95022.725
1348.95352	94509.225
1352.44163	95293.125
1355.92738	98518.025
1359.41078	103673.425
1362.89183	108082.425
1366.37053	106942.425
1369.84688	98881.925
1373.32088	88687.825
1376.79254	81644.725
1380.26186	79217.225
1383.72883	79224.125
1387.19347	79283.925
1390.65578	78440.325
1394.11575	77994.725
1397.57339	78573.225
1401.0287	79625.925
1404.48168	80652.625
1407.93234	80590.125
1411.38068	79536.525
1414.82669	77712.725
1418.27039	75429.625
1421.71177	73038.225
1425.15083	70915.325
1428.58758	70077.525
1432.02203	70661.025
1435.45416	72444.725
1438.88399	74307.625
1442.31151	75675.925
1445.73673	76299.925
1449.15965	76500.025
1452.58027	76234.825
1455.9986	75655.125
1459.41463	75687.825
1462.82837	76551.825
1466.23982	77762.725
1469.64898	79191.525
1473.05586	80369.025
1476.46045	80893.325
1479.86276	80879.825
1483.26279	80404.325
1486.66054	80048.725
1490.05602	80485.925
1493.44922	81186.825
1496.84016	81953.725
1500.22882	83221.225
1503.61521	85059.425
1506.99934	87265.525
1510.38121	89210.225
1513.76081	89579.925
1517.13816	87827.425
1520.51324	84799.025
1523.88607	82501.725
1527.25665	81626.425
1530.62498	81606.425
1533.99105	81370.325
1537.35488	80435.625
1540.71647	78870.125
1544.07581	77070.325
1547.4329	75310.725
1550.78776	73736.025
1554.14038	72690.725
1557.49077	72096.825
1560.83892	71927.025
1564.18484	71952.925
1567.52853	72203.725
1570.86999	72898.325
1574.20922	73970.525
1577.54624	74864.525
1580.88103	74921.025
1584.2136	75347.025
1587.54395	77469.025
1590.87208	81461.625
1594.19801	86726.925
1597.52172	91651.125
1600.84321	93081.825
1604.16251	89263.425
1607.47959	82442.025
1610.79447	75227.225
1614.10715	69143.925
1617.41763	64633.525
1620.7259	61856.025
1624.03199	60595.925
1627.33587	60910.825
1630.63757	62587.925
1633.93707	66200.425
1637.23439	72132.625
1640.52951	81179.325
1643.82246	91873.325
1647.11321	100301.125
1650.40179	101348.625
1653.68819	93770.025
1656.97241	81576.825
1660.25446	70318.325
1663.53433	62593.125
1666.81203	57686.025
1670.08756	54799.725
1673.36092	53039.725
1676.63211	51888.125
1679.90115	50942.725
1683.16801	50355.725
1686.43272	49933.725
1689.69527	49610.225
1692.95567	49271.725
1696.2139	49104.125
1699.46999	49068.825
1702.72392	48934.725
1705.97571	48879.625
1709.22535	48779.125
1712.47284	48790.225
1715.71819	48773.525
1718.96139	48746.925
1722.20246	48550.025
1725.44139	48404.225
1728.67818	48229.025
1731.91284	47973.725
1735.14537	47694.525
1738.37576	47615.125
1741.60403	47501.425
1744.83017	47298.725
1748.05418	47170.025
1751.27607	47082.125
1754.49584	47091.525
1757.71349	47089.725
1760.92903	47023.425
1764.14244	46981.125
1767.35375	46992.125
1770.56294	46964.325
1773.77002	46914.025
1776.97499	46894.025
1780.17785	46773.025
1783.37861	46722.825
1786.57727	46664.725
1789.77382	46574.225
1792.96828	46558.725
1796.16064	46486.125
1799.3509	46446.325
1802.53907	46419.825
1805.72514	46331.125
1808.90913	46226.325
1812.09102	46086.325
1815.27083	46100.825
1818.44856	45964.525
1821.6242	45955.525
1824.79776	45922.625
1827.96924	45907.425
1831.13864	45952.325
1834.30597	45945.625
1837.47122	45851.525
1840.6344	45734.525
1843.7955	45817.525
1846.95454	45825.025
1850.11151	45803.625
1853.26642	45795.425
1856.41926	45795.525
1859.57004	45744.025
1862.71876	45618.625
1865.86542	45645.025
1869.01003	45601.825
1872.15258	45597.725
1875.29308	45543.025
1878.43152	45455.125
1881.56792	45483.225
1884.70227	45546.325
1887.83457	45552.825
1890.96482	45541.825
1894.09304	45464.925
1897.21921	45421.825
1900.34335	45297.625
1903.46544	45282.025
1906.58551	45330.125
1909.70353	45287.825
1912.81953	45267.925
1915.93349	45123.025
1919.04543	45035.125
1922.15534	45024.125
1925.26322	44965.125
1928.36908	44832.525
1931.47292	44831.525
1934.57473	44774.725
1937.67453	44732.525
1940.77232	44540.225
1943.86808	44414.325
1946.96184	44351.825
1950.05358	44258.625
1953.14331	44093.425
1956.23103	44037.225
1959.31675	43941.025
1962.40046	43783.825
1965.48217	43617.325
1968.56188	43529.325
1971.63959	43448.825
1974.7153	43323.925
1977.78901	43228.025
1980.86073	43078.625
1983.93046	43031.225
1986.99819	42848.825
1990.06394	42794.825
1993.1277	42736.125
1996.18947	42601.725
1999.24925	42516.725
2002.30706	42439.125
2005.36288	42220.125
2008.41672	42145.225
2011.46859	42065.025
2014.51848	41945.425
2017.56639	41852.025
2020.61233	41766.325
2023.6563	41637.925
2026.6983	41587.925
2029.73833	41480.325
2032.7764	41452.325
2035.8125	41415.225
2038.84664	41277.025
2041.87881	41257.925
2044.90903	41179.825
2047.93729	41175.625
2050.96359	41125.925
2053.98794	41057.425
2057.01034	41085.825
2060.03078	41102.425
2063.04927	41073.425
2066.06582	41041.325
2069.08042	41019.825
2072.09307	40968.825
2075.10378	40943.825
2078.11255	40903.125
2081.11938	40954.625
2084.12426	40885.025
2087.12722	40919.825
2090.12824	40904.125
2093.12732	40980.025
2096.12447	40940.925
2099.11969	40928.325
2102.11299	40960.625
2105.10435	40969.825
2108.09379	41003.625
2111.08131	41038.525
2114.0669	40958.325
2117.05057	40977.725
2120.03233	41064.325
2123.01216	41102.025
2125.99008	41152.625
2128.96609	41244.725
2131.94018	41291.225
2134.91236	41336.525
2137.88263	41420.925
2140.851	41396.125
2143.81746	41453.925
2146.78201	41417.225
2149.74466	41501.525
2152.7054	41510.825
2155.66425	41471.625
2158.6212	41539.525
2161.57625	41499.825
2164.52941	41509.925
2167.48067	41481.925
2170.43004	41469.725
2173.37752	41521.125
2176.32311	41522.325
2179.26681	41556.625
2182.20863	41562.525
2185.14856	41601.425
2188.08661	41604.225
2191.02278	41599.925
2193.95707	41525.825
2196.88948	41479.825
2199.82001	41501.925
2202.74867	41432.025
2205.67545	41404.725
2208.60037	41370.725
2211.52341	41338.025
2214.44458	41336.625
2217.36388	41305.225
2220.28132	41276.925
2223.1969	41151.025
2226.11061	41075.225
2229.02246	40939.925
2231.93245	40901.125
2234.84058	40865.325
2237.74686	40886.725
2240.65128	40902.025
2243.55385	40791.025
2246.45456	40751.425
2249.35343	40688.725
2252.25044	40619.825
2255.14561	40560.225
2258.03893	40514.425
2260.93041	40472.725
2263.82004	40382.925
2266.70783	40180.925
2269.59378	40153.725
2272.4779	40141.425
2275.36017	40022.225
2278.24061	40022.825
2281.11922	39963.925
2283.996	39892.525
2286.87094	39847.025
2289.74405	39846.425
2292.61534	39833.625
2295.4848	39762.525
2298.35243	39817.825
2301.21824	39806.525
2304.08223	39790.325
2306.94439	39744.825
2309.80474	39780.125
2312.66327	39770.825
2315.51999	39726.525
2318.37489	39651.625
2321.22797	39623.325
2324.07925	39631.725
2326.92871	39516.125
2329.77637	39427.225
2332.62222	39427.625
2335.46626	39404.525
2338.3085	39400.725
2341.14893	39434.725
2343.98756	39402.925
2346.8244	39359.625
2349.65943	39415.225
2352.49267	39370.325
2355.32411	39377.325
2358.15376	39284.125
2360.98161	39362.125
2363.80768	39313.425
2366.63195	39228.825
2369.45444	39271.925
2372.27514	39258.025
2375.09405	39226.925
2377.91118	39132.725
2380.72652	39037.225
2383.54009	38973.525
2386.35187	38926.025
2389.16188	38822.525
2391.97011	38787.625
2394.77657	38700.825
2397.58125	38658.625
2400.38416	38627.125
2403.18529	38583.925
2405.98466	38577.525
2408.78226	38469.425
2411.57809	38451.425
2414.37216	38322.625
2417.16446	38359.125
2419.955	38320.525
2422.74378	38335.225
2425.5308	38283.325
2428.31606	38327.625
2431.09956	38334.025
2433.88131	38284.625
2436.6613	38348.825
2439.43954	38319.625
2442.21603	38279.025
2444.99077	38222.925
2447.76377	38246.225
2450.53501	38161.225
2453.30451	38201.625
2456.07226	38176.125
2458.83827	38136.425
2461.60254	38085.625
2464.36507	38128.725
2467.12586	38160.325
2469.88492	38140.825
2472.64224	38103.525
2475.39782	38095.425
2478.15167	38103.625
2480.90379	38155.225
2483.65417	38189.325
2486.40283	38152.725
2489.14976	38161.025
2491.89497	38127.625
2494.63845	38165.525
2497.3802	38157.325
2500.12024	38142.525
2502.85855	38127.125
2505.59514	38078.525
2508.33002	37976.525
2511.06318	38023.225
2513.79462	37960.325
2516.52435	37933.725
2519.25237	37881.725
2521.97867	37880.925
2524.70327	37886.025
2527.42616	37796.125
2530.14734	37810.325
2532.86681	37731.625
2535.58458	37742.225
2538.30065	37794.925
2541.01501	37780.625
2543.72768	37773.325
2546.43864	37736.225
2549.14791	37651.425
2551.85548	37599.125
2554.56136	37535.325
2557.26554	37490.725
2559.96803	37437.225
2562.66883	37425.125
2565.36794	37364.625
2568.06536	37386.825
2570.7611	37296.825
2573.45514	37239.625
2576.14751	37208.725
2578.83819	37168.525
2581.52719	37238.725
2584.21451	37151.525
2586.90015	37118.525
2589.58411	37013.425
2592.2664	37088.325
2594.94701	37008.525
2597.62594	37044.725
2600.30321	37002.525
2602.9788	36981.725
2605.65273	36948.325
2608.32498	36985.425
2610.99557	36955.225
2613.66449	36985.825
2616.33175	36933.825
2618.99734	36854.025
2621.66128	36761.125
2624.32355	36750.825
2626.98416	36718.625
2629.64311	36684.925
2632.30041	36658.325
2634.95605	36610.425
2637.61004	36613.825
2640.26238	36553.625
2642.91306	36593.325
2645.56209	36541.125
2648.20948	36503.625
2650.85521	36617.325
2653.4993	36578.225
2656.14175	36560.025
2658.78255	36643.025
2661.42171	36618.125
2664.05923	36696.925
2666.6951	36696.525
2669.32934	36707.225
2671.96194	36695.925
2674.59291	36712.525
2677.22224	36729.925
2679.84993	36706.525
2682.476	36639.925
2685.10043	36653.425
2687.72324	36617.525
2690.34441	36645.825
2692.96396	36682.625
2695.58188	36718.725
2698.19818	36640.625
2700.81285	36635.525
2703.4259	36600.425
2706.03733	36741.625
2708.64714	36686.725
2711.25533	36683.525
2713.86191	36739.025
2716.46687	36785.825
2719.07021	36804.125
2721.67194	36870.425
2724.27206	36779.025
2726.87057	36883.725
2729.46747	36833.625
2732.06276	36827.325
2734.65644	36844.225
2737.24852	36876.525
2739.83899	36840.225
2742.42786	36850.425
2745.01513	36815.025
2747.60079	36756.825
2750.18486	36706.125
2752.76733	36768.425
2755.3482	36658.825
2757.92747	36689.625
2760.50515	36604.825
2763.08123	36652.925
2765.65573	36581.925
2768.22863	36591.525
2770.79994	36555.025
2773.36967	36593.525
2775.9378	36613.725
2778.50435	36616.225
2781.06932	36516.825
2783.6327	36513.025
2786.1945	36517.625
2788.75471	36442.925
2791.31335	36314.125
2793.87041	36393.925
2796.42589	36313.125
2798.97979	36198.625
2801.53212	36107.925
2804.08288	36091.125
2806.63206	36016.425
2809.17967	35996.225
2811.72571	35878.725
2814.27018	35778.425
2816.81308	35636.325
2819.35442	35624.625
2821.89419	35553.925
2824.43239	35568.525
2826.96904	35527.625
2829.50412	35561.025
2832.03763	35455.025
2834.56959	35414.425
2837.1	35350.425
2839.62884	35363.525
2842.15613	35297.525
2844.68186	35362.625
2847.20604	35306.425
2849.72867	35326.025
2852.24974	35280.125
2854.76927	35200.425
2857.28724	35180.725
2859.80367	35183.025
2862.31855	35146.125
2864.83189	35113.325
2867.34368	35007.325
2869.85393	34997.925
2872.36264	34923.525
2874.8698	34922.525
2877.37543	34892.725
2879.87952	34869.325
2882.38207	34893.025
2884.88308	34917.725
2887.38256	34875.725
2889.88051	34907.125
2892.37692	34884.525
2894.8718	34918.425
2897.36515	34948.825
2899.85698	34938.825
2902.34727	34974.325
2904.83604	35004.525
2907.32328	35075.225
2909.809	35035.425
2912.29319	35103.925
2914.77587	35100.825
2917.25702	35103.625
2919.73665	35066.325
2922.21476	35058.325
2924.69136	35019.325
2927.16644	35046.925
2929.64	34984.925
2932.11205	34932.925
2934.58258	34877.125
2937.05161	34952.525
2939.51912	34942.225
2941.98513	34876.725
2944.44962	34784.025
2946.91261	34769.825
2949.37409	34864.425
2951.83407	34830.625
2954.29254	34785.325
2956.74951	34795.725
2959.20498	34772.525
2961.65895	34781.525
2964.11142	34799.225
2966.56239	34767.425
2969.01186	34778.525
2971.45984	34647.325
2973.90632	34541.025
2976.35131	34526.525
2978.7948	34460.425
2981.23681	34436.025
2983.67732	34410.025
2986.11635	34317.825
2988.55388	34304.525
2990.98993	34208.925
2993.4245	34163.025
2995.85758	34067.625
2998.28917	33964.325
3000.71928	33935.825
3003.14791	33859.225
3005.57506	33844.525
3008.00073	33752.725
3010.42493	33748.825
3012.84764	33642.125
3015.26888	33603.625
3017.68865	33542.925
3020.10694	33488.525
3022.52376	33417.025
3024.9391	33395.625
3027.35298	33354.225
3029.76539	33342.525
3032.17632	33330.225
3034.5858	33307.625
3036.9938	33275.225
3039.40034	33229.125
3041.80542	33236.525
3044.20903	33191.925
3046.61118	33140.725
3049.01187	33022.425
3051.4111	33001.925
3053.80888	32912.025
3056.20519	32881.625
3058.60005	32780.825
3060.99345	32739.525
3063.3854	32634.725
3065.7759	32541.025
3068.16494	32486.825
3070.55254	32352.025
3072.93868	32326.525
3075.32338	32224.825
3077.70662	32181.225
3080.08842	32088.825
3082.46878	32009.625
3084.84769	31948.925
3087.22515	31987.625
3089.60118	31923.125
3091.97576	31885.025
3094.3489	31859.425
3096.72061	31881.625
3099.09087	31899.825
3101.4597	31896.025
3103.82709	31860.625
3106.19305	31835.425
3108.55757	31805.725
3110.92066	31718.025
3113.28232	31780.825
3115.64255	31637.625
3118.00134	31566.925
3120.35871	31447.025
3122.71466	31355.025
3125.06917	31316.625
