Data from AgNPs_FTO_APTES_UA_20uM_CRN_0uM_R6G_10uM_NaF_0.1M_Addition_RamanShift__37__11-32-51-974.txt Node

Date: Thu Feb 17 11:32:51 GMT 2022
User: TCL
Spectrometer: QEP01345
Trigger mode: 4
Integration Time (sec): 7.000000E0
Scans to average: 10
Electric dark correction enabled: true
Nonlinearity correction enabled: false
Boxcar width: 0
XAxis mode: Raman Shifts
Number of Pixels in Spectrum: 1044
>>>>>Begin Spectral Data<<<<<
46.04893	-0.3125
50.45542	-2.2125
54.85868	-2.5125
59.25871	-1.0125
63.6555	112.8875
68.04907	112.8875
72.43941	118.8875
76.82654	121.5875
81.21044	127.8875
85.59113	128.2875
89.96862	132.5875
94.34289	137.2875
98.71396	138.1875
103.08183	145.2875
107.4465	152.9875
111.80798	152.6875
116.16626	159.7875
120.52136	166.1875
124.87327	174.2875
129.222	178.9875
133.56755	193.8875
137.90993	211.7875
142.24913	228.8875
146.58517	264.5875
150.91804	310.9875
155.24774	371.9875
159.57429	465.2875
163.89768	605.6875
168.21792	809.8875
172.53501	1120.9875
176.84895	1558.7875
181.15975	2213.5875
185.46741	3094.6875
189.77193	4289.6875
194.07331	5759.6875
198.37157	7415.9875
202.6667	9162.9875
206.9587	10916.7875
211.24758	12612.0875
215.53334	14301.4875
219.81599	16084.3875
224.09553	18039.1875
228.37195	20214.2875
232.64527	22587.7875
236.91549	25120.1875
241.18261	27720.1875
245.44663	30124.6875
249.70755	32320.6875
253.96539	34221.2875
258.22014	35781.3875
262.4718	37018.7875
266.72039	37843.3875
270.96589	38245.7875
275.20832	38246.7875
279.44768	37887.4875
283.68397	37489.1875
287.91719	37072.4875
292.14735	36718.5875
296.37445	36556.8875
300.59849	36549.6875
304.81948	36678.5875
309.03742	36825.6875
313.25231	36959.3875
317.46415	36868.2875
321.67296	36748.4875
325.87872	36541.0875
330.08145	36470.1875
334.28114	36545.6875
338.47781	36728.0875
342.67145	37237.3875
346.86207	37836.3875
351.04966	38491.1875
355.23424	39074.9875
359.4158	39615.6875
363.59435	39959.2875
367.76989	40154.2875
371.94243	40245.1875
376.11196	40474.9875
380.27849	40600.3875
384.44203	40863.1875
388.60257	41232.9875
392.76012	41716.4875
396.91468	42164.0875
401.06626	42691.5875
405.21485	43029.8875
409.36047	43042.2875
413.50311	42843.3875
417.64277	42949.3875
421.77947	43362.3875
425.9132	43715.0875
430.04396	44169.8875
434.17176	44347.9875
438.2966	44680.0875
442.41849	45404.7875
446.53742	46712.8875
450.6534	47975.6875
454.76644	48678.1875
458.87653	48709.4875
462.98368	48235.9875
467.08789	47534.9875
471.18916	46731.1875
475.2875	45724.3875
479.38291	44954.9875
483.4754	44453.2875
487.56496	44076.9875
491.6516	43813.1875
495.73531	43688.8875
499.81612	43555.1875
503.89401	43990.5875
507.96899	44183.7875
512.04106	44199.0875
516.11023	44084.9875
520.1765	43747.4875
524.23987	43651.5875
528.30034	43678.4875
532.35792	43513.6875
536.41261	43169.1875
540.46441	42649.9875
544.51333	42462.8875
548.55936	42629.9875
552.60252	43293.2875
556.64279	44283.3875
560.6802	45212.4875
564.71473	45537.4875
568.7464	45906.8875
572.7752	46955.7875
576.80114	48685.0875
580.82422	50681.3875
584.84444	53454.4875
588.86181	57728.7875
592.87633	62463.7875
596.888	63587.0875
600.89682	59312.6875
604.9028	55089.5875
608.90594	54703.3875
612.90624	55642.7875
616.90371	52764.4875
620.89834	47539.3875
624.89015	45224.8875
628.87913	45079.1875
632.86528	45385.9875
636.84862	45192.2875
640.82913	44398.7875
644.80683	43524.0875
648.78172	43071.3875
652.75379	43127.1875
656.72306	43631.1875
660.68952	44081.2875
664.65319	43924.8875
668.61405	43453.4875
672.57211	43486.2875
676.52738	43765.1875
680.47986	43788.8875
684.42955	43512.7875
688.37646	43282.8875
692.32058	43639.1875
696.26192	44310.2875
700.20048	44944.0875
704.13626	45323.5875
708.06928	45375.4875
711.99952	45305.5875
715.927	45411.4875
719.85171	45573.5875
723.77365	45389.1875
727.69284	44756.6875
731.60928	44235.3875
735.52295	44062.9875
739.43388	44126.5875
743.34206	44266.2875
747.24749	44638.3875
751.15017	45055.2875
755.05012	45740.0875
758.94733	46609.7875
762.8418	48060.6875
766.73354	50285.1875
770.62254	52156.7875
774.50882	52232.5875
778.39237	50579.5875
782.27321	48485.4875
786.15132	46760.8875
790.02671	45606.6875
793.89938	44958.1875
797.76935	44626.7875
801.6366	44469.9875
805.50115	44412.3875
809.36299	44269.2875
813.22213	44122.6875
817.07857	43929.9875
820.93231	43725.4875
824.78336	43502.4875
828.63172	43387.1875
832.47738	43384.3875
836.32036	43436.5875
840.16066	43537.8875
843.99827	43633.2875
847.8332	43691.2875
851.66546	43809.9875
855.49504	43889.1875
859.32195	44012.7875
863.1462	43926.0875
866.96777	43866.1875
870.78668	43854.6875
874.60293	43937.8875
878.41652	44004.6875
882.22745	44155.2875
886.03573	44310.7875
889.84136	44293.5875
893.64433	44156.8875
897.44466	43959.7875
901.24235	43897.8875
905.0374	43777.4875
908.8298	43711.8875
912.61957	43759.6875
916.40671	44019.1875
920.19121	44495.6875
923.97308	45015.0875
927.75233	45250.9875
931.52895	44853.3875
935.30295	44224.2875
939.07433	43581.7875
942.84309	43200.4875
946.60924	43049.7875
950.37278	43095.5875
954.13371	43079.7875
957.89203	43069.6875
961.64774	43086.6875
965.40086	43054.2875
969.15137	43144.2875
972.89929	42991.7875
976.64461	42890.8875
980.38733	42991.8875
984.12747	43046.3875
987.86502	43199.6875
991.59999	43495.5875
995.33237	43785.0875
999.06217	44437.9875
1002.78939	45296.5875
1006.51404	46281.7875
1010.23611	47147.9875
1013.95561	47867.5875
1017.67255	48022.0875
1021.38692	47506.5875
1025.09872	46470.2875
1028.80796	45698.8875
1032.51465	45473.0875
1036.21877	45626.0875
1039.92035	45689.5875
1043.61937	45748.3875
1047.31584	45678.7875
1051.00976	45673.9875
1054.70114	45752.3875
1058.38998	45896.2875
1062.07627	46225.6875
1065.76003	46630.6875
1069.44126	47179.1875
1073.11995	48113.5875
1076.79611	48716.1875
1080.46974	49091.0875
1084.14085	49469.9875
1087.80943	49940.5875
1091.47549	50302.8875
1095.13903	50226.3875
1098.80005	49496.0875
1102.45857	48582.7875
1106.11456	47914.4875
1109.76805	47665.9875
1113.41903	47739.4875
1117.06751	47936.0875
1120.71348	48236.3875
1124.35696	48535.5875
1127.99793	48795.8875
1131.63641	49020.7875
1135.2724	48989.6875
1138.90589	49021.9875
1142.5369	49215.1875
1146.16542	49585.6875
1149.79145	50087.5875
1153.415	50500.1875
1157.03607	50936.3875
1160.65467	51961.6875
1164.27079	53721.6875
1167.88443	55986.8875
1171.49561	58370.0875
1175.10432	61299.4875
1178.71056	64940.1875
1182.31434	68293.6875
1185.91565	69535.8875
1189.51451	68447.6875
1193.11091	66581.5875
1196.70485	64724.2875
1200.29634	63036.5875
1203.88538	61941.0875
1207.47197	61734.3875
1211.05612	61479.7875
1214.63782	60781.3875
1218.21708	59710.0875
1221.79391	58680.4875
1225.36829	58106.5875
1228.94024	57977.5875
1232.50976	57232.9875
1236.07685	56090.9875
1239.6415	55210.4875
1243.20374	54852.0875
1246.76355	55038.5875
1250.32093	55731.4875
1253.8759	56615.3875
1257.42845	57866.9875
1260.97859	59229.9875
1264.52631	60856.0875
1268.07163	62614.8875
1271.61453	64187.4875
1275.15503	65633.8875
1278.69312	67258.6875
1282.22882	69244.0875
1285.76211	71682.0875
1289.29301	74570.2875
1292.82151	77663.5875
1296.34761	81268.9875
1299.87133	85633.2875
1303.39266	90157.2875
1306.9116	94130.6875
1310.42815	97334.0875
1313.94233	98757.1875
1317.45412	97525.4875
1320.96354	94521.1875
1324.47058	91942.7875
1327.97525	90205.9875
1331.47754	88891.5875
1334.97747	87759.4875
1338.47502	86611.2875
1341.97022	85419.7875
1345.46305	84086.7875
1348.95352	83463.5875
1352.44163	83873.0875
1355.92738	86304.7875
1359.41078	90430.6875
1362.89183	93843.8875
1366.37053	93539.8875
1369.84688	87903.3875
1373.32088	79042.5875
1376.79254	72719.4875
1380.26186	70462.6875
1383.72883	70531.7875
1387.19347	70564.2875
1390.65578	69651.2875
1394.11575	69333.6875
1397.57339	70126.5875
1401.0287	71383.1875
1404.48168	72401.1875
1407.93234	72544.3875
1411.38068	71520.5875
1414.82669	69850.0875
1418.27039	67809.8875
1421.71177	65713.4875
1425.15083	64085.4875
1428.58758	63549.7875
1432.02203	64427.3875
1435.45416	66108.1875
1438.88399	67838.7875
1442.31151	68821.5875
1445.73673	68990.8875
1449.15965	68910.0875
1452.58027	68446.2875
1455.9986	67930.7875
1459.41463	68018.5875
1462.82837	69057.4875
1466.23982	70469.5875
1469.64898	71949.7875
1473.05586	72894.8875
1476.46045	73523.5875
1479.86276	73565.4875
1483.26279	73181.2875
1486.66054	72990.0875
1490.05602	73477.0875
1493.44922	74092.3875
1496.84016	74399.5875
1500.22882	74485.9875
1503.61521	74610.6875
1506.99934	74941.7875
1510.38121	75006.7875
1513.76081	74485.7875
1517.13816	73458.7875
1520.51324	72521.7875
1523.88607	72336.9875
1527.25665	73039.6875
1530.62498	73766.1875
1533.99105	73719.5875
1537.35488	72675.1875
1540.71647	70961.0875
1544.07581	69070.6875
1547.4329	67260.5875
1550.78776	65671.5875
1554.14038	64524.6875
1557.49077	63935.6875
1560.83892	63472.6875
1564.18484	63309.8875
1567.52853	63362.6875
1570.86999	63756.4875
1574.20922	64773.7875
1577.54624	65549.7875
1580.88103	65784.8875
1584.2136	66557.0875
1587.54395	68881.9875
1590.87208	73087.4875
1594.19801	78280.1875
1597.52172	83121.2875
1600.84321	84848.6875
1604.16251	81436.7875
1607.47959	74815.0875
1610.79447	67909.7875
1614.10715	62116.8875
1617.41763	57931.0875
1620.7259	55373.7875
1624.03199	54189.7875
1627.33587	54416.8875
1630.63757	55907.5875
1633.93707	59248.4875
1637.23439	65134.7875
1640.52951	74103.4875
1643.82246	85313.8875
1647.11321	93931.4875
1650.40179	94393.9875
1653.68819	85882.4875
1656.97241	73737.6875
1660.25446	63124.9875
1663.53433	56020.8875
1666.81203	51829.3875
1670.08756	49356.0875
1673.36092	47804.0875
1676.63211	46778.7875
1679.90115	46058.1875
1683.16801	45454.2875
1686.43272	45047.5875
1689.69527	44729.0875
1692.95567	44483.1875
1696.2139	44323.7875
1699.46999	44253.1875
1702.72392	44174.2875
1705.97571	44055.5875
1709.22535	43985.6875
1712.47284	43977.1875
1715.71819	43931.6875
1718.96139	43961.3875
1722.20246	43835.4875
1725.44139	43648.9875
1728.67818	43478.3875
1731.91284	43264.0875
1735.14537	43045.7875
1738.37576	42873.7875
1741.60403	42799.1875
1744.83017	42648.5875
1748.05418	42580.0875
1751.27607	42528.3875
1754.49584	42504.4875
1757.71349	42464.4875
1760.92903	42420.9875
1764.14244	42393.2875
1767.35375	42367.4875
1770.56294	42326.2875
1773.77002	42284.3875
1776.97499	42325.2875
1780.17785	42251.5875
1783.37861	42168.9875
1786.57727	42111.6875
1789.77382	42023.4875
1792.96828	42013.3875
1796.16064	41925.5875
1799.3509	41845.6875
1802.53907	41790.3875
1805.72514	41706.2875
1808.90913	41633.6875
1812.09102	41568.4875
1815.27083	41513.7875
1818.44856	41467.8875
1821.6242	41409.2875
1824.79776	41334.0875
1827.96924	41336.4875
1831.13864	41414.8875
1834.30597	41379.5875
1837.47122	41353.4875
1840.6344	41238.0875
1843.7955	41271.0875
1846.95454	41264.6875
1850.11151	41263.9875
1853.26642	41234.5875
1856.41926	41259.3875
1859.57004	41250.4875
1862.71876	41159.7875
1865.86542	41128.8875
1869.01003	41089.1875
1872.15258	41065.8875
1875.29308	41056.7875
1878.43152	40955.4875
1881.56792	40995.3875
1884.70227	40937.0875
1887.83457	41024.9875
1890.96482	40958.4875
1894.09304	40890.0875
1897.21921	40829.2875
1900.34335	40747.4875
1903.46544	40721.8875
1906.58551	40764.9875
1909.70353	40742.0875
1912.81953	40667.1875
1915.93349	40618.4875
1919.04543	40527.1875
1922.15534	40461.5875
1925.26322	40419.6875
1928.36908	40385.5875
1931.47292	40262.8875
1934.57473	40148.5875
1937.67453	40078.4875
1940.77232	39975.0875
1943.86808	39884.7875
1946.96184	39816.1875
1950.05358	39708.7875
1953.14331	39553.1875
1956.23103	39486.6875
1959.31675	39421.1875
1962.40046	39310.6875
1965.48217	39136.4875
1968.56188	39087.4875
1971.63959	38958.9875
1974.7153	38899.8875
1977.78901	38738.5875
1980.86073	38590.6875
1983.93046	38494.3875
1986.99819	38413.8875
1990.06394	38342.1875
1993.1277	38246.3875
1996.18947	38128.7875
1999.24925	38127.2875
2002.30706	37999.4875
2005.36288	37843.1875
2008.41672	37723.8875
2011.46859	37666.9875
2014.51848	37591.8875
2017.56639	37479.5875
2020.61233	37346.9875
2023.6563	37311.6875
2026.6983	37209.1875
2029.73833	37117.9875
2032.7764	37071.8875
2035.8125	36981.8875
2038.84664	36914.4875
2041.87881	36880.4875
2044.90903	36782.3875
2047.93729	36726.8875
2050.96359	36777.1875
2053.98794	36718.1875
2057.01034	36728.4875
2060.03078	36731.0875
2063.04927	36738.2875
2066.06582	36778.5875
2069.08042	36701.4875
2072.09307	36654.5875
2075.10378	36579.2875
2078.11255	36587.0875
2081.11938	36591.9875
2084.12426	36513.2875
2087.12722	36506.9875
2090.12824	36514.1875
2093.12732	36555.2875
2096.12447	36579.0875
2099.11969	36518.3875
2102.11299	36583.3875
2105.10435	36559.5875
2108.09379	36655.2875
2111.08131	36645.1875
2114.0669	36615.5875
2117.05057	36634.7875
2120.03233	36590.4875
2123.01216	36684.1875
2125.99008	36718.4875
2128.96609	36775.2875
2131.94018	36841.4875
2134.91236	36882.7875
2137.88263	36918.6875
2140.851	36905.1875
2143.81746	36911.8875
2146.78201	36925.0875
2149.74466	36951.9875
2152.7054	36995.5875
2155.66425	37019.3875
2158.6212	37012.6875
2161.57625	36958.2875
2164.52941	37003.1875
2167.48067	36997.2875
2170.43004	36964.8875
2173.37752	36964.8875
2176.32311	37000.7875
2179.26681	37021.0875
2182.20863	37015.4875
2185.14856	37023.9875
2188.08661	37012.4875
2191.02278	37065.7875
2193.95707	36957.0875
2196.88948	36963.5875
2199.82001	36946.5875
2202.74867	36868.8875
2205.67545	36857.8875
2208.60037	36753.7875
2211.52341	36727.8875
2214.44458	36661.5875
2217.36388	36666.6875
2220.28132	36627.9875
2223.1969	36544.6875
2226.11061	36462.3875
2229.02246	36414.3875
2231.93245	36384.6875
2234.84058	36357.6875
2237.74686	36348.8875
2240.65128	36355.1875
2243.55385	36315.6875
2246.45456	36269.5875
2249.35343	36104.8875
2252.25044	36080.4875
2255.14561	36034.8875
2258.03893	35991.2875
2260.93041	35864.3875
2263.82004	35809.6875
2266.70783	35755.8875
2269.59378	35645.7875
2272.4779	35578.3875
2275.36017	35543.2875
2278.24061	35519.7875
2281.11922	35410.8875
2283.996	35364.1875
2286.87094	35364.5875
2289.74405	35251.4875
2292.61534	35248.7875
2295.4848	35209.3875
2298.35243	35260.6875
2301.21824	35223.9875
2304.08223	35236.6875
2306.94439	35159.6875
2309.80474	35216.2875
2312.66327	35172.9875
2315.51999	35096.1875
2318.37489	35087.8875
2321.22797	35016.3875
2324.07925	35024.8875
2326.92871	34964.0875
2329.77637	34879.7875
2332.62222	34848.2875
2335.46626	34839.0875
2338.3085	34858.7875
2341.14893	34827.1875
2343.98756	34816.2875
2346.8244	34716.2875
2349.65943	34738.9875
2352.49267	34741.2875
2355.32411	34753.3875
2358.15376	34731.2875
2360.98161	34761.5875
2363.80768	34702.1875
2366.63195	34659.7875
2369.45444	34665.3875
2372.27514	34622.2875
2375.09405	34568.8875
2377.91118	34506.7875
2380.72652	34463.3875
2383.54009	34346.9875
2386.35187	34348.5875
2389.16188	34220.3875
2391.97011	34188.8875
2394.77657	34109.5875
2397.58125	34117.7875
2400.38416	34050.9875
2403.18529	33979.6875
2405.98466	33985.4875
2408.78226	33969.2875
2411.57809	33898.6875
2414.37216	33855.4875
2417.16446	33868.0875
2419.955	33847.3875
2422.74378	33828.2875
2425.5308	33783.0875
2428.31606	33789.0875
2431.09956	33816.2875
2433.88131	33755.3875
2436.6613	33783.6875
2439.43954	33739.4875
2442.21603	33688.7875
2444.99077	33654.9875
2447.76377	33699.3875
2450.53501	33618.8875
2453.30451	33664.0875
2456.07226	33653.8875
2458.83827	33578.0875
2461.60254	33549.4875
2464.36507	33548.7875
2467.12586	33563.7875
2469.88492	33534.1875
2472.64224	33584.5875
2475.39782	33555.5875
2478.15167	33537.7875
2480.90379	33563.4875
2483.65417	33589.4875
2486.40283	33609.6875
2489.14976	33544.6875
2491.89497	33565.7875
2494.63845	33544.2875
2497.3802	33513.6875
2500.12024	33486.8875
2502.85855	33478.4875
2505.59514	33466.1875
2508.33002	33411.0875
2511.06318	33359.0875
2513.79462	33346.7875
2516.52435	33362.9875
2519.25237	33311.5875
2521.97867	33311.4875
2524.70327	33342.2875
2527.42616	33249.1875
2530.14734	33228.4875
2532.86681	33164.1875
2535.58458	33147.8875
2538.30065	33179.5875
2541.01501	33154.4875
2543.72768	33121.6875
2546.43864	33146.2875
2549.14791	33055.1875
2551.85548	32990.0875
2554.56136	32966.7875
2557.26554	32885.7875
2559.96803	32870.9875
2562.66883	32852.7875
2565.36794	32764.6875
2568.06536	32846.0875
2570.7611	32775.4875
2573.45514	32747.2875
2576.14751	32668.4875
2578.83819	32642.6875
2581.52719	32675.9875
2584.21451	32606.0875
2586.90015	32545.0875
2589.58411	32484.2875
2592.2664	32488.6875
2594.94701	32451.4875
2597.62594	32443.7875
2600.30321	32444.1875
2602.9788	32468.3875
2605.65273	32376.3875
2608.32498	32405.4875
2610.99557	32394.2875
2613.66449	32370.0875
2616.33175	32311.3875
2618.99734	32306.4875
2621.66128	32232.9875
2624.32355	32216.8875
2626.98416	32155.0875
2629.64311	32192.4875
2632.30041	32140.0875
2634.95605	32076.7875
2637.61004	32052.7875
2640.26238	32069.7875
2642.91306	32051.3875
2645.56209	31986.0875
2648.20948	32057.4875
2650.85521	32033.2875
2653.4993	32079.7875
2656.14175	32091.5875
2658.78255	32120.1875
2661.42171	32163.2875
2664.05923	32136.0875
2666.6951	32137.7875
2669.32934	32121.1875
2671.96194	32157.8875
2674.59291	32171.7875
2677.22224	32170.7875
2679.84993	32176.0875
2682.476	32106.4875
2685.10043	32152.5875
2687.72324	32131.4875
2690.34441	32147.4875
2692.96396	32109.3875
2695.58188	32153.5875
2698.19818	32136.3875
2700.81285	32110.3875
2703.4259	32110.7875
2706.03733	32151.1875
2708.64714	32092.1875
2711.25533	32167.7875
2713.86191	32202.6875
2716.46687	32263.4875
2719.07021	32270.5875
2721.67194	32343.0875
2724.27206	32269.9875
2726.87057	32313.2875
2729.46747	32301.8875
2732.06276	32326.5875
2734.65644	32325.2875
2737.24852	32343.0875
2739.83899	32265.6875
2742.42786	32335.8875
2745.01513	32260.8875
2747.60079	32198.5875
2750.18486	32207.7875
2752.76733	32242.6875
2755.3482	32219.3875
2757.92747	32145.2875
2760.50515	32097.2875
2763.08123	32044.7875
2765.65573	32081.0875
2768.22863	32083.0875
2770.79994	31967.7875
2773.36967	32006.7875
2775.9378	32051.2875
2778.50435	32050.6875
2781.06932	32006.1875
2783.6327	31995.0875
2786.1945	31954.6875
2788.75471	31912.5875
2791.31335	31800.8875
2793.87041	31814.2875
2796.42589	31723.4875
2798.97979	31691.3875
2801.53212	31594.7875
2804.08288	31561.8875
2806.63206	31520.8875
2809.17967	31448.0875
2811.72571	31394.2875
2814.27018	31276.6875
2816.81308	31172.5875
2819.35442	31145.8875
2821.89419	31120.6875
2824.43239	31107.5875
2826.96904	31094.3875
2829.50412	31132.3875
2832.03763	30983.0875
2834.56959	30955.2875
2837.1	30897.4875
2839.62884	30935.7875
2842.15613	30861.6875
2844.68186	30896.3875
2847.20604	30868.5875
2849.72867	30839.0875
2852.24974	30812.0875
2854.76927	30786.6875
2857.28724	30688.8875
2859.80367	30691.4875
2862.31855	30679.4875
2864.83189	30643.7875
2867.34368	30573.7875
2869.85393	30545.2875
2872.36264	30482.1875
2874.8698	30474.9875
2877.37543	30447.8875
2879.87952	30421.2875
2882.38207	30429.2875
2884.88308	30429.3875
2887.38256	30446.1875
2889.88051	30465.7875
2892.37692	30464.7875
2894.8718	30479.9875
2897.36515	30525.8875
2899.85698	30525.3875
2902.34727	30549.8875
2904.83604	30538.9875
2907.32328	30563.1875
2909.809	30596.2875
2912.29319	30589.1875
2914.77587	30600.8875
2917.25702	30564.1875
2919.73665	30581.2875
2922.21476	30566.4875
2924.69136	30506.3875
2927.16644	30519.8875
2929.64	30511.9875
2932.11205	30502.5875
2934.58258	30396.8875
2937.05161	30461.1875
2939.51912	30428.3875
2941.98513	30432.5875
2944.44962	30383.9875
2946.91261	30304.2875
2949.37409	30365.6875
2951.83407	30340.7875
2954.29254	30350.5875
2956.74951	30333.9875
2959.20498	30364.9875
2961.65895	30308.0875
2964.11142	30319.8875
2966.56239	30276.6875
2969.01186	30250.5875
2971.45984	30159.8875
2973.90632	30127.5875
2976.35131	30050.8875
2978.7948	29995.2875
2981.23681	29957.5875
2983.67732	29931.6875
2986.11635	29840.4875
2988.55388	29771.7875
2990.98993	29736.3875
2993.4245	29645.1875
2995.85758	29566.6875
2998.28917	29489.1875
3000.71928	29458.1875
3003.14791	29389.0875
3005.57506	29340.5875
3008.00073	29291.3875
3010.42493	29280.0875
3012.84764	29246.6875
3015.26888	29260.5875
3017.68865	29155.3875
3020.10694	29109.5875
3022.52376	29025.7875
