Data from AgNPs_FTO_APTES_UA_20uM_CRN_20uM_R6G_10uM_NaF_0.1M_Addition_RamanShift__22__15-15-42-265.txt Node

Date: Thu Feb 17 15:15:42 GMT 2022
User: TCL
Spectrometer: QEP01345
Trigger mode: 4
Integration Time (sec): 7.000000E0
Scans to average: 10
Electric dark correction enabled: true
Nonlinearity correction enabled: false
Boxcar width: 0
XAxis mode: Raman Shifts
Number of Pixels in Spectrum: 1044
>>>>>Begin Spectral Data<<<<<
46.04893	-0.05
50.45542	-0.65
54.85868	-2.95
59.25871	-0.85
63.6555	103.85
68.04907	105.55
72.43941	110.85
76.82654	109.45
81.21044	114.45
85.59113	116.55
89.96862	121.55
94.34289	124.65
98.71396	127.75
103.08183	133.25
107.4465	139.05
111.80798	136.75
116.16626	143.35
120.52136	153.15
124.87327	158.05
129.222	169.15
133.56755	179.45
137.90993	189.15
142.24913	206.95
146.58517	232.75
150.91804	275.65
155.24774	323.35
159.57429	401.55
163.89768	516.55
168.21792	688.85
172.53501	951.05
176.84895	1325.65
181.15975	1877.05
185.46741	2668.45
189.77193	3700.35
194.07331	4972.85
198.37157	6419.45
202.6667	7971.75
206.9587	9515.75
211.24758	10989.85
215.53334	12478.45
219.81599	13991.75
224.09553	15680.55
228.37195	17597.55
232.64527	19683.35
236.91549	21951.75
241.18261	24321.65
245.44663	26531.85
249.70755	28628.75
253.96539	30437.25
258.22014	31940.95
262.4718	33227.15
266.72039	34077.95
270.96589	34553.65
275.20832	34644.25
279.44768	34444.25
283.68397	34006.95
287.91719	33605.15
292.14735	33296.55
296.37445	33095.15
300.59849	33096.85
304.81948	33215.75
309.03742	33214.65
313.25231	33039.95
317.46415	32703.05
321.67296	32192.95
325.87872	31770.95
330.08145	31697.05
334.28114	31788.55
338.47781	32136.75
342.67145	32494.55
346.86207	32980.05
351.04966	33611.75
355.23424	34325.25
359.4158	34943.45
363.59435	35458.85
367.76989	35922.55
371.94243	36236.85
376.11196	36510.25
380.27849	36786.95
384.44203	36974.75
388.60257	37206.35
392.76012	37451.65
396.91468	37754.25
401.06626	38192.85
405.21485	38607.75
409.36047	38653.05
413.50311	38393.05
417.64277	38059.65
421.77947	37900.75
425.9132	37947.35
430.04396	38125.45
434.17176	38414.95
438.2966	38805.95
442.41849	39332.15
446.53742	39996.05
450.6534	40737.85
454.76644	41336.35
458.87653	41725.85
462.98368	41676.75
467.08789	41368.45
471.18916	40928.05
475.2875	40452.35
479.38291	40057.25
483.4754	39860.95
487.56496	39589.15
491.6516	39437.95
495.73531	39241.55
499.81612	39218.05
503.89401	39412.65
507.96899	39521.15
512.04106	39604.65
516.11023	39723.75
520.1765	39839.35
524.23987	39888.75
528.30034	39797.95
532.35792	39659.75
536.41261	39439.85
540.46441	39213.95
544.51333	39210.65
548.55936	39403.75
552.60252	39701.85
556.64279	40038.55
560.6802	40150.25
564.71473	40143.35
568.7464	40340.15
572.7752	40625.75
576.80114	40765.65
580.82422	40917.15
584.84444	41198.15
588.86181	41568.35
592.87633	42040.35
596.888	42431.95
600.89682	42892.35
604.9028	44277.55
608.90594	47547.45
612.90624	51020.05
616.90371	49476.85
620.89834	44332.85
624.89015	42127.95
628.87913	41912.15
632.86528	41699.45
636.84862	41365.25
640.82913	41025.55
644.80683	40501.55
648.78172	40033.15
652.75379	40054.25
656.72306	40497.25
660.68952	41005.15
664.65319	41023.35
668.61405	40620.05
672.57211	40552.25
676.52738	40582.65
680.47986	40571.15
684.42955	40518.55
688.37646	40624.95
692.32058	40794.65
696.26192	41021.75
700.20048	41322.45
704.13626	41459.55
708.06928	41257.05
711.99952	41099.05
715.927	41032.35
719.85171	41029.65
723.77365	41037.45
727.69284	40910.45
731.60928	40778.65
735.52295	40712.55
739.43388	40781.65
743.34206	40939.75
747.24749	41025.35
751.15017	41211.85
755.05012	41509.75
758.94733	42037.65
762.8418	43180.05
766.73354	44918.35
770.62254	46920.65
774.50882	47788.75
778.39237	46808.05
782.27321	44627.85
786.15132	42766.05
790.02671	41669.45
793.89938	41196.85
797.76935	41016.45
801.6366	40986.45
805.50115	40903.45
809.36299	40813.35
813.22213	40704.15
817.07857	40631.15
820.93231	40668.25
824.78336	40725.95
828.63172	40770.65
832.47738	40879.95
836.32036	41025.25
840.16066	41186.35
843.99827	41430.25
847.8332	41398.25
851.66546	41313.45
855.49504	41254.45
859.32195	41323.25
863.1462	41263.35
866.96777	41146.85
870.78668	41086.15
874.60293	41122.45
878.41652	41145.65
882.22745	41174.75
886.03573	41310.55
889.84136	41300.85
893.64433	41117.95
897.44466	40923.75
901.24235	40845.35
905.0374	40815.45
908.8298	40811.45
912.61957	40813.55
916.40671	40994.05
920.19121	41321.95
923.97308	41605.85
927.75233	41771.85
931.52895	41828.25
935.30295	41647.55
939.07433	41275.15
942.84309	40956.45
946.60924	40883.85
950.37278	40784.05
954.13371	40624.45
957.89203	40348.95
961.64774	40206.45
965.40086	40084.85
969.15137	40035.25
972.89929	39979.15
976.64461	39981.75
980.38733	40029.55
984.12747	40198.95
987.86502	40531.85
991.59999	40960.05
995.33237	41608.75
999.06217	42552.55
1002.78939	43580.95
1006.51404	44040.05
1010.23611	44171.55
1013.95561	44365.75
1017.67255	44375.85
1021.38692	44434.25
1025.09872	44479.15
1028.80796	45109.85
1032.51465	46309.95
1036.21877	47346.75
1039.92035	47385.85
1043.61937	46744.95
1047.31584	45541.95
1051.00976	44384.75
1054.70114	43653.85
1058.38998	43394.75
1062.07627	43372.95
1065.76003	43254.05
1069.44126	43282.65
1073.11995	43439.35
1076.79611	43630.55
1080.46974	43781.15
1084.14085	44075.65
1087.80943	44382.35
1091.47549	44462.75
1095.13903	44202.95
1098.80005	43863.45
1102.45857	43521.95
1106.11456	43467.85
1109.76805	43691.25
1113.41903	43980.65
1117.06751	44279.45
1120.71348	44601.95
1124.35696	44799.15
1127.99793	44992.25
1131.63641	44952.55
1135.2724	44603.55
1138.90589	44245.35
1142.5369	43908.35
1146.16542	43656.75
1149.79145	43554.05
1153.415	43548.15
1157.03607	43753.85
1160.65467	44125.05
1164.27079	44820.05
1167.88443	45883.55
1171.49561	47403.35
1175.10432	49486.65
1178.71056	52241.35
1182.31434	54882.85
1185.91565	56310.75
1189.51451	56138.25
1193.11091	54587.55
1196.70485	52608.65
1200.29634	50944.15
1203.88538	49880.35
1207.47197	49005.85
1211.05612	48175.85
1214.63782	47691.15
1218.21708	47618.55
1221.79391	47899.75
1225.36829	48219.25
1228.94024	48073.35
1232.50976	47522.25
1236.07685	46919.05
1239.6415	46837.65
1243.20374	46905.05
1246.76355	47279.65
1250.32093	47775.35
1253.8759	48551.85
1257.42845	49396.65
1260.97859	50018.85
1264.52631	50559.55
1268.07163	51221.15
1271.61453	52031.55
1275.15503	53065.15
1278.69312	54113.05
1282.22882	54966.55
1285.76211	55444.75
1289.29301	55799.75
1292.82151	56266.45
1296.34761	57148.55
1299.87133	58772.35
1303.39266	61217.55
1306.9116	64310.15
1310.42815	67493.75
1313.94233	69246.85
1317.45412	68814.35
1320.96354	66911.95
1324.47058	64676.95
1327.97525	62532.85
1331.47754	61196.55
1334.97747	60816.95
1338.47502	61125.35
1341.97022	61947.45
1345.46305	62556.65
1348.95352	62846.85
1352.44163	63358.75
1355.92738	64820.55
1359.41078	67664.45
1362.89183	70377.85
1366.37053	69292.75
1369.84688	64227.05
1373.32088	58899.65
1376.79254	55213.85
1380.26186	53230.65
1383.72883	52351.85
1387.19347	51746.35
1390.65578	51089.65
1394.11575	50572.75
1397.57339	50509.25
1401.0287	50833.35
1404.48168	51450.15
1407.93234	52004.55
1411.38068	52550.25
1414.82669	52671.45
1418.27039	52288.25
1421.71177	51486.25
1425.15083	50609.15
1428.58758	50092.75
1432.02203	50061.75
1435.45416	50379.95
1438.88399	50705.95
1442.31151	50976.15
1445.73673	51146.55
1449.15965	51329.05
1452.58027	51289.95
1455.9986	51092.95
1459.41463	51060.15
1462.82837	51370.45
1466.23982	52035.45
1469.64898	52918.25
1473.05586	53725.85
1476.46045	54249.65
1479.86276	54583.35
1483.26279	54831.35
1486.66054	55049.95
1490.05602	55504.95
1493.44922	56038.05
1496.84016	56599.25
1500.22882	57419.85
1503.61521	58782.55
1506.99934	60585.75
1510.38121	62035.45
1513.76081	62282.75
1517.13816	60889.55
1520.51324	58506.15
1523.88607	56465.55
1527.25665	55039.25
1530.62498	54211.95
1533.99105	53841.35
1537.35488	53601.15
1540.71647	53571.15
1544.07581	53456.15
1547.4329	53239.45
1550.78776	52997.85
1554.14038	52753.75
1557.49077	52607.05
1560.83892	52437.65
1564.18484	52420.85
1567.52853	52333.15
1570.86999	52449.65
1574.20922	52577.85
1577.54624	52556.95
1580.88103	52126.25
1584.2136	51790.95
1587.54395	52259.45
1590.87208	53755.55
1594.19801	56266.25
1597.52172	59168.05
1600.84321	60634.05
1604.16251	59474.75
1607.47959	56879.65
1610.79447	53930.55
1614.10715	51226.35
1617.41763	49090.25
1620.7259	47585.85
1624.03199	46846.65
1627.33587	46877.55
1630.63757	47574.25
1633.93707	48862.75
1637.23439	50760.05
1640.52951	52949.25
1643.82246	55297.65
1647.11321	57196.85
1650.40179	57543.05
1653.68819	55512.65
1656.97241	51741.25
1660.25446	48008.65
1663.53433	45228.95
1666.81203	43620.05
1670.08756	42565.65
1673.36092	41821.35
1676.63211	41364.55
1679.90115	40912.35
1683.16801	40603.85
1686.43272	40374.35
1689.69527	40202.85
1692.95567	40143.85
1696.2139	40071.15
1699.46999	40028.55
1702.72392	40041.55
1705.97571	39987.75
1709.22535	39935.55
1712.47284	39967.45
1715.71819	39991.15
1718.96139	39948.05
1722.20246	39849.55
1725.44139	39738.65
1728.67818	39600.05
1731.91284	39455.95
1735.14537	39411.75
1738.37576	39319.25
1741.60403	39236.75
1744.83017	39210.15
1748.05418	39128.15
1751.27607	39062.95
1754.49584	39056.55
1757.71349	39071.55
1760.92903	39055.45
1764.14244	39010.65
1767.35375	38968.95
1770.56294	38933.35
1773.77002	38929.25
1776.97499	38921.45
1780.17785	38828.45
1783.37861	38834.85
1786.57727	38823.15
1789.77382	38812.15
1792.96828	38771.95
1796.16064	38725.95
1799.3509	38630.75
1802.53907	38613.15
1805.72514	38513.05
1808.90913	38467.05
1812.09102	38479.25
1815.27083	38405.85
1818.44856	38353.85
1821.6242	38323.45
1824.79776	38327.25
1827.96924	38277.85
1831.13864	38247.85
1834.30597	38260.75
1837.47122	38167.65
1840.6344	38176.95
1843.7955	38173.75
1846.95454	38171.95
1850.11151	38129.65
1853.26642	38149.55
1856.41926	38119.35
1859.57004	38111.05
1862.71876	38075.45
1865.86542	38058.05
1869.01003	38099.75
1872.15258	38094.25
1875.29308	38067.65
1878.43152	38025.45
1881.56792	38016.55
1884.70227	37951.95
1887.83457	37945.55
1890.96482	37899.65
1894.09304	37888.95
1897.21921	37911.05
1900.34335	37880.65
1903.46544	37811.15
1906.58551	37796.45
1909.70353	37801.55
1912.81953	37775.55
1915.93349	37721.85
1919.04543	37637.05
1922.15534	37547.15
1925.26322	37593.65
1928.36908	37529.35
1931.47292	37529.85
1934.57473	37444.05
1937.67453	37436.85
1940.77232	37336.05
1943.86808	37222.55
1946.96184	37188.05
1950.05358	37094.25
1953.14331	37038.25
1956.23103	36944.75
1959.31675	36810.75
1962.40046	36685.55
1965.48217	36640.45
1968.56188	36546.15
1971.63959	36455.45
1974.7153	36300.25
1977.78901	36222.55
1980.86073	36165.45
1983.93046	36062.35
1986.99819	35950.85
1990.06394	35939.95
1993.1277	35866.45
1996.18947	35709.65
1999.24925	35624.75
2002.30706	35527.45
2005.36288	35474.65
2008.41672	35317.05
2011.46859	35225.55
2014.51848	35182.55
2017.56639	35119.25
2020.61233	35007.85
2023.6563	34924.05
2026.6983	34904.15
2029.73833	34843.85
2032.7764	34805.25
2035.8125	34763.45
2038.84664	34689.05
2041.87881	34653.05
2044.90903	34553.35
2047.93729	34518.05
2050.96359	34562.25
2053.98794	34485.25
2057.01034	34489.05
2060.03078	34482.45
2063.04927	34464.85
2066.06582	34451.05
2069.08042	34444.85
2072.09307	34402.35
2075.10378	34379.45
2078.11255	34332.25
2081.11938	34355.85
2084.12426	34344.25
2087.12722	34295.75
2090.12824	34325.45
2093.12732	34314.35
2096.12447	34322.95
2099.11969	34376.15
2102.11299	34395.25
2105.10435	34421.25
2108.09379	34451.45
2111.08131	34442.15
2114.0669	34474.55
2117.05057	34517.35
2120.03233	34567.25
2123.01216	34622.45
2125.99008	34596.85
2128.96609	34665.15
2131.94018	34606.75
2134.91236	34674.45
2137.88263	34714.35
2140.851	34727.15
2143.81746	34798.25
2146.78201	34812.95
2149.74466	34833.55
2152.7054	34881.25
2155.66425	34859.65
2158.6212	34848.55
2161.57625	34791.75
2164.52941	34805.75
2167.48067	34847.05
2170.43004	34806.95
2173.37752	34833.05
2176.32311	34929.55
2179.26681	34944.95
2182.20863	34924.85
2185.14856	34944.35
2188.08661	34900.65
2191.02278	34891.95
2193.95707	34953.35
2196.88948	34908.25
2199.82001	34865.45
2202.74867	34890.05
2205.67545	34924.25
2208.60037	34908.85
2211.52341	34866.45
2214.44458	34883.85
2217.36388	34766.35
2220.28132	34768.25
2223.1969	34708.65
2226.11061	34691.85
2229.02246	34582.85
2231.93245	34515.25
2234.84058	34474.35
2237.74686	34416.85
2240.65128	34365.35
2243.55385	34339.35
2246.45456	34327.75
2249.35343	34283.55
2252.25044	34259.35
2255.14561	34205.15
2258.03893	34245.15
2260.93041	34140.05
2263.82004	34104.15
2266.70783	34071.25
2269.59378	33948.55
2272.4779	33887.85
2275.36017	33803.45
2278.24061	33740.05
2281.11922	33658.95
2283.996	33634.85
2286.87094	33582.35
2289.74405	33614.95
2292.61534	33614.75
2295.4848	33630.75
2298.35243	33621.15
2301.21824	33608.05
2304.08223	33612.95
2306.94439	33637.35
2309.80474	33641.75
2312.66327	33657.65
2315.51999	33656.05
2318.37489	33600.35
2321.22797	33622.85
2324.07925	33560.95
2326.92871	33534.85
2329.77637	33485.65
2332.62222	33475.15
2335.46626	33487.65
2338.3085	33479.35
2341.14893	33498.65
2343.98756	33491.15
2346.8244	33478.85
2349.65943	33449.75
2352.49267	33416.75
2355.32411	33512.55
2358.15376	33437.75
2360.98161	33395.35
2363.80768	33326.15
2366.63195	33317.95
2369.45444	33264.55
2372.27514	33175.55
2375.09405	33103.35
2377.91118	33077.25
2380.72652	33036.65
2383.54009	32956.75
2386.35187	32956.85
2389.16188	32801.75
2391.97011	32844.95
2394.77657	32736.15
2397.58125	32730.45
2400.38416	32662.45
2403.18529	32583.95
2405.98466	32562.95
2408.78226	32472.65
2411.57809	32461.05
2414.37216	32375.15
2417.16446	32369.35
2419.955	32353.15
2422.74378	32360.35
2425.5308	32320.15
2428.31606	32256.65
2431.09956	32259.55
2433.88131	32256.65
2436.6613	32276.15
2439.43954	32274.45
2442.21603	32233.65
2444.99077	32174.95
2447.76377	32186.65
2450.53501	32212.25
2453.30451	32156.85
2456.07226	32109.95
2458.83827	32083.55
2461.60254	32022.35
2464.36507	31997.65
2467.12586	31999.25
2469.88492	31991.55
2472.64224	32034.45
2475.39782	32024.25
2478.15167	32069.55
2480.90379	32052.85
2483.65417	32087.25
2486.40283	32086.95
2489.14976	32101.85
2491.89497	32112.55
2494.63845	32136.55
2497.3802	32064.35
2500.12024	32059.15
2502.85855	32047.55
2505.59514	32004.15
2508.33002	32032.45
2511.06318	31948.65
2513.79462	31898.15
2516.52435	31830.75
2519.25237	31859.75
2521.97867	31807.85
2524.70327	31765.75
2527.42616	31787.25
2530.14734	31747.95
2532.86681	31725.65
2535.58458	31698.55
2538.30065	31696.55
2541.01501	31722.35
2543.72768	31683.45
2546.43864	31633.75
2549.14791	31585.75
2551.85548	31528.75
2554.56136	31527.65
2557.26554	31467.85
2559.96803	31396.75
2562.66883	31393.75
2565.36794	31345.45
2568.06536	31341.15
2570.7611	31313.15
2573.45514	31258.35
2576.14751	31197.45
2578.83819	31220.15
2581.52719	31210.95
2584.21451	31148.35
2586.90015	31174.95
2589.58411	31090.05
2592.2664	31063.35
2594.94701	31039.65
2597.62594	31023.35
2600.30321	30994.25
2602.9788	30999.85
2605.65273	30958.95
2608.32498	30959.65
2610.99557	30889.45
2613.66449	30929.85
2616.33175	30923.55
2618.99734	30942.95
2621.66128	30902.05
2624.32355	30896.85
2626.98416	30892.95
2629.64311	30873.45
2632.30041	30848.95
2634.95605	30862.05
2637.61004	30848.85
2640.26238	30767.75
2642.91306	30751.05
2645.56209	30749.45
2648.20948	30700.65
2650.85521	30633.05
2653.4993	30664.85
2656.14175	30642.05
2658.78255	30657.25
2661.42171	30620.85
2664.05923	30671.85
2666.6951	30645.25
2669.32934	30670.75
2671.96194	30645.05
2674.59291	30693.15
2677.22224	30673.55
2679.84993	30724.45
2682.476	30645.45
2685.10043	30664.45
2687.72324	30593.85
2690.34441	30597.15
2692.96396	30584.25
2695.58188	30597.45
2698.19818	30566.65
2700.81285	30569.85
2703.4259	30540.75
2706.03733	30607.05
2708.64714	30561.65
2711.25533	30575.55
2713.86191	30544.25
2716.46687	30645.75
2719.07021	30660.75
2721.67194	30696.05
2724.27206	30671.55
2726.87057	30750.05
2729.46747	30698.05
2732.06276	30730.65
2734.65644	30651.85
2737.24852	30627.35
2739.83899	30600.85
2742.42786	30599.65
2745.01513	30581.65
2747.60079	30605.65
2750.18486	30526.95
2752.76733	30509.45
2755.3482	30452.55
2757.92747	30470.95
2760.50515	30426.95
2763.08123	30405.35
2765.65573	30422.55
2768.22863	30364.55
2770.79994	30328.55
2773.36967	30312.75
2775.9378	30300.65
2778.50435	30323.35
2781.06932	30328.25
2783.6327	30293.25
2786.1945	30216.15
2788.75471	30223.35
2791.31335	30170.15
2793.87041	30120.55
2796.42589	30029.15
2798.97979	30009.35
2801.53212	29913.75
2804.08288	29842.25
2806.63206	29799.15
2809.17967	29743.35
2811.72571	29673.45
2814.27018	29628.55
2816.81308	29560.25
2819.35442	29575.35
2821.89419	29569.65
2824.43239	29580.55
2826.96904	29552.25
2829.50412	29544.45
2832.03763	29434.25
2834.56959	29432.65
2837.1	29398.55
2839.62884	29404.45
2842.15613	29338.15
2844.68186	29330.65
2847.20604	29300.65
2849.72867	29241.05
2852.24974	29221.15
2854.76927	29225.35
2857.28724	29221.15
2859.80367	29173.35
2862.31855	29063.45
2864.83189	29073.85
2867.34368	29058.65
2869.85393	29037.25
2872.36264	29054.75
2874.8698	29049.05
2877.37543	29020.45
2879.87952	29029.35
2882.38207	28985.15
2884.88308	29005.85
2887.38256	28958.35
2889.88051	28978.15
2892.37692	28997.05
2894.8718	29033.15
2897.36515	29065.95
2899.85698	29013.75
2902.34727	29055.65
2904.83604	29039.05
2907.32328	29191.05
2909.809	29196.15
2912.29319	29221.85
2914.77587	29224.35
2917.25702	29180.05
2919.73665	29167.75
2922.21476	29211.65
2924.69136	29112.95
2927.16644	29124.15
2929.64	29093.55
2932.11205	29047.55
2934.58258	28974.55
2937.05161	29044.25
2939.51912	28999.55
2941.98513	29050.15
2944.44962	28998.65
2946.91261	28959.65
2949.37409	29049.95
2951.83407	28969.85
2954.29254	29012.45
2956.74951	28993.05
2959.20498	29048.75
2961.65895	28983.75
2964.11142	28973.75
2966.56239	28924.05
2969.01186	28963.95
2971.45984	28859.75
2973.90632	28843.35
2976.35131	28798.85
2978.7948	28779.35
2981.23681	28725.45
2983.67732	28728.75
2986.11635	28645.95
2988.55388	28593.25
2990.98993	28581.75
2993.4245	28481.85
2995.85758	28422.85
2998.28917	28353.15
3000.71928	28341.45
3003.14791	28307.35
3005.57506	28299.95
3008.00073	28184.15
3010.42493	28175.05
3012.84764	28115.85
3015.26888	28159.85
3017.68865	28068.65
3020.10694	28056.55
3022.52376	28010.25
3024.9391	28003.55
3027.35298	27931.75
3029.76539	27932.15
3032.17632	27910.55
3034.5858	27920.55
3036.9938	27910.35
3039.40034	27877.55
3041.80542	27909.65
3044.20903	27824.05
3046.61118	27820.15
3049.01187	27707.55
3051.4111	27695.75
3053.80888	27628.45
3056.20519	27599.15
3058.60005	27560.25
3060.99345	27525.15
3063.3854	27507.95
3065.7759	27417.95
3068.16494	27319.35
3070.55254	27279.05
3072.93868	27210.75
3075.32338	27185.55
3077.70662	27099.75
3080.08842	27046.05
3082.46878	27024.65
3084.84769	26998.85
3087.22515	27016.15
3089.60118	26991.65
3091.97576	27002.75
3094.3489	26979.25
3096.72061	26974.25
3099.09087	27050.75
3101.4597	27032.45
3103.82709	27040.45
3106.19305	26995.45
3108.55757	26990.85
3110.92066	26899.15
3113.28232	26847.95
3115.64255	26810.85
3118.00134	26775.65
3120.35871	26767.85
3122.71466	26691.65
3125.06917	26653.25
3127.42226	26622.25
3129.77393	26594.75
3132.12417	26552.85
3134.47299	26495.85
3136.82039	26468.55
3139.16636	26479.65
3141.51092	26438.45
3143.85406	26455.65
3146.19579	26486.55
3148.53609	26468.75
3150.87499	26515.85
3153.21246	26549.75
3155.54853	26615.05
3157.88318	26572.05
3160.21642	26633.55
3162.54826	26608.45
3164.87868	26608.35
3167.2077	26571.35
3169.5353	26651.35
3171.86151	26605.45
3174.18631	26581.25
3176.5097	26518.35
3178.83169	26499.05
3181.15228	26457.45
3183.47147	26378.55
3185.78926	26376.25
3188.10565	26358.15
3190.42065	26361.85
3192.73424	26334.15
3195.04645	26276.35
3197.35725	26289.75
3199.66667	26305.75
3201.97469	26335.45
3204.28132	26320.15
3206.58656	26357.15
3208.8904	26379.75
3211.19287	26397.65
3213.49394	26331.85
3215.79363	26416.75
3218.09193	26415.75
3220.38884	26402.45
3222.68438	26463.65
3224.97853	26465.55
3227.2713	26448.05
3229.56269	26383.05
3231.8527	26393.85
3234.14133	26302.95
3236.42858	26268.05
