Data from AgNPs_FTO_APTES_UA_20uM_CRN_10uM_R6G_10uM_NaF_0.1M_Addition_RamanShift__20__14-33-42-209.txt Node

Date: Thu Feb 17 14:33:42 GMT 2022
User: TCL
Spectrometer: QEP01345
Trigger mode: 4
Integration Time (sec): 7.000000E0
Scans to average: 10
Electric dark correction enabled: true
Nonlinearity correction enabled: false
Boxcar width: 0
XAxis mode: Raman Shifts
Number of Pixels in Spectrum: 1044
>>>>>Begin Spectral Data<<<<<
46.04893	0.725
50.45542	-2.275
54.85868	-3.875
59.25871	-0.975
63.6555	123.525
68.04907	127.025
72.43941	128.925
76.82654	134.025
81.21044	133.325
85.59113	141.625
89.96862	146.325
94.34289	147.225
98.71396	154.825
103.08183	157.125
107.4465	168.125
111.80798	170.425
116.16626	171.925
120.52136	181.025
124.87327	183.525
129.222	204.925
133.56755	215.825
137.90993	233.825
142.24913	257.025
146.58517	290.725
150.91804	348.425
155.24774	411.525
159.57429	523.125
163.89768	678.425
168.21792	901.825
172.53501	1245.725
176.84895	1744.225
181.15975	2478.825
185.46741	3492.325
189.77193	4831.825
194.07331	6467.925
198.37157	8363.925
202.6667	10384.025
206.9587	12375.425
211.24758	14314.025
215.53334	16203.025
219.81599	18242.025
224.09553	20512.025
228.37195	22979.525
232.64527	25737.825
236.91549	28631.125
241.18261	31634.925
245.44663	34527.725
249.70755	37084.525
253.96539	39390.725
258.22014	41316.625
262.4718	42974.325
266.72039	44115.225
270.96589	44743.425
275.20832	44869.025
279.44768	44658.125
283.68397	44232.225
287.91719	43899.425
292.14735	43624.325
296.37445	43501.725
300.59849	43480.125
304.81948	43535.925
309.03742	43465.825
313.25231	43152.725
317.46415	42492.325
321.67296	41744.725
325.87872	41220.425
330.08145	40908.925
334.28114	41029.625
338.47781	41294.925
342.67145	41844.925
346.86207	42510.125
351.04966	43243.625
355.23424	43985.725
359.4158	44729.125
363.59435	45317.325
367.76989	45739.125
371.94243	46107.225
376.11196	46342.725
380.27849	46704.825
384.44203	46991.125
388.60257	47243.925
392.76012	47645.425
396.91468	48053.325
401.06626	48653.125
405.21485	49150.325
409.36047	49111.125
413.50311	48610.125
417.64277	48222.525
421.77947	48069.425
425.9132	48210.025
430.04396	48537.325
434.17176	48877.225
438.2966	49408.425
442.41849	50144.025
446.53742	51289.025
450.6534	52518.725
454.76644	53564.225
458.87653	53978.725
462.98368	53774.325
467.08789	53154.625
471.18916	52471.125
475.2875	51795.025
479.38291	51349.925
483.4754	50958.525
487.56496	50444.925
491.6516	49967.825
495.73531	49632.525
499.81612	49491.225
503.89401	49763.325
507.96899	49869.025
512.04106	49778.725
516.11023	49710.325
520.1765	49561.425
524.23987	49454.325
528.30034	49346.025
532.35792	49054.025
536.41261	48768.225
540.46441	48465.525
544.51333	48444.425
548.55936	48794.025
552.60252	49534.925
556.64279	50331.225
560.6802	50867.825
564.71473	51049.725
568.7464	51361.925
572.7752	52123.525
576.80114	52686.925
580.82422	53230.825
584.84444	53907.825
588.86181	54758.225
592.87633	55621.225
596.888	56010.125
600.89682	55870.325
604.9028	57132.125
608.90594	60863.625
612.90624	64624.225
616.90371	61709.825
620.89834	54427.125
624.89015	51316.825
628.87913	50921.625
632.86528	50915.225
636.84862	50622.625
640.82913	50077.925
644.80683	49214.625
648.78172	48597.125
652.75379	48523.225
656.72306	49074.625
660.68952	49755.125
664.65319	49667.225
668.61405	49082.125
672.57211	48949.825
676.52738	49104.025
680.47986	49042.225
684.42955	48867.925
688.37646	48811.125
692.32058	49072.325
696.26192	49613.225
700.20048	49997.225
704.13626	50273.125
708.06928	50166.725
711.99952	49814.825
715.927	49744.125
719.85171	49781.025
723.77365	49835.825
727.69284	49528.425
731.60928	49195.925
735.52295	49036.325
739.43388	49091.725
743.34206	49328.525
747.24749	49551.725
751.15017	49810.025
755.05012	50374.925
758.94733	51295.325
762.8418	53054.525
766.73354	55848.725
770.62254	58596.225
774.50882	59329.325
778.39237	57451.825
782.27321	54302.925
786.15132	51731.825
790.02671	50150.925
793.89938	49397.225
797.76935	49106.725
801.6366	49103.225
805.50115	48976.825
809.36299	48796.925
813.22213	48591.625
817.07857	48479.425
820.93231	48393.425
824.78336	48356.325
828.63172	48308.325
832.47738	48403.325
836.32036	48483.525
840.16066	48672.025
843.99827	48794.025
847.8332	48750.025
851.66546	48647.925
855.49504	48565.125
859.32195	48595.825
863.1462	48559.725
866.96777	48543.625
870.78668	48457.625
874.60293	48463.325
878.41652	48491.125
882.22745	48550.625
886.03573	48673.125
889.84136	48600.625
893.64433	48452.225
897.44466	48238.125
901.24235	48107.725
905.0374	48032.925
908.8298	48015.125
912.61957	47996.225
916.40671	48304.125
920.19121	48759.225
923.97308	49165.425
927.75233	49248.325
931.52895	49141.925
935.30295	48722.825
939.07433	48237.525
942.84309	47746.525
946.60924	47634.625
950.37278	47561.325
954.13371	47488.625
957.89203	47282.425
961.64774	47232.225
965.40086	47061.125
969.15137	46960.625
972.89929	46797.425
976.64461	46800.425
980.38733	46790.225
984.12747	47009.125
987.86502	47351.725
991.59999	47947.525
995.33237	48676.725
999.06217	49808.925
1002.78939	50966.425
1006.51404	51747.225
1010.23611	52186.925
1013.95561	52493.225
1017.67255	52544.325
1021.38692	52237.225
1025.09872	51943.025
1028.80796	52197.525
1032.51465	53109.725
1036.21877	54058.725
1039.92035	54065.625
1043.61937	53502.325
1047.31584	52556.725
1051.00976	51475.725
1054.70114	50965.625
1058.38998	50934.925
1062.07627	51087.825
1065.76003	51326.025
1069.44126	51536.225
1073.11995	51951.225
1076.79611	52305.725
1080.46974	52680.225
1084.14085	53129.025
1087.80943	53494.825
1091.47549	53768.525
1095.13903	53552.425
1098.80005	53062.425
1102.45857	52476.025
1106.11456	52177.525
1109.76805	52103.725
1113.41903	52427.225
1117.06751	52809.925
1120.71348	53160.625
1124.35696	53489.525
1127.99793	53788.425
1131.63641	53761.625
1135.2724	53475.825
1138.90589	53163.525
1142.5369	52936.525
1146.16542	52818.425
1149.79145	52919.225
1153.415	53196.725
1157.03607	53749.325
1160.65467	54569.725
1164.27079	56058.125
1167.88443	58073.125
1171.49561	60677.425
1175.10432	63970.325
1178.71056	68165.625
1182.31434	72185.625
1185.91565	74197.825
1189.51451	73964.925
1193.11091	71965.025
1196.70485	69286.925
1200.29634	66908.725
1203.88538	65219.025
1207.47197	63909.925
1211.05612	62703.525
1214.63782	61807.925
1218.21708	61421.525
1221.79391	61449.025
1225.36829	61517.225
1228.94024	61041.625
1232.50976	60029.325
1236.07685	59144.225
1239.6415	58708.525
1243.20374	58676.125
1246.76355	59174.125
1250.32093	59831.125
1253.8759	60857.325
1257.42845	61983.525
1260.97859	63201.725
1264.52631	64288.225
1268.07163	65484.225
1271.61453	66893.125
1275.15503	68446.725
1278.69312	70021.825
1282.22882	71393.825
1285.76211	72516.125
1289.29301	73670.025
1292.82151	75135.925
1296.34761	77362.925
1299.87133	80490.525
1303.39266	84397.325
1306.9116	88994.925
1310.42815	93615.325
1313.94233	96607.325
1317.45412	96984.225
1320.96354	95370.025
1324.47058	93252.225
1327.97525	91065.725
1331.47754	89501.125
1334.97747	88916.525
1338.47502	89123.325
1341.97022	89566.025
1345.46305	89457.025
1348.95352	88948.825
1352.44163	88466.625
1355.92738	89650.025
1359.41078	92570.125
1362.89183	95243.325
1366.37053	93499.625
1369.84688	86701.025
1373.32088	79133.125
1376.79254	73908.125
1380.26186	71530.725
1383.72883	70871.425
1387.19347	70681.325
1390.65578	70037.225
1394.11575	69634.025
1397.57339	70174.425
1401.0287	71166.625
1404.48168	72378.625
1407.93234	73072.425
1411.38068	73083.525
1414.82669	72161.525
1418.27039	70433.225
1421.71177	68291.325
1425.15083	66442.525
1428.58758	65397.325
1432.02203	65490.825
1435.45416	66355.125
1438.88399	67594.225
1442.31151	68683.425
1445.73673	69406.625
1449.15965	69992.125
1452.58027	70300.325
1455.9986	70359.525
1459.41463	70621.425
1462.82837	71385.425
1466.23982	72621.025
1469.64898	73957.025
1473.05586	75011.425
1476.46045	75379.825
1479.86276	75270.325
1483.26279	74746.925
1486.66054	74375.125
1490.05602	74456.925
1493.44922	74789.925
1496.84016	75069.225
1500.22882	75725.825
1503.61521	77325.725
1506.99934	79583.625
1510.38121	81340.725
1513.76081	81609.025
1517.13816	79791.325
1520.51324	76909.225
1523.88607	74583.125
1527.25665	73304.025
1530.62498	72916.625
1533.99105	72794.125
1537.35488	72675.425
1540.71647	72285.625
1544.07581	71651.225
1547.4329	70897.925
1550.78776	69884.025
1554.14038	69187.525
1557.49077	68687.425
1560.83892	68374.925
1564.18484	68124.925
1567.52853	68202.625
1570.86999	68401.225
1574.20922	68785.525
1577.54624	69122.225
1580.88103	68768.525
1584.2136	68594.825
1587.54395	69832.525
1590.87208	72555.525
1594.19801	76638.025
1597.52172	81083.825
1600.84321	83074.525
1604.16251	80958.125
1607.47959	76443.725
1610.79447	71416.925
1614.10715	66629.625
1617.41763	62687.425
1620.7259	59839.125
1624.03199	58364.725
1627.33587	58161.725
1630.63757	59163.025
1633.93707	61732.025
1637.23439	65820.325
1640.52951	71308.925
1643.82246	77615.825
1647.11321	82179.925
1650.40179	82484.325
1653.68819	77776.825
1656.97241	69975.425
1660.25446	62564.525
1663.53433	57099.925
1666.81203	53598.425
1670.08756	51400.725
1673.36092	49946.425
1676.63211	48910.525
1679.90115	48161.325
1683.16801	47561.625
1686.43272	47196.325
1689.69527	46898.425
1692.95567	46706.225
1696.2139	46613.325
1699.46999	46496.825
1702.72392	46400.125
1705.97571	46314.625
1709.22535	46244.525
1712.47284	46180.625
1715.71819	46239.225
1718.96139	46116.025
1722.20246	45937.825
1725.44139	45815.025
1728.67818	45659.225
1731.91284	45416.225
1735.14537	45287.525
1738.37576	45071.725
1741.60403	44996.825
1744.83017	44830.525
1748.05418	44711.125
1751.27607	44665.725
1754.49584	44646.525
1757.71349	44708.725
1760.92903	44685.325
1764.14244	44574.125
1767.35375	44521.225
1770.56294	44474.525
1773.77002	44492.425
1776.97499	44426.825
1780.17785	44310.725
1783.37861	44317.225
1786.57727	44229.625
1789.77382	44138.425
1792.96828	44154.025
1796.16064	44088.725
1799.3509	44004.825
1802.53907	43999.825
1805.72514	43870.825
1808.90913	43810.125
1812.09102	43694.425
1815.27083	43643.325
1818.44856	43589.625
1821.6242	43520.225
1824.79776	43456.325
1827.96924	43444.125
1831.13864	43443.425
1834.30597	43430.025
1837.47122	43362.725
1840.6344	43291.925
1843.7955	43278.025
1846.95454	43283.425
1850.11151	43304.925
1853.26642	43292.725
1856.41926	43245.625
1859.57004	43296.125
1862.71876	43185.425
1865.86542	43193.425
1869.01003	43161.325
1872.15258	43143.225
1875.29308	43073.125
1878.43152	43026.025
1881.56792	43025.025
1884.70227	43076.725
1887.83457	43075.625
1890.96482	43050.525
1894.09304	42956.025
1897.21921	42885.525
1900.34335	42842.925
1903.46544	42810.025
1906.58551	42768.525
1909.70353	42771.725
1912.81953	42756.925
1915.93349	42679.425
1919.04543	42597.325
1922.15534	42568.625
1925.26322	42536.125
1928.36908	42437.925
1931.47292	42410.425
1934.57473	42282.025
1937.67453	42233.525
1940.77232	42213.425
1943.86808	42035.425
1946.96184	41935.225
1950.05358	41789.225
1953.14331	41701.325
1956.23103	41606.025
1959.31675	41480.425
1962.40046	41356.525
1965.48217	41182.725
1968.56188	41106.325
1971.63959	41028.925
1974.7153	40909.825
1977.78901	40760.825
1980.86073	40704.425
1983.93046	40568.725
1986.99819	40477.525
1990.06394	40355.425
1993.1277	40294.825
1996.18947	40187.925
1999.24925	40073.425
2002.30706	39976.625
2005.36288	39827.525
2008.41672	39732.425
2011.46859	39634.825
2014.51848	39563.725
2017.56639	39438.125
2020.61233	39352.925
2023.6563	39277.525
2026.6983	39171.025
2029.73833	39056.625
2032.7764	39058.325
2035.8125	38934.225
2038.84664	38912.825
2041.87881	38924.825
2044.90903	38831.125
2047.93729	38789.725
2050.96359	38746.325
2053.98794	38734.525
2057.01034	38733.125
2060.03078	38705.525
2063.04927	38603.525
2066.06582	38665.325
2069.08042	38612.725
2072.09307	38550.225
2075.10378	38482.125
2078.11255	38462.925
2081.11938	38462.525
2084.12426	38450.225
2087.12722	38399.925
2090.12824	38387.025
2093.12732	38476.825
2096.12447	38465.325
2099.11969	38427.925
2102.11299	38433.925
2105.10435	38400.725
2108.09379	38461.625
2111.08131	38482.425
2114.0669	38493.725
2117.05057	38540.225
2120.03233	38584.925
2123.01216	38643.225
2125.99008	38730.325
2128.96609	38743.525
2131.94018	38704.825
2134.91236	38799.725
2137.88263	38863.625
2140.851	38788.825
2143.81746	38873.225
2146.78201	38890.525
2149.74466	38950.925
2152.7054	38923.425
2155.66425	38921.225
2158.6212	38937.725
2161.57625	38894.825
2164.52941	38918.325
2167.48067	38866.825
2170.43004	38907.525
2173.37752	38888.225
2176.32311	38909.625
2179.26681	38935.525
2182.20863	38963.825
2185.14856	38989.125
2188.08661	39000.825
2191.02278	38957.825
2193.95707	38863.425
2196.88948	38907.625
2199.82001	38917.725
2202.74867	38814.625
2205.67545	38815.925
2208.60037	38774.625
2211.52341	38797.225
2214.44458	38769.725
2217.36388	38749.925
2220.28132	38669.725
2223.1969	38569.325
2226.11061	38525.025
2229.02246	38384.225
2231.93245	38350.625
2234.84058	38242.825
2237.74686	38159.225
2240.65128	38179.025
2243.55385	38131.125
2246.45456	38105.325
2249.35343	38068.625
2252.25044	38111.925
2255.14561	37978.225
2258.03893	37958.725
2260.93041	37889.225
2263.82004	37828.725
2266.70783	37747.725
2269.59378	37649.325
2272.4779	37589.625
2275.36017	37555.025
2278.24061	37460.025
2281.11922	37375.025
2283.996	37311.425
2286.87094	37340.525
2289.74405	37284.025
2292.61534	37217.825
2295.4848	37189.425
2298.35243	37186.425
2301.21824	37240.425
2304.08223	37243.325
2306.94439	37211.425
2309.80474	37249.625
2312.66327	37288.025
2315.51999	37258.025
2318.37489	37235.725
2321.22797	37204.125
2324.07925	37176.825
2326.92871	37046.125
2329.77637	37056.925
2332.62222	37033.425
2335.46626	36979.725
2338.3085	37002.725
2341.14893	36969.925
2343.98756	37014.525
2346.8244	37057.725
2349.65943	37015.425
2352.49267	37024.225
2355.32411	36968.525
2358.15376	36990.025
2360.98161	36975.725
2363.80768	36935.825
2366.63195	36854.225
2369.45444	36781.125
2372.27514	36705.725
2375.09405	36745.325
2377.91118	36650.325
2380.72652	36562.925
2383.54009	36467.525
2386.35187	36426.325
2389.16188	36344.125
2391.97011	36281.525
2394.77657	36212.625
2397.58125	36194.325
2400.38416	36182.425
2403.18529	36116.225
2405.98466	36070.025
2408.78226	35922.025
2411.57809	35889.525
2414.37216	35892.125
2417.16446	35842.225
2419.955	35793.125
2422.74378	35786.425
2425.5308	35760.925
2428.31606	35763.225
2431.09956	35728.825
2433.88131	35652.825
2436.6613	35703.425
2439.43954	35656.325
2442.21603	35660.125
2444.99077	35636.325
2447.76377	35601.425
2450.53501	35574.625
2453.30451	35563.625
2456.07226	35523.325
2458.83827	35476.125
2461.60254	35518.425
2464.36507	35478.125
2467.12586	35437.725
2469.88492	35471.325
2472.64224	35520.425
2475.39782	35492.825
2478.15167	35530.125
2480.90379	35504.825
2483.65417	35627.925
2486.40283	35518.725
2489.14976	35520.925
2491.89497	35494.125
2494.63845	35558.525
2497.3802	35538.025
2500.12024	35542.025
2502.85855	35544.725
2505.59514	35501.625
2508.33002	35418.525
2511.06318	35357.325
2513.79462	35390.625
2516.52435	35345.425
2519.25237	35310.025
2521.97867	35308.625
2524.70327	35301.525
2527.42616	35233.125
2530.14734	35246.225
2532.86681	35213.325
2535.58458	35191.525
2538.30065	35153.925
2541.01501	35169.225
2543.72768	35197.525
2546.43864	35163.325
2549.14791	35077.225
2551.85548	35070.825
2554.56136	34944.925
2557.26554	34898.125
2559.96803	34804.025
2562.66883	34792.825
2565.36794	34771.425
2568.06536	34757.325
2570.7611	34693.925
2573.45514	34714.225
2576.14751	34649.225
2578.83819	34615.725
2581.52719	34601.225
2584.21451	34612.525
2586.90015	34564.825
2589.58411	34534.725
2592.2664	34484.425
2594.94701	34472.525
2597.62594	34482.425
2600.30321	34484.325
2602.9788	34429.625
2605.65273	34430.625
2608.32498	34405.025
2610.99557	34396.725
2613.66449	34392.225
2616.33175	34409.025
2618.99734	34401.825
2621.66128	34339.625
2624.32355	34329.825
2626.98416	34343.725
2629.64311	34318.725
2632.30041	34362.125
2634.95605	34304.125
2637.61004	34230.425
2640.26238	34213.625
2642.91306	34147.325
2645.56209	34090.025
2648.20948	34108.825
2650.85521	34142.125
2653.4993	34111.125
2656.14175	34070.525
2658.78255	34136.725
2661.42171	34158.025
2664.05923	34234.025
2666.6951	34199.325
2669.32934	34206.325
2671.96194	34199.825
2674.59291	34242.425
2677.22224	34189.025
2679.84993	34219.325
2682.476	34177.225
2685.10043	34155.825
2687.72324	34121.525
2690.34441	34129.425
2692.96396	34085.325
2695.58188	34166.625
2698.19818	34076.225
2700.81285	34031.625
2703.4259	33988.725
2706.03733	34110.525
2708.64714	34072.125
2711.25533	34087.825
2713.86191	34097.925
2716.46687	34165.525
2719.07021	34175.425
2721.67194	34125.725
2724.27206	34143.625
2726.87057	34179.325
2729.46747	34139.725
2732.06276	34197.825
2734.65644	34185.625
2737.24852	34201.825
2739.83899	34171.425
2742.42786	34270.125
2745.01513	34192.925
2747.60079	34185.325
2750.18486	34075.925
2752.76733	34114.425
2755.3482	34061.925
2757.92747	34034.825
2760.50515	34024.225
2763.08123	33991.125
2765.65573	34005.725
2768.22863	33994.725
2770.79994	33958.725
2773.36967	33970.525
2775.9378	33975.525
2778.50435	33957.025
2781.06932	33932.325
2783.6327	33912.725
2786.1945	33881.625
2788.75471	33852.425
2791.31335	33810.125
2793.87041	33774.325
2796.42589	33670.625
2798.97979	33664.325
2801.53212	33572.625
2804.08288	33566.425
2806.63206	33483.225
2809.17967	33394.825
2811.72571	33289.325
2814.27018	33175.125
2816.81308	33129.225
2819.35442	33071.325
2821.89419	33067.925
2824.43239	33063.825
2826.96904	33068.925
2829.50412	33054.325
2832.03763	32984.925
2834.56959	32953.225
2837.1	32911.025
2839.62884	32847.025
2842.15613	32768.425
2844.68186	32751.925
2847.20604	32750.725
2849.72867	32730.725
2852.24974	32664.425
2854.76927	32627.325
2857.28724	32598.125
2859.80367	32626.825
2862.31855	32558.825
2864.83189	32482.925
2867.34368	32490.325
2869.85393	32489.625
2872.36264	32494.125
2874.8698	32451.025
2877.37543	32415.225
2879.87952	32409.325
2882.38207	32390.525
2884.88308	32411.525
2887.38256	32397.025
2889.88051	32406.625
2892.37692	32477.825
2894.8718	32402.525
2897.36515	32539.925
2899.85698	32511.025
2902.34727	32579.925
2904.83604	32490.525
2907.32328	32585.625
2909.809	32637.425
2912.29319	32642.225
2914.77587	32621.725
2917.25702	32648.825
2919.73665	32607.525
2922.21476	32591.625
2924.69136	32550.925
2927.16644	32568.025
2929.64	32437.925
2932.11205	32436.625
2934.58258	32359.725
2937.05161	32451.125
2939.51912	32457.425
2941.98513	32425.825
2944.44962	32399.325
2946.91261	32312.425
2949.37409	32387.925
2951.83407	32359.125
2954.29254	32354.125
2956.74951	32333.925
2959.20498	32343.825
2961.65895	32300.625
2964.11142	32345.025
2966.56239	32260.725
2969.01186	32265.825
2971.45984	32177.025
2973.90632	32133.225
2976.35131	32067.525
2978.7948	32051.325
2981.23681	31970.325
2983.67732	31960.325
2986.11635	31899.925
2988.55388	31808.125
2990.98993	31769.125
2993.4245	31733.125
2995.85758	31677.425
2998.28917	31615.825
3000.71928	31533.725
3003.14791	31499.925
3005.57506	31469.625
3008.00073	31337.625
3010.42493	31380.425
3012.84764	31260.725
3015.26888	31258.425
3017.68865	31262.025
3020.10694	31200.125
3022.52376	31143.725
3024.9391	31142.025
3027.35298	31090.325
3029.76539	31050.825
3032.17632	30997.625
3034.5858	30999.625
3036.9938	30937.125
3039.40034	30905.525
3041.80542	30897.025
3044.20903	30823.025
3046.61118	30852.225
3049.01187	30696.225
3051.4111	30697.925
3053.80888	30592.725
3056.20519	30567.525
3058.60005	30508.725
3060.99345	30483.625
3063.3854	30428.625
3065.7759	30258.725
3068.16494	30224.225
3070.55254	30125.525
3072.93868	30091.825
3075.32338	29957.225
3077.70662	29939.325
3080.08842	29838.425
3082.46878	29816.125
3084.84769	29781.525
3087.22515	29754.825
3089.60118	29729.225
3091.97576	29710.225
3094.3489	29699.925
3096.72061	29679.125
3099.09087	29725.025
3101.4597	29712.125
3103.82709	29693.525
3106.19305	29679.225
3108.55757	29667.725
3110.92066	29643.225
3113.28232	29564.925
3115.64255	29472.125
3118.00134	29420.525
3120.35871	29313.325
3122.71466	29257.225
3125.06917	29229.425
