Data from AgNPs_FTO_APTES_UA_20uM_CRN_5uM_R6G_10uM_NaF_0.1M_Addition_RamanShift__17__13-51-42-155.txt Node

Date: Thu Feb 17 13:51:42 GMT 2022
User: TCL
Spectrometer: QEP01345
Trigger mode: 4
Integration Time (sec): 7.000000E0
Scans to average: 10
Electric dark correction enabled: true
Nonlinearity correction enabled: false
Boxcar width: 0
XAxis mode: Raman Shifts
Number of Pixels in Spectrum: 1044
>>>>>Begin Spectral Data<<<<<
46.04893	-0.55
50.45542	-0.45
54.85868	-3.65
59.25871	-1.55
63.6555	126.05
68.04907	127.25
72.43941	132.75
76.82654	136.65
81.21044	137.75
85.59113	143.05
89.96862	148.25
94.34289	149.55
98.71396	156.95
103.08183	164.55
107.4465	170.65
111.80798	169.65
116.16626	179.65
120.52136	187.75
124.87327	197.15
129.222	211.75
133.56755	222.55
137.90993	239.55
142.24913	269.15
146.58517	305.05
150.91804	364.15
155.24774	436.75
159.57429	550.25
163.89768	710.25
168.21792	951.05
172.53501	1327.65
176.84895	1854.35
181.15975	2627.35
185.46741	3697.65
189.77193	5116.65
194.07331	6879.45
198.37157	8893.95
202.6667	11035.95
206.9587	13124.05
211.24758	15152.75
215.53334	17224.45
219.81599	19412.35
224.09553	21783.45
228.37195	24374.95
232.64527	27316.05
236.91549	30383.95
241.18261	33531.45
245.44663	36568.25
249.70755	39293.25
253.96539	41749.45
258.22014	43805.35
262.4718	45452.85
266.72039	46714.15
270.96589	47443.05
275.20832	47586.55
279.44768	47408.65
283.68397	47046.45
287.91719	46656.75
292.14735	46392.45
296.37445	46334.25
300.59849	46360.55
304.81948	46403.55
309.03742	46287.35
313.25231	45897.35
317.46415	45183.85
321.67296	44349.65
325.87872	43742.45
330.08145	43457.95
334.28114	43550.25
338.47781	43896.75
342.67145	44345.05
346.86207	45044.55
351.04966	45837.05
355.23424	46587.45
359.4158	47287.25
363.59435	47869.85
367.76989	48249.95
371.94243	48585.65
376.11196	48904.45
380.27849	49199.45
384.44203	49467.25
388.60257	49898.95
392.76012	50238.85
396.91468	50710.55
401.06626	51357.45
405.21485	51793.05
409.36047	51783.95
413.50311	51300.95
417.64277	50895.35
421.77947	50782.65
425.9132	51020.75
430.04396	51278.65
434.17176	51680.15
438.2966	52188.05
442.41849	53005.95
446.53742	54194.35
450.6534	55518.95
454.76644	56534.75
458.87653	57003.65
462.98368	56801.85
467.08789	56264.85
471.18916	55718.75
475.2875	55201.05
479.38291	54994.15
483.4754	54677.55
487.56496	54186.35
491.6516	53561.05
495.73531	52997.05
499.81612	52644.25
503.89401	52870.65
507.96899	53031.55
512.04106	52930.55
516.11023	52664.05
520.1765	52384.55
524.23987	52215.15
528.30034	52021.75
532.35792	51745.15
536.41261	51330.85
540.46441	51114.75
544.51333	51160.95
548.55936	51585.25
552.60252	52517.05
556.64279	53447.75
560.6802	54263.25
564.71473	54655.35
568.7464	55267.95
572.7752	56266.65
576.80114	57118.85
580.82422	57823.15
584.84444	58577.75
588.86181	59390.65
592.87633	60132.75
596.888	60162.35
600.89682	59727.55
604.9028	60796.85
608.90594	64336.55
612.90624	67796.65
616.90371	64384.95
620.89834	56861.65
624.89015	53677.05
628.87913	53269.85
632.86528	53357.85
636.84862	53264.75
640.82913	52798.25
644.80683	51860.85
648.78172	51157.25
652.75379	51023.25
656.72306	51599.65
660.68952	52287.25
664.65319	52160.35
668.61405	51481.25
672.57211	51389.25
676.52738	51566.35
680.47986	51495.35
684.42955	51369.65
688.37646	51290.55
692.32058	51533.35
696.26192	52024.45
700.20048	52547.15
704.13626	52937.75
708.06928	52870.65
711.99952	52584.45
715.927	52457.75
719.85171	52616.95
723.77365	52537.45
727.69284	52257.35
731.60928	51963.55
735.52295	51730.25
739.43388	51763.45
743.34206	51968.65
747.24749	52175.55
751.15017	52464.85
755.05012	53068.35
758.94733	54145.95
762.8418	56053.45
766.73354	59106.15
770.62254	61888.15
774.50882	62315.75
778.39237	60168.85
782.27321	57004.75
786.15132	54347.15
790.02671	52798.35
793.89938	51972.25
797.76935	51643.55
801.6366	51591.45
805.50115	51481.85
809.36299	51317.45
813.22213	51060.05
817.07857	50937.65
820.93231	50937.95
824.78336	50816.35
828.63172	50753.05
832.47738	50701.05
836.32036	50716.75
840.16066	50888.75
843.99827	50949.15
847.8332	50975.05
851.66546	50888.15
855.49504	50847.65
859.32195	50901.85
863.1462	50883.95
866.96777	50786.35
870.78668	50764.75
874.60293	50790.35
878.41652	50840.25
882.22745	50962.95
886.03573	51000.55
889.84136	50955.15
893.64433	50805.95
897.44466	50583.25
901.24235	50479.85
905.0374	50406.25
908.8298	50307.85
912.61957	50374.45
916.40671	50684.85
920.19121	51116.35
923.97308	51512.55
927.75233	51537.75
931.52895	51166.55
935.30295	50750.35
939.07433	50178.25
942.84309	49745.95
946.60924	49535.95
950.37278	49530.35
954.13371	49605.45
957.89203	49509.65
961.64774	49466.95
965.40086	49297.15
969.15137	49161.15
972.89929	49106.25
976.64461	48921.45
980.38733	48968.05
984.12747	49099.15
987.86502	49453.45
991.59999	49970.25
995.33237	50608.35
999.06217	51475.55
1002.78939	52560.05
1006.51404	53380.35
1010.23611	53939.05
1013.95561	54282.35
1017.67255	54338.15
1021.38692	53918.25
1025.09872	53428.85
1028.80796	53293.25
1032.51465	53783.35
1036.21877	54290.45
1039.92035	54363.35
1043.61937	54043.55
1047.31584	53480.45
1051.00976	52855.05
1054.70114	52679.75
1058.38998	52822.45
1062.07627	53107.95
1065.76003	53535.45
1069.44126	53862.55
1073.11995	54474.25
1076.79611	55020.35
1080.46974	55415.25
1084.14085	55746.15
1087.80943	56210.95
1091.47549	56514.65
1095.13903	56522.95
1098.80005	55952.85
1102.45857	55237.65
1106.11456	54759.25
1109.76805	54627.05
1113.41903	54784.95
1117.06751	55001.05
1120.71348	55407.45
1124.35696	55731.25
1127.99793	56058.25
1131.63641	56147.85
1135.2724	56010.45
1138.90589	55647.35
1142.5369	55559.05
1146.16542	55632.55
1149.79145	55930.05
1153.415	56275.75
1157.03607	56899.25
1160.65467	58011.55
1164.27079	59741.95
1167.88443	62027.15
1171.49561	64943.75
1175.10432	68569.05
1178.71056	72951.25
1182.31434	77189.65
1185.91565	79268.25
1189.51451	78994.95
1193.11091	77201.75
1196.70485	74771.45
1200.29634	72472.65
1203.88538	70596.95
1207.47197	69318.75
1211.05612	68159.75
1214.63782	67095.25
1218.21708	66284.95
1221.79391	65814.85
1225.36829	65551.15
1228.94024	64913.45
1232.50976	63768.25
1236.07685	62859.55
1239.6415	62406.25
1243.20374	62358.75
1246.76355	62767.45
1250.32093	63390.65
1253.8759	64371.65
1257.42845	65674.95
1260.97859	66984.65
1264.52631	68317.55
1268.07163	69791.55
1271.61453	71329.25
1275.15503	72891.75
1278.69312	74484.75
1282.22882	75971.35
1285.76211	77523.25
1289.29301	79356.95
1292.82151	81610.45
1296.34761	84728.85
1299.87133	88429.05
1303.39266	92706.85
1306.9116	97288.25
1310.42815	101609.95
1313.94233	104554.85
1317.45412	105086.85
1320.96354	104012.95
1324.47058	102678.95
1327.97525	101228.65
1331.47754	100023.35
1334.97747	99352.15
1338.47502	99221.85
1341.97022	99144.35
1345.46305	98589.85
1348.95352	97445.85
1352.44163	96362.75
1355.92738	96707.75
1359.41078	98828.85
1362.89183	100804.45
1366.37053	99061.05
1369.84688	92589.35
1373.32088	84960.75
1376.79254	79761.25
1380.26186	77641.65
1383.72883	77358.35
1387.19347	77427.85
1390.65578	77204.65
1394.11575	77141.85
1397.57339	77740.45
1401.0287	78995.25
1404.48168	80128.05
1407.93234	80353.25
1411.38068	79541.55
1414.82669	77659.75
1418.27039	75209.25
1421.71177	72594.45
1425.15083	70433.35
1428.58758	69280.45
1432.02203	69471.55
1435.45416	70749.35
1438.88399	72397.55
1442.31151	73801.95
1445.73673	74933.45
1449.15965	75754.55
1452.58027	76246.65
1455.9986	76551.95
1459.41463	77046.95
1462.82837	77987.55
1466.23982	79215.95
1469.64898	80301.85
1473.05586	81022.55
1476.46045	81082.25
1479.86276	80531.85
1483.26279	79569.55
1486.66054	78854.35
1490.05602	78855.15
1493.44922	79085.55
1496.84016	79355.75
1500.22882	80224.25
1503.61521	81953.45
1506.99934	84300.95
1510.38121	86106.75
1513.76081	86193.25
1517.13816	84400.15
1520.51324	81915.95
1523.88607	79798.25
1527.25665	78898.45
1530.62498	78860.45
1533.99105	79087.25
1537.35488	78870.95
1540.71647	78210.05
1544.07581	77117.25
1547.4329	75864.35
1550.78776	74653.45
1554.14038	73655.15
1557.49077	73084.75
1560.83892	72829.65
1564.18484	72677.15
1567.52853	72724.05
1570.86999	73102.75
1574.20922	73746.05
1577.54624	74371.95
1580.88103	74224.55
1584.2136	74430.05
1587.54395	76017.85
1590.87208	79026.55
1594.19801	83238.25
1597.52172	87481.75
1600.84321	88953.65
1604.16251	86180.95
1607.47959	81177.05
1610.79447	75748.25
1614.10715	70540.05
1617.41763	66107.65
1620.7259	62974.15
1624.03199	61194.95
1627.33587	60946.55
1630.63757	62103.55
1633.93707	65032.05
1637.23439	70066.95
1640.52951	77154.45
1643.82246	85028.55
1647.11321	90871.45
1650.40179	91200.85
1653.68819	85566.85
1656.97241	76310.15
1660.25446	67402.65
1663.53433	60728.25
1666.81203	56535.85
1670.08756	53767.25
1673.36092	52072.85
1676.63211	50852.35
1679.90115	50017.45
1683.16801	49348.05
1686.43272	48846.65
1689.69527	48552.25
1692.95567	48239.95
1696.2139	48121.85
1699.46999	48021.65
1702.72392	47878.75
1705.97571	47733.85
1709.22535	47635.35
1712.47284	47613.15
1715.71819	47555.55
1718.96139	47480.85
1722.20246	47316.45
1725.44139	47167.05
1728.67818	46954.05
1731.91284	46727.45
1735.14537	46569.95
1738.37576	46361.15
1741.60403	46241.05
1744.83017	46053.65
1748.05418	45936.45
1751.27607	45839.05
1754.49584	45775.55
1757.71349	45815.35
1760.92903	45761.05
1764.14244	45733.25
1767.35375	45652.15
1770.56294	45586.95
1773.77002	45583.95
1776.97499	45537.95
1780.17785	45470.15
1783.37861	45359.65
1786.57727	45332.15
1789.77382	45216.85
1792.96828	45197.65
1796.16064	45140.25
1799.3509	45049.15
1802.53907	44979.05
1805.72514	44785.65
1808.90913	44746.95
1812.09102	44683.95
1815.27083	44592.15
1818.44856	44568.75
1821.6242	44435.45
1824.79776	44420.55
1827.96924	44415.85
1831.13864	44359.35
1834.30597	44404.05
1837.47122	44314.25
1840.6344	44271.15
1843.7955	44255.25
1846.95454	44248.25
1850.11151	44261.75
1853.26642	44238.95
1856.41926	44191.15
1859.57004	44090.45
1862.71876	44087.15
1865.86542	44082.15
1869.01003	43971.95
1872.15258	43974.95
1875.29308	43922.55
1878.43152	43885.35
1881.56792	43851.55
1884.70227	43876.55
1887.83457	43834.55
1890.96482	43851.45
1894.09304	43758.45
1897.21921	43728.65
1900.34335	43649.95
1903.46544	43552.55
1906.58551	43577.15
1909.70353	43562.45
1912.81953	43492.15
1915.93349	43413.15
1919.04543	43320.15
1922.15534	43289.15
1925.26322	43254.35
1928.36908	43140.35
1931.47292	43087.15
1934.57473	42967.75
1937.67453	42861.25
1940.77232	42808.45
1943.86808	42665.75
1946.96184	42571.15
1950.05358	42427.55
1953.14331	42281.45
1956.23103	42199.45
1959.31675	42112.55
1962.40046	42000.45
1965.48217	41803.05
1968.56188	41658.95
1971.63959	41563.95
1974.7153	41462.45
1977.78901	41389.85
1980.86073	41208.95
1983.93046	41157.85
1986.99819	41046.65
1990.06394	40928.45
1993.1277	40834.15
1996.18947	40698.55
1999.24925	40618.85
2002.30706	40536.15
2005.36288	40418.05
2008.41672	40252.85
2011.46859	40187.65
2014.51848	40041.65
2017.56639	39926.25
2020.61233	39831.85
2023.6563	39729.65
2026.6983	39662.25
2029.73833	39539.45
2032.7764	39435.05
2035.8125	39441.45
2038.84664	39342.35
2041.87881	39332.95
2044.90903	39265.35
2047.93729	39231.95
2050.96359	39198.45
2053.98794	39109.95
2057.01034	39096.25
2060.03078	39094.25
2063.04927	39074.25
2066.06582	39031.65
2069.08042	38990.35
2072.09307	38954.45
2075.10378	38881.75
2078.11255	38836.35
2081.11938	38880.45
2084.12426	38875.55
2087.12722	38834.75
2090.12824	38786.15
2093.12732	38824.15
2096.12447	38830.15
2099.11969	38804.15
2102.11299	38743.15
2105.10435	38831.45
2108.09379	38813.95
2111.08131	38856.55
2114.0669	38810.05
2117.05057	38876.45
2120.03233	38937.85
2123.01216	38985.75
2125.99008	39067.65
2128.96609	39039.75
2131.94018	39147.85
2134.91236	39136.75
2137.88263	39164.75
2140.851	39153.95
2143.81746	39167.05
2146.78201	39181.55
2149.74466	39258.15
2152.7054	39256.15
2155.66425	39211.95
2158.6212	39218.95
2161.57625	39211.05
2164.52941	39190.85
2167.48067	39140.25
2170.43004	39172.55
2173.37752	39115.15
2176.32311	39194.45
2179.26681	39168.95
2182.20863	39155.75
2185.14856	39243.05
2188.08661	39220.05
2191.02278	39162.95
2193.95707	39036.45
2196.88948	39098.65
2199.82001	39106.15
2202.74867	39040.75
2205.67545	38982.65
2208.60037	38968.75
2211.52341	38974.15
2214.44458	38955.95
2217.36388	38850.15
2220.28132	38803.05
2223.1969	38718.55
2226.11061	38578.05
2229.02246	38501.75
2231.93245	38478.85
2234.84058	38387.05
2237.74686	38307.85
2240.65128	38283.05
2243.55385	38254.15
2246.45456	38228.15
2249.35343	38207.95
2252.25044	38164.65
2255.14561	38105.05
2258.03893	38064.85
2260.93041	37960.55
2263.82004	37854.75
2266.70783	37778.45
2269.59378	37668.55
2272.4779	37609.75
2275.36017	37559.65
2278.24061	37495.45
2281.11922	37420.65
2283.996	37318.15
2286.87094	37363.05
2289.74405	37311.65
2292.61534	37261.75
2295.4848	37249.55
2298.35243	37232.15
2301.21824	37163.45
2304.08223	37147.55
2306.94439	37177.15
2309.80474	37201.45
2312.66327	37229.85
2315.51999	37184.15
2318.37489	37097.35
2321.22797	37058.25
2324.07925	37080.95
2326.92871	37014.45
2329.77637	36917.35
2332.62222	36936.45
2335.46626	36919.25
2338.3085	36870.15
2341.14893	36835.35
2343.98756	36851.45
2346.8244	36878.55
2349.65943	36809.65
2352.49267	36853.25
2355.32411	36795.05
2358.15376	36760.85
2360.98161	36761.65
2363.80768	36711.95
2366.63195	36688.55
2369.45444	36698.55
2372.27514	36613.65
2375.09405	36583.75
2377.91118	36492.65
2380.72652	36386.25
2383.54009	36311.65
2386.35187	36260.95
2389.16188	36180.35
2391.97011	36091.75
2394.77657	36013.65
2397.58125	35965.95
2400.38416	35935.85
2403.18529	35899.45
2405.98466	35851.65
2408.78226	35759.85
2411.57809	35757.45
2414.37216	35708.05
2417.16446	35680.35
2419.955	35612.85
2422.74378	35626.95
2425.5308	35561.75
2428.31606	35591.85
2431.09956	35526.95
2433.88131	35473.85
2436.6613	35534.55
2439.43954	35538.25
2442.21603	35479.55
2444.99077	35442.75
2447.76377	35390.45
2450.53501	35348.25
2453.30451	35390.65
2456.07226	35361.05
2458.83827	35336.55
2461.60254	35250.35
2464.36507	35301.75
2467.12586	35298.75
2469.88492	35290.75
2472.64224	35271.25
2475.39782	35270.45
2478.15167	35282.95
2480.90379	35301.15
2483.65417	35355.55
2486.40283	35364.35
2489.14976	35331.95
2491.89497	35294.55
2494.63845	35330.55
2497.3802	35289.65
2500.12024	35315.05
2502.85855	35200.75
2505.59514	35242.75
2508.33002	35137.55
2511.06318	35128.15
2513.79462	35136.45
2516.52435	35069.85
2519.25237	34999.15
2521.97867	35007.35
2524.70327	35015.05
2527.42616	34987.85
2530.14734	35002.95
2532.86681	34898.45
2535.58458	34925.25
2538.30065	34832.45
2541.01501	34856.35
2543.72768	34836.95
2546.43864	34818.85
2549.14791	34778.85
2551.85548	34760.45
2554.56136	34667.45
2557.26554	34539.45
2559.96803	34508.85
2562.66883	34517.25
2565.36794	34466.05
2568.06536	34454.75
2570.7611	34374.15
2573.45514	34325.05
2576.14751	34296.55
2578.83819	34238.15
2581.52719	34241.05
2584.21451	34189.95
2586.90015	34230.05
2589.58411	34147.35
2592.2664	34153.05
2594.94701	34131.55
2597.62594	34102.95
2600.30321	34070.65
2602.9788	34056.25
2605.65273	34027.55
2608.32498	34016.45
2610.99557	34002.15
2613.66449	33983.95
2616.33175	33954.55
2618.99734	33932.45
2621.66128	33867.35
2624.32355	33851.05
2626.98416	33905.55
2629.64311	33857.65
2632.30041	33872.15
2634.95605	33837.55
2637.61004	33838.25
2640.26238	33740.45
2642.91306	33712.35
2645.56209	33665.05
2648.20948	33667.45
2650.85521	33634.05
2653.4993	33661.65
2656.14175	33640.55
2658.78255	33702.55
2661.42171	33698.45
2664.05923	33750.75
2666.6951	33709.55
2669.32934	33721.85
2671.96194	33759.95
2674.59291	33755.85
2677.22224	33739.75
2679.84993	33792.75
2682.476	33699.55
2685.10043	33674.05
2687.72324	33615.75
2690.34441	33642.35
2692.96396	33617.05
2695.58188	33656.15
2698.19818	33578.75
2700.81285	33610.05
2703.4259	33576.65
2706.03733	33628.75
2708.64714	33598.45
2711.25533	33643.45
2713.86191	33661.05
2716.46687	33728.35
2719.07021	33690.45
2721.67194	33736.15
2724.27206	33647.35
2726.87057	33687.55
2729.46747	33687.85
2732.06276	33722.15
2734.65644	33681.45
2737.24852	33758.85
2739.83899	33693.85
2742.42786	33730.85
2745.01513	33643.45
2747.60079	33681.25
2750.18486	33612.65
2752.76733	33643.85
2755.3482	33536.35
2757.92747	33519.15
2760.50515	33465.25
2763.08123	33489.05
2765.65573	33480.95
2768.22863	33524.05
2770.79994	33433.85
2773.36967	33408.75
2775.9378	33463.95
2778.50435	33481.05
2781.06932	33416.85
2783.6327	33394.25
2786.1945	33351.85
2788.75471	33352.95
2791.31335	33248.35
2793.87041	33211.75
2796.42589	33137.55
2798.97979	33098.35
2801.53212	33019.15
2804.08288	32950.55
2806.63206	32895.65
2809.17967	32835.05
2811.72571	32759.45
2814.27018	32629.95
2816.81308	32562.15
2819.35442	32499.55
2821.89419	32467.65
2824.43239	32437.15
2826.96904	32453.55
2829.50412	32433.35
2832.03763	32338.85
2834.56959	32308.05
2837.1	32234.25
2839.62884	32178.55
2842.15613	32129.05
2844.68186	32166.35
2847.20604	32151.35
2849.72867	32112.35
2852.24974	32047.75
2854.76927	32038.05
2857.28724	32021.95
2859.80367	31985.15
2862.31855	31934.95
2864.83189	31901.35
2867.34368	31826.55
2869.85393	31875.45
2872.36264	31838.95
2874.8698	31779.45
2877.37543	31783.35
2879.87952	31705.15
2882.38207	31707.85
2884.88308	31719.55
2887.38256	31757.35
2889.88051	31752.25
2892.37692	31768.95
2894.8718	31786.95
2897.36515	31824.25
2899.85698	31787.55
2902.34727	31877.85
2904.83604	31838.45
2907.32328	31874.85
2909.809	31917.75
2912.29319	31942.65
2914.77587	31968.45
2917.25702	31974.65
2919.73665	31880.35
2922.21476	31900.55
2924.69136	31863.35
2927.16644	31812.45
2929.64	31751.05
2932.11205	31781.05
2934.58258	31649.85
2937.05161	31778.65
2939.51912	31724.55
2941.98513	31695.95
2944.44962	31661.85
2946.91261	31594.15
2949.37409	31648.65
2951.83407	31602.25
2954.29254	31606.55
2956.74951	31563.75
2959.20498	31604.65
2961.65895	31516.35
2964.11142	31572.05
2966.56239	31539.65
2969.01186	31530.05
2971.45984	31412.05
2973.90632	31379.75
2976.35131	31323.05
2978.7948	31287.75
2981.23681	31232.95
2983.67732	31161.45
2986.11635	31095.75
2988.55388	31037.55
2990.98993	30994.55
2993.4245	30930.05
2995.85758	30878.35
2998.28917	30769.95
3000.71928	30734.85
3003.14791	30660.25
3005.57506	30659.45
3008.00073	30562.85
3010.42493	30544.85
3012.84764	30423.75
3015.26888	30394.85
3017.68865	30386.45
3020.10694	30311.55
3022.52376	30224.55
3024.9391	30248.35
3027.35298	30229.05
3029.76539	30161.85
3032.17632	30153.15
3034.5858	30125.35
3036.9938	30090.45
3039.40034	30091.95
3041.80542	30087.15
3044.20903	29963.05
3046.61118	29931.35
3049.01187	29908.85
3051.4111	29758.95
3053.80888	29708.95
3056.20519	29692.85
3058.60005	29595.75
3060.99345	29594.25
3063.3854	29498.85
3065.7759	29437.55
3068.16494	29331.65
3070.55254	29236.65
3072.93868	29181.25
3075.32338	29073.85
3077.70662	29002.15
3080.08842	28923.95
3082.46878	28854.75
3084.84769	28865.25
3087.22515	28861.15
3089.60118	28841.55
3091.97576	28773.85
3094.3489	28745.95
3096.72061	28752.95
3099.09087	28781.25
3101.4597	28795.75
3103.82709	28766.75
3106.19305	28699.65
3108.55757	28697.85
3110.92066	28655.75
3113.28232	28614.75
3115.64255	28538.45
3118.00134	28474.55
3120.35871	28347.35
3122.71466	28260.65
3125.06917	28233.55
3127.42226	28182.25
3129.77393	28175.25
3132.12417	28135.45
3134.47299	28063.45
3136.82039	28061.35
3139.16636	28058.45
3141.51092	28014.65
3143.85406	28031.45
3146.19579	28013.75
3148.53609	28045.75
3150.87499	28036.55
3153.21246	28039.55
3155.54853	28062.85
3157.88318	28048.55
3160.21642	28037.65
3162.54826	28004.15
3164.87868	27982.35
3167.2077	27918.95
3169.5353	27881.15
3171.86151	27917.35
3174.18631	27890.95
3176.5097	27859.85
3178.83169	27782.25
3181.15228	27846.75
3183.47147	27699.45
3185.78926	27715.95
3188.10565	27728.35
3190.42065	27660.75
3192.73424	27635.55
3195.04645	27573.15
3197.35725	27571.45
3199.66667	27525.65
3201.97469	27568.65
3204.28132	27491.75
3206.58656	27482.85
3208.8904	27497.15
3211.19287	27502.15
3213.49394	27506.75
3215.79363	27510.85
3218.09193	27507.25
3220.38884	27558.65
3222.68438	27528.95
3224.97853	27437.15
3227.2713	27430.95
3229.56269	27392.25
3231.8527	27415.55
3234.14133	27386.75
3236.42858	27265.25
