Data from AgNPs_FTO_APTES_UA_20uM_CRN_0uM_R6G_10uM_NaF_0.1M_Addition_RamanShift__54__11-52-41-999.txt Node

Date: Thu Feb 17 11:52:41 GMT 2022
User: TCL
Spectrometer: QEP01345
Trigger mode: 4
Integration Time (sec): 7.000000E0
Scans to average: 10
Electric dark correction enabled: true
Nonlinearity correction enabled: false
Boxcar width: 0
XAxis mode: Raman Shifts
Number of Pixels in Spectrum: 1044
>>>>>Begin Spectral Data<<<<<
46.04893	-1.55
50.45542	-0.75
54.85868	-2.75
59.25871	-0.45
63.6555	101.75
68.04907	104.95
72.43941	110.45
76.82654	113.45
81.21044	115.05
85.59113	120.75
89.96862	119.55
94.34289	123.45
98.71396	131.15
103.08183	132.55
107.4465	134.85
111.80798	138.65
116.16626	145.45
120.52136	150.75
124.87327	158.15
129.222	164.95
133.56755	177.35
137.90993	186.85
142.24913	211.35
146.58517	236.85
150.91804	273.35
155.24774	321.85
159.57429	403.25
163.89768	515.95
168.21792	694.25
172.53501	948.15
176.84895	1316.05
181.15975	1846.75
185.46741	2605.75
189.77193	3602.05
194.07331	4836.75
198.37157	6253.75
202.6667	7743.75
206.9587	9219.55
211.24758	10700.45
215.53334	12172.65
219.81599	13787.45
224.09553	15584.95
228.37195	17560.35
232.64527	19736.25
236.91549	22049.15
241.18261	24256.45
245.44663	26309.25
249.70755	28115.25
253.96539	29802.05
258.22014	31170.35
262.4718	32263.95
266.72039	33065.75
270.96589	33451.75
275.20832	33532.15
279.44768	33263.95
283.68397	32990.85
287.91719	32700.25
292.14735	32653.15
296.37445	32784.05
300.59849	33154.45
304.81948	33654.85
309.03742	34109.15
313.25231	33935.35
317.46415	33106.25
321.67296	31906.65
325.87872	30821.85
330.08145	30434.05
334.28114	30528.65
338.47781	30911.55
342.67145	31541.05
346.86207	32364.05
351.04966	33472.15
355.23424	34710.55
359.4158	35771.25
363.59435	36367.65
367.76989	36695.45
371.94243	36841.05
376.11196	36980.55
380.27849	37056.05
384.44203	37151.65
388.60257	37164.35
392.76012	37240.25
396.91468	37684.65
401.06626	38481.95
405.21485	39135.35
409.36047	39113.15
413.50311	38484.75
417.64277	37903.25
421.77947	37780.25
425.9132	37850.65
430.04396	38175.35
434.17176	38489.95
438.2966	39007.05
442.41849	39885.35
446.53742	41132.75
450.6534	42569.35
454.76644	43662.65
458.87653	44021.35
462.98368	43643.55
467.08789	42834.05
471.18916	41738.65
475.2875	40757.35
479.38291	40064.85
483.4754	39621.55
487.56496	39219.55
491.6516	38755.75
495.73531	38384.85
499.81612	38248.55
503.89401	38471.15
507.96899	38697.25
512.04106	38741.85
516.11023	38791.65
520.1765	38845.05
524.23987	38808.15
528.30034	38582.35
532.35792	38178.05
536.41261	37728.05
540.46441	37292.35
544.51333	37200.15
548.55936	37508.95
552.60252	38111.55
556.64279	38923.95
560.6802	39379.95
564.71473	39808.95
568.7464	40812.05
572.7752	41835.35
576.80114	41873.95
580.82422	41743.15
584.84444	41956.95
588.86181	42458.95
592.87633	43211.55
596.888	43642.95
600.89682	43872.35
604.9028	46025.55
608.90594	52391.75
612.90624	59443.55
616.90371	56725.55
620.89834	46451.55
624.89015	41970.55
628.87913	41389.95
632.86528	41035.55
636.84862	40429.55
640.82913	39512.85
644.80683	38463.75
648.78172	37698.25
652.75379	37798.55
656.72306	38626.05
660.68952	39814.85
664.65319	39757.15
668.61405	39016.65
672.57211	38590.95
676.52738	38570.65
680.47986	38561.45
684.42955	38456.05
688.37646	38543.85
692.32058	38796.05
696.26192	39187.55
700.20048	39619.55
704.13626	39850.65
708.06928	39692.05
711.99952	39323.25
715.927	39250.15
719.85171	39386.05
723.77365	39285.15
727.69284	38941.05
731.60928	38676.45
735.52295	38688.85
739.43388	38895.95
743.34206	39159.45
747.24749	39468.35
751.15017	39942.45
755.05012	40852.85
758.94733	41985.25
762.8418	44317.15
766.73354	47890.05
770.62254	51382.45
774.50882	52550.95
778.39237	50598.15
782.27321	46727.65
786.15132	43142.25
790.02671	41047.85
793.89938	40122.15
797.76935	39819.45
801.6366	39741.95
805.50115	39648.15
809.36299	39409.65
813.22213	39170.15
817.07857	39174.65
820.93231	39192.15
824.78336	39266.85
828.63172	39402.75
832.47738	39571.85
836.32036	39806.45
840.16066	40000.15
843.99827	40189.25
847.8332	40109.45
851.66546	39902.65
855.49504	39719.75
859.32195	39686.05
863.1462	39520.15
866.96777	39329.75
870.78668	39238.85
874.60293	39281.45
878.41652	39341.35
882.22745	39558.65
886.03573	39726.85
889.84136	39705.15
893.64433	39458.35
897.44466	39344.65
901.24235	39294.35
905.0374	39234.95
908.8298	39191.05
912.61957	39261.75
916.40671	39673.95
920.19121	40216.45
923.97308	40873.95
927.75233	41296.95
931.52895	41336.75
935.30295	40882.75
939.07433	40131.35
942.84309	39604.35
946.60924	39468.85
950.37278	39302.85
954.13371	38985.95
957.89203	38641.45
961.64774	38503.15
965.40086	38366.35
969.15137	38249.25
972.89929	38140.15
976.64461	38082.65
980.38733	38176.15
984.12747	38420.75
987.86502	38816.35
991.59999	39424.95
995.33237	40520.35
999.06217	42393.85
1002.78939	44405.45
1006.51404	45628.95
1010.23611	46090.15
1013.95561	46490.25
1017.67255	46584.05
1021.38692	46146.75
1025.09872	45970.35
1028.80796	47033.15
1032.51465	49347.75
1036.21877	51204.95
1039.92035	51315.85
1043.61937	50026.05
1047.31584	47783.75
1051.00976	45471.95
1054.70114	44173.45
1058.38998	43673.55
1062.07627	43615.75
1065.76003	43606.05
1069.44126	43705.25
1073.11995	44045.55
1076.79611	44359.15
1080.46974	44640.15
1084.14085	45248.05
1087.80943	45891.95
1091.47549	45925.65
1095.13903	45394.65
1098.80005	44538.45
1102.45857	43793.15
1106.11456	43474.85
1109.76805	43584.65
1113.41903	44088.85
1117.06751	44673.35
1120.71348	45397.55
1124.35696	46105.75
1127.99793	46670.15
1131.63641	46534.85
1135.2724	45779.75
1138.90589	45053.15
1142.5369	44629.45
1146.16542	44353.15
1149.79145	44259.75
1153.415	44557.75
1157.03607	44982.75
1160.65467	45707.05
1164.27079	46942.35
1167.88443	48907.65
1171.49561	51773.85
1175.10432	55945.05
1178.71056	61336.75
1182.31434	66089.95
1185.91565	68649.45
1189.51451	68492.15
1193.11091	65836.55
1196.70485	62301.35
1200.29634	59294.95
1203.88538	57075.15
1207.47197	55137.85
1211.05612	53667.15
1214.63782	53033.45
1218.21708	53385.05
1221.79391	53959.25
1225.36829	54107.85
1228.94024	53537.25
1232.50976	52375.05
1236.07685	51598.95
1239.6415	51424.35
1243.20374	51594.35
1246.76355	52034.65
1250.32093	52863.75
1253.8759	54305.15
1257.42845	55987.15
1260.97859	57467.25
1264.52631	58509.55
1268.07163	59697.55
1271.61453	61225.55
1275.15503	63107.65
1278.69312	65110.45
1282.22882	66706.25
1285.76211	67948.75
1289.29301	69078.55
1292.82151	70450.15
1296.34761	72492.95
1299.87133	75800.55
1303.39266	80582.75
1306.9116	86978.75
1310.42815	93814.45
1313.94233	97775.95
1317.45412	96947.65
1320.96354	92995.95
1324.47058	88498.95
1327.97525	84710.85
1331.47754	82635.45
1334.97747	82370.85
1338.47502	83560.85
1341.97022	85088.45
1345.46305	85680.25
1348.95352	85280.95
1352.44163	85037.95
1355.92738	87129.85
1359.41078	92717.65
1362.89183	97720.85
1366.37053	94913.45
1369.84688	85334.75
1373.32088	75778.85
1376.79254	69567.05
1380.26186	66248.65
1383.72883	64773.25
1387.19347	63838.25
1390.65578	63042.35
1394.11575	63102.95
1397.57339	63904.15
1401.0287	65268.05
1404.48168	66960.75
1407.93234	68609.75
1411.38068	69833.25
1414.82669	69878.15
1418.27039	68287.75
1421.71177	65824.65
1425.15083	63654.65
1428.58758	62621.65
1432.02203	62673.55
1435.45416	63172.75
1438.88399	63650.85
1442.31151	64008.25
1445.73673	64546.65
1449.15965	65053.55
1452.58027	65196.55
1455.9986	64823.55
1459.41463	64816.15
1462.82837	65374.95
1466.23982	66536.15
1469.64898	67889.15
1473.05586	68800.05
1476.46045	69308.75
1479.86276	70004.95
1483.26279	70698.05
1486.66054	71464.15
1490.05602	72720.05
1493.44922	74141.65
1496.84016	75280.75
1500.22882	76774.45
1503.61521	78901.95
1506.99934	81789.65
1510.38121	84748.35
1513.76081	85857.45
1517.13816	83538.95
1520.51324	78858.35
1523.88607	74365.85
1527.25665	71413.45
1530.62498	69702.25
1533.99105	68651.25
1537.35488	68120.35
1540.71647	67855.85
1544.07581	67646.65
1547.4329	67174.05
1550.78776	66392.35
1554.14038	65808.95
1557.49077	65431.85
1560.83892	65334.85
1564.18484	65318.25
1567.52853	65104.15
1570.86999	64829.45
1574.20922	64808.65
1577.54624	64645.25
1580.88103	63904.05
1584.2136	63523.65
1587.54395	64868.85
1590.87208	68446.75
1594.19801	74093.45
1597.52172	80220.55
1600.84321	83362.45
1604.16251	80923.35
1607.47959	74843.45
1610.79447	67867.65
1614.10715	61868.95
1617.41763	57433.55
1620.7259	54669.25
1624.03199	53494.35
1627.33587	53700.35
1630.63757	55267.45
1633.93707	58144.75
1637.23439	62070.55
1640.52951	66821.75
1643.82246	71840.65
1647.11321	76038.85
1650.40179	76894.85
1653.68819	72730.45
1656.97241	64958.15
1660.25446	57171.25
1663.53433	51597.25
1666.81203	48113.35
1670.08756	46021.55
1673.36092	44672.85
1676.63211	43778.05
1679.90115	43154.95
1683.16801	42603.05
1686.43272	42300.95
1689.69527	42069.75
1692.95567	41878.55
1696.2139	41818.35
1699.46999	41786.25
1702.72392	41722.95
1705.97571	41674.75
1709.22535	41578.55
1712.47284	41636.35
1715.71819	41673.25
1718.96139	41646.85
1722.20246	41561.55
1725.44139	41458.05
1728.67818	41287.75
1731.91284	41074.15
1735.14537	40926.45
1738.37576	40746.05
1741.60403	40734.95
1744.83017	40584.95
1748.05418	40512.25
1751.27607	40465.35
1754.49584	40419.15
1757.71349	40422.85
1760.92903	40442.15
1764.14244	40403.85
1767.35375	40429.25
1770.56294	40358.35
1773.77002	40385.85
1776.97499	40356.35
1780.17785	40337.55
1783.37861	40365.95
1786.57727	40278.75
1789.77382	40275.25
1792.96828	40254.75
1796.16064	40307.95
1799.3509	40233.95
1802.53907	40218.85
1805.72514	40167.55
1808.90913	40110.05
1812.09102	40021.55
1815.27083	39986.15
1818.44856	39910.15
1821.6242	39863.65
1824.79776	39823.85
1827.96924	39781.35
1831.13864	39807.45
1834.30597	39805.65
1837.47122	39778.45
1840.6344	39718.65
1843.7955	39752.35
1846.95454	39743.45
1850.11151	39811.65
1853.26642	39837.35
1856.41926	39848.45
1859.57004	39845.15
1862.71876	39870.95
1865.86542	39904.55
1869.01003	39798.45
1872.15258	39863.75
1875.29308	39938.05
1878.43152	39902.85
1881.56792	39913.95
1884.70227	39926.75
1887.83457	39950.45
1890.96482	39973.25
1894.09304	39917.05
1897.21921	39869.15
1900.34335	39846.75
1903.46544	39892.55
1906.58551	39873.55
1909.70353	39921.15
1912.81953	39864.15
1915.93349	39910.45
1919.04543	39828.15
1922.15534	39794.85
1925.26322	39756.75
1928.36908	39689.75
1931.47292	39667.35
1934.57473	39562.85
1937.67453	39435.05
1940.77232	39381.15
1943.86808	39298.95
1946.96184	39168.25
1950.05358	39063.35
1953.14331	38939.95
1956.23103	38806.45
1959.31675	38774.25
1962.40046	38638.35
1965.48217	38476.75
1968.56188	38447.25
1971.63959	38359.15
1974.7153	38318.95
1977.78901	38122.15
1980.86073	37986.35
1983.93046	37913.75
1986.99819	37851.05
1990.06394	37752.65
1993.1277	37623.95
1996.18947	37554.35
1999.24925	37474.65
2002.30706	37382.15
2005.36288	37269.15
2008.41672	37181.95
2011.46859	37094.05
2014.51848	37039.75
2017.56639	36969.55
2020.61233	36887.05
2023.6563	36813.75
2026.6983	36673.95
2029.73833	36679.45
2032.7764	36636.45
2035.8125	36639.05
2038.84664	36515.15
2041.87881	36529.75
2044.90903	36439.25
2047.93729	36426.55
2050.96359	36399.25
2053.98794	36338.25
2057.01034	36350.45
2060.03078	36378.15
2063.04927	36380.65
2066.06582	36381.95
2069.08042	36294.95
2072.09307	36292.55
2075.10378	36187.95
2078.11255	36111.25
2081.11938	36106.35
2084.12426	36067.05
2087.12722	36053.15
2090.12824	36064.05
2093.12732	36066.75
2096.12447	36041.65
2099.11969	35986.55
2102.11299	36034.25
2105.10435	36092.75
2108.09379	36096.75
2111.08131	36162.75
2114.0669	36112.95
2117.05057	36113.45
2120.03233	36150.75
2123.01216	36174.15
2125.99008	36205.25
2128.96609	36280.25
2131.94018	36294.05
2134.91236	36393.65
2137.88263	36420.45
2140.851	36475.35
2143.81746	36462.25
2146.78201	36497.45
2149.74466	36579.05
2152.7054	36557.05
2155.66425	36572.85
2158.6212	36579.65
2161.57625	36569.75
2164.52941	36585.45
2167.48067	36532.45
2170.43004	36542.85
2173.37752	36574.45
2176.32311	36616.75
2179.26681	36626.05
2182.20863	36610.95
2185.14856	36705.55
2188.08661	36671.55
2191.02278	36714.95
2193.95707	36663.05
2196.88948	36614.65
2199.82001	36712.85
2202.74867	36672.35
2205.67545	36688.85
2208.60037	36684.55
2211.52341	36679.05
2214.44458	36645.65
2217.36388	36644.45
2220.28132	36663.35
2223.1969	36575.35
2226.11061	36559.35
2229.02246	36404.65
2231.93245	36311.95
2234.84058	36296.15
2237.74686	36193.75
2240.65128	36205.85
2243.55385	36168.15
2246.45456	36076.35
2249.35343	36052.35
2252.25044	36061.95
2255.14561	35956.85
2258.03893	36010.45
2260.93041	35927.15
2263.82004	35915.95
2266.70783	35766.75
2269.59378	35680.45
2272.4779	35602.65
2275.36017	35568.75
2278.24061	35513.15
2281.11922	35422.85
2283.996	35366.15
2286.87094	35427.15
2289.74405	35341.55
2292.61534	35333.35
2295.4848	35341.35
2298.35243	35386.25
2301.21824	35389.95
2304.08223	35425.85
2306.94439	35477.35
2309.80474	35520.65
2312.66327	35593.75
2315.51999	35514.65
2318.37489	35558.05
2321.22797	35547.95
2324.07925	35524.95
2326.92871	35491.95
2329.77637	35443.35
2332.62222	35437.65
2335.46626	35472.65
2338.3085	35504.95
2341.14893	35598.15
2343.98756	35608.85
2346.8244	35617.75
2349.65943	35639.45
2352.49267	35688.65
2355.32411	35654.35
2358.15376	35658.05
2360.98161	35643.55
2363.80768	35552.05
2366.63195	35469.85
2369.45444	35403.65
2372.27514	35383.55
2375.09405	35225.15
2377.91118	35139.45
2380.72652	35077.15
2383.54009	34910.35
2386.35187	34870.15
2389.16188	34766.35
2391.97011	34764.85
2394.77657	34771.65
2397.58125	34781.75
2400.38416	34716.15
2403.18529	34571.15
2405.98466	34542.85
2408.78226	34451.75
2411.57809	34391.05
2414.37216	34266.15
2417.16446	34264.45
2419.955	34227.35
2422.74378	34174.55
2425.5308	34137.95
2428.31606	34177.35
2431.09956	34175.05
2433.88131	34189.25
2436.6613	34183.45
2439.43954	34153.35
2442.21603	34152.85
2444.99077	34076.25
2447.76377	34112.55
2450.53501	34055.85
2453.30451	34095.05
2456.07226	34043.75
2458.83827	34066.75
2461.60254	33989.05
2464.36507	34046.55
2467.12586	34077.15
2469.88492	34074.75
2472.64224	34023.45
2475.39782	34067.45
2478.15167	34137.45
2480.90379	34183.15
2483.65417	34235.15
2486.40283	34244.25
2489.14976	34294.25
2491.89497	34285.25
2494.63845	34390.75
2497.3802	34350.85
2500.12024	34369.25
2502.85855	34334.85
2505.59514	34257.05
2508.33002	34252.05
2511.06318	34203.55
2513.79462	34175.35
2516.52435	34136.25
2519.25237	34081.55
2521.97867	34047.85
2524.70327	34045.35
2527.42616	33995.15
2530.14734	33984.35
2532.86681	33929.95
2535.58458	33977.05
2538.30065	33984.75
2541.01501	33966.75
2543.72768	33973.45
2546.43864	33986.75
2549.14791	33907.35
2551.85548	33888.85
2554.56136	33846.75
2557.26554	33739.95
2559.96803	33737.95
2562.66883	33729.85
2565.36794	33722.15
2568.06536	33701.65
2570.7611	33665.55
2573.45514	33668.45
2576.14751	33665.65
2578.83819	33617.35
2581.52719	33677.65
2584.21451	33642.95
2586.90015	33671.75
2589.58411	33589.55
2592.2664	33639.95
2594.94701	33667.75
2597.62594	33708.15
2600.30321	33686.15
2602.9788	33638.65
2605.65273	33680.05
2608.32498	33668.75
2610.99557	33675.55
2613.66449	33664.25
2616.33175	33683.05
2618.99734	33643.65
2621.66128	33709.45
2624.32355	33734.55
2626.98416	33703.05
2629.64311	33724.85
2632.30041	33772.25
2634.95605	33677.05
2637.61004	33679.15
2640.26238	33649.25
2642.91306	33520.85
2645.56209	33509.05
2648.20948	33436.45
2650.85521	33403.05
2653.4993	33401.55
2656.14175	33406.15
2658.78255	33430.15
2661.42171	33464.75
2664.05923	33535.35
2666.6951	33550.65
2669.32934	33539.55
2671.96194	33593.75
2674.59291	33623.65
2677.22224	33646.95
2679.84993	33672.65
2682.476	33597.65
2685.10043	33585.25
2687.72324	33510.75
2690.34441	33548.85
2692.96396	33452.25
2695.58188	33530.55
2698.19818	33427.25
2700.81285	33388.35
2703.4259	33414.45
2706.03733	33412.75
2708.64714	33412.35
2711.25533	33445.75
2713.86191	33468.25
2716.46687	33516.15
2719.07021	33528.45
2721.67194	33537.55
2724.27206	33495.85
2726.87057	33591.75
2729.46747	33557.85
2732.06276	33555.25
2734.65644	33608.45
2737.24852	33607.55
2739.83899	33577.25
2742.42786	33604.85
2745.01513	33598.85
2747.60079	33529.15
2750.18486	33552.45
2752.76733	33537.05
2755.3482	33552.75
2757.92747	33507.45
2760.50515	33462.05
2763.08123	33462.15
2765.65573	33446.45
2768.22863	33486.75
2770.79994	33418.25
2773.36967	33414.65
2775.9378	33445.05
2778.50435	33470.05
2781.06932	33467.15
2783.6327	33440.85
2786.1945	33459.35
2788.75471	33411.15
2791.31335	33310.95
2793.87041	33342.85
2796.42589	33235.55
2798.97979	33224.35
2801.53212	33130.65
2804.08288	33126.95
2806.63206	33031.95
2809.17967	33015.55
2811.72571	32926.05
2814.27018	32844.25
2816.81308	32861.55
2819.35442	32825.25
2821.89419	32790.85
2824.43239	32849.15
2826.96904	32844.95
2829.50412	32850.95
2832.03763	32755.15
2834.56959	32755.55
2837.1	32750.35
2839.62884	32681.75
2842.15613	32670.05
2844.68186	32765.75
2847.20604	32766.25
2849.72867	32760.45
2852.24974	32712.55
2854.76927	32668.75
2857.28724	32595.55
2859.80367	32635.35
2862.31855	32553.55
2864.83189	32561.35
2867.34368	32533.65
2869.85393	32496.35
2872.36264	32460.45
2874.8698	32427.45
2877.37543	32410.05
2879.87952	32377.05
2882.38207	32437.65
2884.88308	32491.85
2887.38256	32483.05
2889.88051	32492.05
2892.37692	32491.05
2894.8718	32562.95
2897.36515	32596.05
2899.85698	32593.65
2902.34727	32588.95
2904.83604	32617.25
2907.32328	32682.85
2909.809	32706.45
2912.29319	32718.45
2914.77587	32730.95
2917.25702	32682.15
2919.73665	32655.95
2922.21476	32629.35
2924.69136	32596.45
2927.16644	32580.95
2929.64	32586.15
2932.11205	32520.75
2934.58258	32452.85
2937.05161	32487.85
2939.51912	32477.85
2941.98513	32423.65
2944.44962	32380.05
2946.91261	32266.35
2949.37409	32349.15
2951.83407	32341.55
2954.29254	32340.35
2956.74951	32341.85
2959.20498	32350.95
2961.65895	32293.55
2964.11142	32274.75
2966.56239	32222.15
2969.01186	32175.25
2971.45984	32095.85
2973.90632	32036.85
2976.35131	32001.75
2978.7948	31952.55
2981.23681	31846.25
2983.67732	31809.25
2986.11635	31753.45
2988.55388	31656.05
2990.98993	31631.55
2993.4245	31620.95
2995.85758	31542.45
2998.28917	31394.55
3000.71928	31351.25
3003.14791	31263.45
3005.57506	31320.05
3008.00073	31228.95
3010.42493	31239.05
3012.84764	31171.65
3015.26888	31175.55
3017.68865	31061.25
3020.10694	31017.45
3022.52376	30943.35
3024.9391	30894.65
3027.35298	30863.75
3029.76539	30863.75
3032.17632	30784.95
3034.5858	30721.65
3036.9938	30801.65
3039.40034	30723.15
3041.80542	30758.65
3044.20903	30736.85
3046.61118	30726.95
3049.01187	30587.45
3051.4111	30600.85
3053.80888	30519.15
3056.20519	30481.65
3058.60005	30355.85
3060.99345	30311.05
3063.3854	30206.95
3065.7759	30132.05
3068.16494	30051.85
3070.55254	29919.45
3072.93868	29866.95
3075.32338	29771.75
3077.70662	29731.85
3080.08842	29633.55
3082.46878	29546.75
3084.84769	29502.95
3087.22515	29533.95
3089.60118	29496.95
3091.97576	29499.65
3094.3489	29490.55
3096.72061	29493.55
3099.09087	29506.95
3101.4597	29488.95
3103.82709	29482.45
3106.19305	29462.75
3108.55757	29468.45
3110.92066	29370.55
3113.28232	29366.75
3115.64255	29275.15
3118.00134	29233.15
3120.35871	29136.15
3122.71466	29043.35
3125.06917	29016.85
3127.42226	28973.45
3129.77393	29032.85
3132.12417	28889.25
3134.47299	28914.95
3136.82039	28866.85
3139.16636	28871.95
3141.51092	28833.45
3143.85406	28852.25
3146.19579	28803.35
3148.53609	28854.75
3150.87499	28862.95
3153.21246	28855.85
3155.54853	28879.35
3157.88318	28832.15
3160.21642	28891.55
3162.54826	28830.15
3164.87868	28788.25
3167.2077	28818.15
3169.5353	28775.45
3171.86151	28757.15
3174.18631	28750.05
3176.5097	28786.45
3178.83169	28747.95
3181.15228	28698.65
3183.47147	28625.15
3185.78926	28632.05
3188.10565	28583.95
3190.42065	28552.35
3192.73424	28526.75
3195.04645	28505.05
3197.35725	28478.75
3199.66667	28508.25
3201.97469	28583.35
3204.28132	28491.85
3206.58656	28522.95
3208.8904	28519.55
3211.19287	28501.05
3213.49394	28504.65
3215.79363	28523.05
3218.09193	28589.35
3220.38884	28597.45
3222.68438	28635.35
3224.97853	28533.15
3227.2713	28499.75
3229.56269	28484.45
3231.8527	28475.55
3234.14133	28462.45
3236.42858	28393.65
