Data from AgNPs_FTO_APTES_UA_20uM_CRN_20uM_R6G_10uM_NaF_0.1M_Addition_RamanShift__13__15-05-12-252.txt Node

Date: Thu Feb 17 15:05:12 GMT 2022
User: TCL
Spectrometer: QEP01345
Trigger mode: 4
Integration Time (sec): 7.000000E0
Scans to average: 10
Electric dark correction enabled: true
Nonlinearity correction enabled: false
Boxcar width: 0
XAxis mode: Raman Shifts
Number of Pixels in Spectrum: 1044
>>>>>Begin Spectral Data<<<<<
46.04893	-1.075
50.45542	-1.375
54.85868	-3.275
59.25871	-0.375
63.6555	112.825
68.04907	116.625
72.43941	123.725
76.82654	122.325
81.21044	126.625
85.59113	134.925
89.96862	136.825
94.34289	137.825
98.71396	140.525
103.08183	144.825
107.4465	152.425
111.80798	155.625
116.16626	160.025
120.52136	168.325
124.87327	171.725
129.222	184.825
133.56755	194.225
137.90993	203.625
142.24913	227.425
146.58517	260.025
150.91804	299.725
155.24774	354.425
159.57429	442.125
163.89768	569.625
168.21792	754.925
172.53501	1039.825
176.84895	1461.825
181.15975	2057.225
185.46741	2921.625
189.77193	4046.225
194.07331	5482.325
198.37157	7117.125
202.6667	8821.425
206.9587	10536.725
211.24758	12210.325
215.53334	13801.225
219.81599	15496.925
224.09553	17316.225
228.37195	19307.725
232.64527	21531.425
236.91549	23974.425
241.18261	26547.925
245.44663	29153.225
249.70755	31572.125
253.96539	33824.425
258.22014	35693.325
262.4718	37163.625
266.72039	38226.225
270.96589	38769.725
275.20832	38876.425
279.44768	38743.625
283.68397	38401.825
287.91719	38023.825
292.14735	37658.625
296.37445	37327.025
300.59849	37110.325
304.81948	37006.925
309.03742	36810.525
313.25231	36686.825
317.46415	36571.925
321.67296	36459.025
325.87872	36354.225
330.08145	36450.425
334.28114	36740.025
338.47781	37088.725
342.67145	37477.225
346.86207	37924.925
351.04966	38477.225
355.23424	39053.325
359.4158	39553.325
363.59435	40054.925
367.76989	40521.525
371.94243	40900.125
376.11196	41315.125
380.27849	41667.025
384.44203	42001.025
388.60257	42397.925
392.76012	42786.725
396.91468	43162.225
401.06626	43570.225
405.21485	43906.825
409.36047	44111.825
413.50311	44156.725
417.64277	44088.325
421.77947	44150.325
425.9132	44340.725
430.04396	44617.525
434.17176	44972.425
438.2966	45330.125
442.41849	45679.325
446.53742	46095.225
450.6534	46557.825
454.76644	46988.525
458.87653	47339.925
462.98368	47553.525
467.08789	47649.025
471.18916	47741.125
475.2875	47617.625
479.38291	47565.925
483.4754	47502.725
487.56496	47407.825
491.6516	47471.925
495.73531	47496.825
499.81612	47480.625
503.89401	47700.225
507.96899	47914.525
512.04106	48121.425
516.11023	48186.625
520.1765	48257.425
524.23987	48343.625
528.30034	48369.825
532.35792	48477.325
536.41261	48494.325
540.46441	48366.325
544.51333	48416.025
548.55936	48655.825
552.60252	48922.325
556.64279	49220.225
560.6802	49490.725
564.71473	49547.525
568.7464	49579.825
572.7752	49639.025
576.80114	49899.425
580.82422	50186.125
584.84444	50533.325
588.86181	50694.525
592.87633	50824.625
596.888	50993.925
600.89682	51441.625
604.9028	52254.825
608.90594	53956.225
612.90624	55689.525
616.90371	54889.825
620.89834	52356.825
624.89015	51237.925
628.87913	51138.225
632.86528	51325.625
636.84862	51600.725
640.82913	51691.825
644.80683	51457.425
648.78172	51324.125
652.75379	51317.525
656.72306	51567.325
660.68952	51953.225
664.65319	52137.125
668.61405	52010.925
672.57211	52119.425
676.52738	52383.625
680.47986	52441.325
684.42955	52393.425
688.37646	52448.625
692.32058	52685.925
696.26192	52872.725
700.20048	53205.225
704.13626	53481.325
708.06928	53507.225
711.99952	53498.825
715.927	53420.425
719.85171	53427.725
723.77365	53480.225
727.69284	53483.225
731.60928	53349.725
735.52295	53323.525
739.43388	53364.425
743.34206	53478.125
747.24749	53613.125
751.15017	53688.925
755.05012	53868.725
758.94733	54165.725
762.8418	54766.525
766.73354	55719.225
770.62254	56828.425
774.50882	57393.425
778.39237	57117.225
782.27321	56261.125
786.15132	55378.225
790.02671	54713.225
793.89938	54363.425
797.76935	54250.725
801.6366	54140.725
805.50115	54079.625
809.36299	54113.225
813.22213	54093.225
817.07857	54159.725
820.93231	54289.125
824.78336	54359.225
828.63172	54476.825
832.47738	54535.925
836.32036	54557.325
840.16066	54653.025
843.99827	54803.125
847.8332	54904.125
851.66546	54987.525
855.49504	55145.425
859.32195	55232.425
863.1462	55363.625
866.96777	55374.825
870.78668	55402.225
874.60293	55549.925
878.41652	55719.925
882.22745	55877.325
886.03573	55850.525
889.84136	55902.925
893.64433	55809.025
897.44466	55754.825
901.24235	55783.925
905.0374	55775.825
908.8298	55698.525
912.61957	55643.525
916.40671	55742.525
920.19121	55922.925
923.97308	55934.325
927.75233	55824.725
931.52895	55811.325
935.30295	55780.825
939.07433	55688.525
942.84309	55504.325
946.60924	55495.025
950.37278	55398.525
954.13371	55444.425
957.89203	55381.025
961.64774	55371.425
965.40086	55264.525
969.15137	55247.225
972.89929	55339.725
976.64461	55258.125
980.38733	55333.425
984.12747	55388.425
987.86502	55504.425
991.59999	55621.325
995.33237	55792.825
999.06217	56024.425
1002.78939	56277.725
1006.51404	56620.625
1010.23611	56898.425
1013.95561	57217.925
1017.67255	57306.225
1021.38692	57279.425
1025.09872	57151.525
1028.80796	56878.625
1032.51465	56849.725
1036.21877	56852.225
1039.92035	56939.725
1043.61937	57007.125
1047.31584	57174.825
1051.00976	57291.725
1054.70114	57477.325
1058.38998	57545.525
1062.07627	57691.925
1065.76003	58001.625
1069.44126	58279.025
1073.11995	58657.425
1076.79611	59071.225
1080.46974	59276.925
1084.14085	59260.025
1087.80943	59242.625
1091.47549	59398.325
1095.13903	59501.725
1098.80005	59516.525
1102.45857	59388.725
1106.11456	59192.425
1109.76805	59020.125
1113.41903	58871.325
1117.06751	58839.025
1120.71348	58890.225
1124.35696	59000.125
1127.99793	59193.625
1131.63641	59191.225
1135.2724	59089.825
1138.90589	58980.825
1142.5369	58903.325
1146.16542	58828.525
1149.79145	58790.825
1153.415	58681.325
1157.03607	58553.625
1160.65467	58622.125
1164.27079	58922.325
1167.88443	59408.425
1171.49561	60090.025
1175.10432	60918.625
1178.71056	62021.825
1182.31434	63147.525
1185.91565	63969.925
1189.51451	64357.525
1193.11091	64505.025
1196.70485	64390.025
1200.29634	63923.525
1203.88538	63458.625
1207.47197	62896.525
1211.05612	62256.325
1214.63782	61668.325
1218.21708	61279.525
1221.79391	60891.425
1225.36829	60759.125
1228.94024	60686.425
1232.50976	60600.325
1236.07685	60578.325
1239.6415	60745.125
1243.20374	60934.925
1246.76355	61155.425
1250.32093	61350.325
1253.8759	61723.425
1257.42845	62240.725
1260.97859	62689.125
1264.52631	63018.625
1268.07163	63349.025
1271.61453	63521.525
1275.15503	63694.825
1278.69312	63830.925
1282.22882	63926.625
1285.76211	64111.125
1289.29301	64204.325
1292.82151	64382.625
1296.34761	64665.825
1299.87133	65136.625
1303.39266	65749.325
1306.9116	66514.725
1310.42815	67424.225
1313.94233	67937.325
1317.45412	68141.825
1320.96354	67921.325
1324.47058	67587.525
1327.97525	67106.525
1331.47754	66726.525
1334.97747	66768.925
1338.47502	67103.025
1341.97022	67859.525
1345.46305	68912.525
1348.95352	69868.825
1352.44163	70493.125
1355.92738	70592.625
1359.41078	70730.925
1362.89183	70616.825
1366.37053	69648.225
1369.84688	67656.625
1373.32088	65501.225
1376.79254	63927.325
1380.26186	62940.825
1383.72883	62237.425
1387.19347	61772.025
1390.65578	61264.825
1394.11575	60729.425
1397.57339	60224.625
1401.0287	60102.025
1404.48168	60087.325
1407.93234	60164.825
1411.38068	60154.925
1414.82669	60089.025
1418.27039	59977.625
1421.71177	59759.925
1425.15083	59450.525
1428.58758	59305.925
1432.02203	59222.025
1435.45416	59282.025
1438.88399	59312.625
1442.31151	59413.725
1445.73673	59560.225
1449.15965	59635.525
1452.58027	59771.225
1455.9986	59813.425
1459.41463	59888.825
1462.82837	60234.025
1466.23982	60785.925
1469.64898	61340.825
1473.05586	61913.425
1476.46045	62280.525
1479.86276	62489.725
1483.26279	62530.625
1486.66054	62627.425
1490.05602	62820.225
1493.44922	63164.125
1496.84016	63638.225
1500.22882	64606.325
1503.61521	65808.525
1506.99934	66909.425
1510.38121	67474.325
1513.76081	67270.325
1517.13816	66450.625
1520.51324	65391.825
1523.88607	64470.425
1527.25665	63891.325
1530.62498	63594.625
1533.99105	63316.125
1537.35488	63229.525
1540.71647	63170.725
1544.07581	63150.825
1547.4329	63137.025
1550.78776	63099.925
1554.14038	62836.725
1557.49077	62755.325
1560.83892	62669.825
1564.18484	62721.025
1567.52853	62828.625
1570.86999	62942.625
1574.20922	63034.025
1577.54624	63001.125
1580.88103	62673.225
1584.2136	62219.925
1587.54395	62010.325
1590.87208	62267.625
1594.19801	62891.425
1597.52172	63822.925
1600.84321	64493.325
1604.16251	64400.825
1607.47959	63981.025
1610.79447	63306.025
1614.10715	62156.125
1617.41763	61037.225
1620.7259	60108.525
1624.03199	59470.325
1627.33587	59194.925
1630.63757	59117.425
1633.93707	59409.025
1637.23439	60203.225
1640.52951	61412.225
1643.82246	62757.725
1647.11321	64168.725
1650.40179	64843.225
1653.68819	64229.325
1656.97241	62624.925
1660.25446	60825.525
1663.53433	59264.225
1666.81203	58232.425
1670.08756	57557.325
1673.36092	57089.125
1676.63211	56774.425
1679.90115	56494.725
1683.16801	56185.525
1686.43272	56001.625
1689.69527	55845.525
1692.95567	55784.925
1696.2139	55774.125
1699.46999	55704.625
1702.72392	55739.025
1705.97571	55712.225
1709.22535	55656.625
1712.47284	55709.925
1715.71819	55780.025
1718.96139	55778.525
1722.20246	55713.625
1725.44139	55529.225
1728.67818	55413.425
1731.91284	55261.425
1735.14537	55254.325
1738.37576	55091.025
1741.60403	55111.825
1744.83017	55048.625
1748.05418	54916.425
1751.27607	54821.925
1754.49584	54833.725
1757.71349	54852.025
1760.92903	54798.625
1764.14244	54789.425
1767.35375	54715.525
1770.56294	54664.025
1773.77002	54657.225
1776.97499	54673.625
1780.17785	54541.225
1783.37861	54559.825
1786.57727	54498.425
1789.77382	54537.825
1792.96828	54449.225
1796.16064	54301.425
1799.3509	54238.525
1802.53907	54172.925
1805.72514	54051.425
1808.90913	54031.925
1812.09102	53950.725
1815.27083	53903.125
1818.44856	53843.625
1821.6242	53794.725
1824.79776	53766.425
1827.96924	53700.725
1831.13864	53698.325
1834.30597	53676.225
1837.47122	53639.825
1840.6344	53568.125
1843.7955	53582.525
1846.95454	53546.525
1850.11151	53487.425
1853.26642	53592.125
1856.41926	53414.725
1859.57004	53377.625
1862.71876	53371.525
1865.86542	53328.125
1869.01003	53389.725
1872.15258	53188.625
1875.29308	53245.425
1878.43152	53158.225
1881.56792	53059.625
1884.70227	52998.125
1887.83457	52919.725
1890.96482	52894.725
1894.09304	52889.225
1897.21921	52852.425
1900.34335	52751.225
1903.46544	52607.125
1906.58551	52613.425
1909.70353	52584.525
1912.81953	52550.825
1915.93349	52434.425
1919.04543	52290.625
1922.15534	52214.625
1925.26322	52179.225
1928.36908	52099.525
1931.47292	52106.125
1934.57473	52018.825
1937.67453	51906.825
1940.77232	51816.925
1943.86808	51647.125
1946.96184	51588.225
1950.05358	51530.425
1953.14331	51360.625
1956.23103	51256.125
1959.31675	51056.425
1962.40046	50957.825
1965.48217	50821.725
1968.56188	50696.125
1971.63959	50593.125
1974.7153	50307.725
1977.78901	50184.825
1980.86073	50126.325
1983.93046	50021.725
1986.99819	49894.525
1990.06394	49775.325
1993.1277	49625.825
1996.18947	49466.125
1999.24925	49352.325
2002.30706	49191.125
2005.36288	49073.925
2008.41672	48978.325
2011.46859	48794.425
2014.51848	48704.625
2017.56639	48510.925
2020.61233	48430.625
2023.6563	48300.425
2026.6983	48186.125
2029.73833	48082.025
2032.7764	47979.825
2035.8125	47907.425
2038.84664	47755.725
2041.87881	47674.625
2044.90903	47581.725
2047.93729	47434.825
2050.96359	47514.225
2053.98794	47424.125
2057.01034	47439.325
2060.03078	47414.625
2063.04927	47430.425
2066.06582	47314.525
2069.08042	47353.925
2072.09307	47297.725
2075.10378	47243.325
2078.11255	47184.425
2081.11938	47252.325
2084.12426	47259.225
2087.12722	47255.425
2090.12824	47174.125
2093.12732	47172.425
2096.12447	47258.725
2099.11969	47229.325
2102.11299	47284.825
2105.10435	47312.925
2108.09379	47308.225
2111.08131	47362.625
2114.0669	47361.025
2117.05057	47450.825
2120.03233	47530.625
2123.01216	47527.925
2125.99008	47522.825
2128.96609	47561.525
2131.94018	47601.025
2134.91236	47656.625
2137.88263	47627.625
2140.851	47698.425
2143.81746	47719.625
2146.78201	47781.025
2149.74466	47772.725
2152.7054	47867.625
2155.66425	47775.025
2158.6212	47817.625
2161.57625	47742.325
2164.52941	47726.625
2167.48067	47700.225
2170.43004	47639.425
2173.37752	47719.925
2176.32311	47776.025
2179.26681	47771.025
2182.20863	47788.825
2185.14856	47720.725
2188.08661	47679.725
2191.02278	47694.125
2193.95707	47670.625
2196.88948	47654.325
2199.82001	47597.225
2202.74867	47541.525
2205.67545	47485.025
2208.60037	47428.025
2211.52341	47373.425
2214.44458	47271.225
2217.36388	47187.825
2220.28132	47093.425
2223.1969	47012.325
2226.11061	46950.925
2229.02246	46847.525
2231.93245	46797.125
2234.84058	46671.225
2237.74686	46588.525
2240.65128	46534.225
2243.55385	46503.125
2246.45456	46470.825
2249.35343	46441.725
2252.25044	46407.525
2255.14561	46289.825
2258.03893	46251.025
2260.93041	46210.825
2263.82004	46101.525
2266.70783	46000.625
2269.59378	45860.825
2272.4779	45804.725
2275.36017	45669.025
2278.24061	45592.625
2281.11922	45503.525
2283.996	45452.425
2286.87094	45418.725
2289.74405	45339.325
2292.61534	45329.525
2295.4848	45251.325
2298.35243	45261.525
2301.21824	45132.125
2304.08223	45143.325
2306.94439	45093.525
2309.80474	45026.925
2312.66327	44986.025
2315.51999	44905.025
2318.37489	44907.825
2321.22797	44801.625
2324.07925	44747.725
2326.92871	44641.225
2329.77637	44566.725
2332.62222	44447.225
2335.46626	44422.025
2338.3085	44417.125
2341.14893	44367.425
2343.98756	44341.625
2346.8244	44227.925
2349.65943	44200.525
2352.49267	44146.725
2355.32411	44161.725
2358.15376	44143.925
2360.98161	44057.225
2363.80768	44016.025
2366.63195	43932.725
2369.45444	43952.625
2372.27514	43907.425
2375.09405	43817.525
2377.91118	43696.925
2380.72652	43638.425
2383.54009	43594.425
2386.35187	43531.825
2389.16188	43412.725
2391.97011	43350.825
2394.77657	43225.825
2397.58125	43195.825
2400.38416	43047.825
2403.18529	42997.325
2405.98466	42956.025
2408.78226	42929.725
2411.57809	42821.225
2414.37216	42772.925
2417.16446	42772.625
2419.955	42717.425
2422.74378	42732.125
2425.5308	42671.025
2428.31606	42599.425
2431.09956	42593.025
2433.88131	42488.725
2436.6613	42557.125
2439.43954	42588.125
2442.21603	42447.625
2444.99077	42374.625
2447.76377	42319.425
2450.53501	42284.625
2453.30451	42226.125
2456.07226	42159.125
2458.83827	42129.225
2461.60254	42095.425
2464.36507	41965.125
2467.12586	41940.825
2469.88492	41889.425
2472.64224	41840.525
2475.39782	41841.225
2478.15167	41880.225
2480.90379	41817.725
2483.65417	41801.525
2486.40283	41717.325
2489.14976	41688.825
2491.89497	41651.525
2494.63845	41638.725
2497.3802	41606.925
2500.12024	41539.125
2502.85855	41493.125
2505.59514	41450.725
2508.33002	41448.025
2511.06318	41371.425
2513.79462	41257.025
2516.52435	41171.425
2519.25237	41149.825
2521.97867	41041.225
2524.70327	41123.325
2527.42616	40991.225
2530.14734	40930.125
2532.86681	40826.325
2535.58458	40848.125
2538.30065	40749.325
2541.01501	40742.725
2543.72768	40685.525
2546.43864	40650.925
2549.14791	40513.425
2551.85548	40426.225
2554.56136	40363.125
2557.26554	40264.225
2559.96803	40231.725
2562.66883	40146.025
2565.36794	40025.825
2568.06536	40033.425
2570.7611	39945.825
2573.45514	39808.825
2576.14751	39766.325
2578.83819	39720.525
2581.52719	39627.225
2584.21451	39536.925
2586.90015	39499.325
2589.58411	39400.025
2592.2664	39248.725
2594.94701	39201.425
2597.62594	39165.825
2600.30321	39090.925
2602.9788	39028.425
2605.65273	38960.925
2608.32498	38921.125
2610.99557	38797.625
2613.66449	38845.025
2616.33175	38777.425
2618.99734	38737.625
2621.66128	38647.225
2624.32355	38564.925
2626.98416	38492.125
2629.64311	38437.225
2632.30041	38335.225
2634.95605	38282.525
2637.61004	38266.025
2640.26238	38249.025
2642.91306	38209.925
2645.56209	38177.725
2648.20948	38125.225
2650.85521	38091.425
2653.4993	38091.225
2656.14175	38070.225
2658.78255	38094.625
2661.42171	38033.425
2664.05923	37961.125
2666.6951	37968.325
2669.32934	37988.525
2671.96194	37886.725
2674.59291	37926.825
2677.22224	37854.025
2679.84993	37882.525
2682.476	37840.925
2685.10043	37886.425
2687.72324	37819.125
2690.34441	37821.625
2692.96396	37772.025
2695.58188	37799.925
2698.19818	37753.225
2700.81285	37774.325
2703.4259	37713.725
2706.03733	37793.125
2708.64714	37703.425
2711.25533	37736.725
2713.86191	37680.125
2716.46687	37777.525
2719.07021	37800.925
2721.67194	37819.825
2724.27206	37806.525
2726.87057	37785.725
2729.46747	37790.725
2732.06276	37777.025
2734.65644	37704.525
2737.24852	37649.125
2739.83899	37553.525
2742.42786	37590.225
2745.01513	37497.725
2747.60079	37504.825
2750.18486	37358.525
2752.76733	37277.825
2755.3482	37258.525
2757.92747	37197.425
2760.50515	37137.125
2763.08123	37099.925
2765.65573	37010.925
2768.22863	36949.325
2770.79994	36855.125
2773.36967	36796.325
2775.9378	36773.525
2778.50435	36757.625
2781.06932	36704.525
2783.6327	36649.125
2786.1945	36578.325
2788.75471	36541.825
2791.31335	36462.425
2793.87041	36354.725
2796.42589	36254.325
2798.97979	36204.825
2801.53212	36095.425
2804.08288	36025.725
2806.63206	35923.225
2809.17967	35783.425
2811.72571	35688.325
2814.27018	35607.625
2816.81308	35554.125
2819.35442	35478.625
2821.89419	35445.425
2824.43239	35442.625
2826.96904	35321.125
2829.50412	35311.525
2832.03763	35167.225
2834.56959	35144.425
2837.1	35024.125
2839.62884	35043.725
2842.15613	35000.425
2844.68186	34988.725
2847.20604	34933.025
2849.72867	34848.125
2852.24974	34754.325
2854.76927	34738.925
2857.28724	34686.825
2859.80367	34677.825
2862.31855	34540.425
2864.83189	34506.325
2867.34368	34476.225
2869.85393	34480.025
2872.36264	34406.825
2874.8698	34352.725
2877.37543	34352.925
2879.87952	34256.925
2882.38207	34245.825
2884.88308	34200.325
2887.38256	34179.525
2889.88051	34176.625
2892.37692	34162.025
2894.8718	34195.925
2897.36515	34225.925
2899.85698	34092.625
2902.34727	34107.525
2904.83604	34108.025
2907.32328	34142.325
2909.809	34193.325
2912.29319	34174.825
2914.77587	34121.825
2917.25702	34132.225
2919.73665	34089.325
2922.21476	34082.825
2924.69136	34056.725
2927.16644	34036.325
2929.64	33971.725
2932.11205	33929.725
2934.58258	33856.425
2937.05161	33905.425
2939.51912	33816.125
2941.98513	33857.925
2944.44962	33823.425
2946.91261	33740.725
2949.37409	33826.325
2951.83407	33788.425
2954.29254	33790.825
2956.74951	33738.725
2959.20498	33726.325
2961.65895	33706.225
2964.11142	33714.525
2966.56239	33687.525
2969.01186	33683.425
2971.45984	33625.925
2973.90632	33569.925
2976.35131	33532.225
2978.7948	33460.125
2981.23681	33400.425
2983.67732	33382.925
2986.11635	33325.225
2988.55388	33264.525
2990.98993	33181.925
2993.4245	33098.925
2995.85758	33022.725
2998.28917	32976.425
3000.71928	32910.225
3003.14791	32860.525
3005.57506	32779.925
3008.00073	32689.025
3010.42493	32659.125
3012.84764	32609.525
3015.26888	32608.825
3017.68865	32575.125
3020.10694	32508.425
3022.52376	32411.225
3024.9391	32438.925
3027.35298	32356.025
3029.76539	32311.025
3032.17632	32270.825
3034.5858	32240.225
3036.9938	32183.525
3039.40034	32196.525
3041.80542	32144.625
3044.20903	32096.625
3046.61118	32006.425
3049.01187	31918.325
3051.4111	31885.125
3053.80888	31830.125
3056.20519	31767.625
3058.60005	31707.725
3060.99345	31690.925
3063.3854	31645.825
3065.7759	31507.925
3068.16494	31433.625
3070.55254	31288.425
3072.93868	31325.025
3075.32338	31215.825
3077.70662	31138.125
3080.08842	31064.125
3082.46878	31052.625
3084.84769	31015.225
3087.22515	30974.125
3089.60118	30969.425
3091.97576	30925.125
3094.3489	30884.825
3096.72061	30870.725
3099.09087	30923.325
3101.4597	30910.425
3103.82709	30935.925
3106.19305	30838.225
3108.55757	30846.025
3110.92066	30747.125
3113.28232	30679.725
3115.64255	30607.225
3118.00134	30537.225
3120.35871	30538.025
3122.71466	30456.125
3125.06917	30369.325
