Data from AgNPs_FTO_APTES_UA_20uM_CRN_2uM_R6G_10uM_NaF_0.1M_Addition_RamanShift__23__13-07-22-096.txt Node

Date: Thu Feb 17 13:07:22 GMT 2022
User: TCL
Spectrometer: QEP01345
Trigger mode: 4
Integration Time (sec): 7.000000E0
Scans to average: 10
Electric dark correction enabled: true
Nonlinearity correction enabled: false
Boxcar width: 0
XAxis mode: Raman Shifts
Number of Pixels in Spectrum: 1044
>>>>>Begin Spectral Data<<<<<
46.04893	-0.9625
50.45542	-1.7625
54.85868	-1.5625
59.25871	-2.2625
63.6555	123.0375
68.04907	123.4375
72.43941	133.6375
76.82654	130.9375
81.21044	136.5375
85.59113	142.2375
89.96862	147.4375
94.34289	148.0375
98.71396	154.2375
103.08183	161.0375
107.4465	164.1375
111.80798	167.3375
116.16626	173.8375
120.52136	186.2375
124.87327	193.2375
129.222	204.4375
133.56755	218.0375
137.90993	232.9375
142.24913	258.3375
146.58517	300.6375
150.91804	349.2375
155.24774	420.5375
159.57429	529.6375
163.89768	686.4375
168.21792	914.5375
172.53501	1265.6375
176.84895	1759.4375
181.15975	2487.7375
185.46741	3520.8375
189.77193	4870.3375
194.07331	6539.9375
198.37157	8420.9375
202.6667	10385.3375
206.9587	12376.8375
211.24758	14340.7375
215.53334	16286.1375
219.81599	18346.4375
224.09553	20663.7375
228.37195	23256.5375
232.64527	26088.9375
236.91549	29075.1375
241.18261	32041.0375
245.44663	34843.7375
249.70755	37382.4375
253.96539	39548.1375
258.22014	41487.9375
262.4718	43100.6375
266.72039	44307.7375
270.96589	45024.5375
275.20832	45088.4375
279.44768	44930.8375
283.68397	44642.4375
287.91719	44305.1375
292.14735	44082.6375
296.37445	44058.9375
300.59849	44193.5375
304.81948	44378.8375
309.03742	44358.0375
313.25231	43930.5375
317.46415	43165.1375
321.67296	42110.3375
325.87872	41270.3375
330.08145	40904.0375
334.28114	40963.9375
338.47781	41366.0375
342.67145	41942.2375
346.86207	42692.3375
351.04966	43591.6375
355.23424	44576.0375
359.4158	45477.6375
363.59435	46037.2375
367.76989	46508.8375
371.94243	46793.3375
376.11196	47087.9375
380.27849	47330.4375
384.44203	47689.4375
388.60257	47840.3375
392.76012	48190.6375
396.91468	48679.0375
401.06626	49343.7375
405.21485	49858.5375
409.36047	49806.7375
413.50311	49222.5375
417.64277	48707.0375
421.77947	48604.1375
425.9132	48836.8375
430.04396	49199.7375
434.17176	49568.3375
438.2966	50229.1375
442.41849	51140.4375
446.53742	52527.9375
450.6534	54008.9375
454.76644	55236.0375
458.87653	55703.1375
462.98368	55384.1375
467.08789	54701.5375
471.18916	53839.6375
475.2875	53068.6375
479.38291	52586.4375
483.4754	52227.0375
487.56496	51616.4375
491.6516	50941.7375
495.73531	50267.2375
499.81612	49952.8375
503.89401	50162.9375
507.96899	50273.3375
512.04106	50211.9375
516.11023	50050.2375
520.1765	49773.9375
524.23987	49618.3375
528.30034	49357.8375
532.35792	48986.4375
536.41261	48587.2375
540.46441	48190.2375
544.51333	48192.3375
548.55936	48628.0375
552.60252	49643.7375
556.64279	50733.2375
560.6802	51536.8375
564.71473	51938.4375
568.7464	52765.7375
572.7752	53785.4375
576.80114	54448.7375
580.82422	54834.3375
584.84444	55360.9375
588.86181	56109.2375
592.87633	57148.0375
596.888	57653.4375
600.89682	57577.3375
604.9028	59102.7375
608.90594	63924.9375
612.90624	69014.3375
616.90371	65352.9375
620.89834	55786.7375
624.89015	51668.9375
628.87913	51103.4375
632.86528	51052.4375
636.84862	50766.7375
640.82913	50034.2375
644.80683	48894.1375
648.78172	48059.6375
652.75379	47994.0375
656.72306	48647.5375
660.68952	49549.4375
664.65319	49443.5375
668.61405	48700.8375
672.57211	48477.0375
676.52738	48451.9375
680.47986	48459.8375
684.42955	48334.3375
688.37646	48305.9375
692.32058	48574.6375
696.26192	49106.8375
700.20048	49645.3375
704.13626	49933.6375
708.06928	49791.5375
711.99952	49512.0375
715.927	49404.0375
719.85171	49561.7375
723.77365	49430.4375
727.69284	49052.7375
731.60928	48681.4375
735.52295	48566.0375
739.43388	48676.7375
743.34206	49002.2375
747.24749	49249.4375
751.15017	49667.6375
755.05012	50371.5375
758.94733	51648.0375
762.8418	54083.2375
766.73354	57810.4375
770.62254	61359.5375
774.50882	62046.5375
778.39237	59411.3375
782.27321	55329.2375
786.15132	52040.8375
790.02671	50128.1375
793.89938	49178.3375
797.76935	48830.0375
801.6366	48806.2375
805.50115	48670.8375
809.36299	48436.6375
813.22213	48175.6375
817.07857	48115.5375
820.93231	48084.0375
824.78336	48045.5375
828.63172	47957.0375
832.47738	48023.3375
836.32036	48114.9375
840.16066	48339.2375
843.99827	48425.0375
847.8332	48432.7375
851.66546	48240.7375
855.49504	48162.6375
859.32195	48142.4375
863.1462	47965.3375
866.96777	47863.9375
870.78668	47805.8375
874.60293	47844.8375
878.41652	47872.3375
882.22745	47979.4375
886.03573	48146.2375
889.84136	48040.5375
893.64433	47867.8375
897.44466	47700.6375
901.24235	47591.7375
905.0374	47452.0375
908.8298	47409.5375
912.61957	47522.8375
916.40671	47853.6375
920.19121	48497.0375
923.97308	49044.7375
927.75233	49162.5375
931.52895	48933.5375
935.30295	48393.9375
939.07433	47667.7375
942.84309	47191.1375
946.60924	47055.7375
950.37278	46963.1375
954.13371	46873.5375
957.89203	46649.0375
961.64774	46488.6375
965.40086	46382.0375
969.15137	46278.3375
972.89929	46032.4375
976.64461	45980.8375
980.38733	45976.0375
984.12747	46160.2375
987.86502	46567.9375
991.59999	47272.9375
995.33237	48181.7375
999.06217	49717.5375
1002.78939	51356.2375
1006.51404	52491.4375
1010.23611	53147.1375
1013.95561	53542.4375
1017.67255	53634.7375
1021.38692	53071.3375
1025.09872	52634.7375
1028.80796	53022.4375
1032.51465	54326.7375
1036.21877	55406.9375
1039.92035	55601.0375
1043.61937	54819.1375
1047.31584	53511.7375
1051.00976	52118.5375
1054.70114	51267.2375
1058.38998	51116.8375
1062.07627	51233.0375
1065.76003	51455.7375
1069.44126	51771.0375
1073.11995	52175.2375
1076.79611	52603.7375
1080.46974	53016.1375
1084.14085	53499.1375
1087.80943	54135.3375
1091.47549	54387.2375
1095.13903	54183.2375
1098.80005	53438.4375
1102.45857	52720.7375
1106.11456	52198.9375
1109.76805	52248.6375
1113.41903	52609.6375
1117.06751	53105.1375
1120.71348	53672.1375
1124.35696	54143.9375
1127.99793	54549.6375
1131.63641	54544.8375
1135.2724	54165.7375
1138.90589	53707.9375
1142.5369	53428.7375
1146.16542	53410.4375
1149.79145	53605.5375
1153.415	54030.5375
1157.03607	54713.6375
1160.65467	55882.6375
1164.27079	57701.5375
1167.88443	60179.3375
1171.49561	63599.8375
1175.10432	68175.3375
1178.71056	73815.4375
1182.31434	79016.8375
1185.91565	81669.1375
1189.51451	81318.4375
1193.11091	78747.1375
1196.70485	75372.4375
1200.29634	72362.5375
1203.88538	70128.5375
1207.47197	68325.1375
1211.05612	66776.6375
1214.63782	65709.2375
1218.21708	65355.9375
1221.79391	65464.3375
1225.36829	65402.7375
1228.94024	64680.6375
1232.50976	63389.4375
1236.07685	62290.3375
1239.6415	61896.9375
1243.20374	61929.2375
1246.76355	62282.2375
1250.32093	63179.9375
1253.8759	64485.0375
1257.42845	66057.9375
1260.97859	67601.4375
1264.52631	68989.6375
1268.07163	70563.1375
1271.61453	72433.7375
1275.15503	74389.6375
1278.69312	76352.0375
1282.22882	78167.6375
1285.76211	79629.2375
1289.29301	81358.6375
1292.82151	83648.4375
1296.34761	86913.4375
1299.87133	91166.1375
1303.39266	96375.3375
1306.9116	102487.9375
1310.42815	108634.0375
1313.94233	112562.7375
1317.45412	112941.0375
1320.96354	110897.8375
1324.47058	108258.7375
1327.97525	105676.6375
1331.47754	103936.7375
1334.97747	103255.3375
1338.47502	103858.7375
1341.97022	104485.3375
1345.46305	103993.4375
1348.95352	102670.9375
1352.44163	101522.9375
1355.92738	102558.1375
1359.41078	106380.3375
1362.89183	109934.0375
1366.37053	107609.3375
1369.84688	98911.5375
1373.32088	89092.6375
1376.79254	82541.5375
1380.26186	79731.5375
1383.72883	78997.4375
1387.19347	78803.5375
1390.65578	78460.9375
1394.11575	78695.0375
1397.57339	79837.2375
1401.0287	81708.5375
1404.48168	83560.4375
1407.93234	84833.2375
1411.38068	84937.2375
1414.82669	83641.9375
1418.27039	80926.4375
1421.71177	77580.0375
1425.15083	74681.7375
1428.58758	73068.2375
1432.02203	73083.9375
1435.45416	74136.0375
1438.88399	75668.6375
1442.31151	77057.5375
1445.73673	78178.4375
1449.15965	79206.0375
1452.58027	79822.4375
1455.9986	79922.7375
1459.41463	80275.7375
1462.82837	81239.1375
1466.23982	82524.8375
1469.64898	84092.9375
1473.05586	85021.6375
1476.46045	85241.0375
1479.86276	85047.8375
1483.26279	84595.3375
1486.66054	84226.0375
1490.05602	84547.6375
1493.44922	85008.4375
1496.84016	85243.6375
1500.22882	86036.3375
1503.61521	87903.2375
1506.99934	90382.2375
1510.38121	92710.3375
1513.76081	93203.6375
1517.13816	91038.8375
1520.51324	87379.6375
1523.88607	84265.3375
1527.25665	82503.2375
1530.62498	81986.6375
1533.99105	81881.5375
1537.35488	81741.5375
1540.71647	81250.5375
1544.07581	80439.9375
1547.4329	79236.6375
1550.78776	77995.2375
1554.14038	77027.5375
1557.49077	76402.0375
1560.83892	76105.3375
1564.18484	75830.8375
1567.52853	75692.1375
1570.86999	75656.3375
1574.20922	76164.7375
1577.54624	76724.3375
1580.88103	76483.8375
1584.2136	76705.4375
1587.54395	78561.2375
1590.87208	82424.0375
1594.19801	88004.9375
1597.52172	93846.5375
1600.84321	96258.3375
1604.16251	93292.4375
1607.47959	86923.6375
1610.79447	79834.1375
1614.10715	73274.7375
1617.41763	67931.4375
1620.7259	64262.2375
1624.03199	62482.2375
1627.33587	62355.6375
1630.63757	63906.9375
1633.93707	67373.4375
1637.23439	72630.6375
1640.52951	79881.9375
1643.82246	87755.3375
1647.11321	93601.4375
1650.40179	94105.8375
1653.68819	87953.5375
1656.97241	77773.9375
1660.25446	67924.3375
1663.53433	60736.1375
1666.81203	56074.0375
1670.08756	53184.1375
1673.36092	51388.1375
1676.63211	50152.1375
1679.90115	49200.0375
1683.16801	48519.0375
1686.43272	48053.6375
1689.69527	47713.6375
1692.95567	47368.3375
1696.2139	47206.5375
1699.46999	47159.9375
1702.72392	47017.5375
1705.97571	46920.4375
1709.22535	46822.1375
1712.47284	46770.8375
1715.71819	46726.9375
1718.96139	46674.9375
1722.20246	46530.4375
1725.44139	46393.2375
1728.67818	46144.3375
1731.91284	45871.3375
1735.14537	45734.5375
1738.37576	45536.4375
1741.60403	45460.6375
1744.83017	45291.8375
1748.05418	45130.2375
1751.27607	45053.3375
1754.49584	45025.9375
1757.71349	45011.8375
1760.92903	44983.5375
1764.14244	44895.1375
1767.35375	44891.5375
1770.56294	44905.3375
1773.77002	44850.2375
1776.97499	44876.7375
1780.17785	44754.4375
1783.37861	44747.2375
1786.57727	44598.0375
1789.77382	44545.4375
1792.96828	44458.5375
1796.16064	44441.6375
1799.3509	44458.4375
1802.53907	44400.5375
1805.72514	44251.9375
1808.90913	44215.0375
1812.09102	44144.3375
1815.27083	44028.2375
1818.44856	43977.3375
1821.6242	43933.7375
1824.79776	43928.6375
1827.96924	43865.3375
1831.13864	43812.3375
1834.30597	43854.6375
1837.47122	43778.6375
1840.6344	43750.7375
1843.7955	43788.9375
1846.95454	43831.4375
1850.11151	43773.0375
1853.26642	43752.9375
1856.41926	43759.7375
1859.57004	43740.9375
1862.71876	43683.0375
1865.86542	43704.0375
1869.01003	43700.4375
1872.15258	43626.9375
1875.29308	43621.8375
1878.43152	43596.7375
1881.56792	43616.4375
1884.70227	43665.5375
1887.83457	43700.5375
1890.96482	43705.1375
1894.09304	43685.0375
1897.21921	43603.4375
1900.34335	43584.6375
1903.46544	43512.9375
1906.58551	43542.7375
1909.70353	43561.6375
1912.81953	43507.1375
1915.93349	43448.3375
1919.04543	43347.4375
1922.15534	43262.9375
1925.26322	43201.5375
1928.36908	43164.9375
1931.47292	43094.8375
1934.57473	42929.6375
1937.67453	42883.5375
1940.77232	42736.2375
1943.86808	42614.9375
1946.96184	42470.8375
1950.05358	42355.3375
1953.14331	42190.5375
1956.23103	42122.9375
1959.31675	42011.5375
1962.40046	41844.2375
1965.48217	41675.4375
1968.56188	41589.6375
1971.63959	41560.2375
1974.7153	41424.5375
1977.78901	41339.8375
1980.86073	41188.9375
1983.93046	41088.1375
1986.99819	40913.7375
1990.06394	40896.1375
1993.1277	40802.7375
1996.18947	40654.1375
1999.24925	40549.4375
2002.30706	40457.6375
2005.36288	40347.3375
2008.41672	40225.5375
2011.46859	40091.1375
2014.51848	39978.1375
2017.56639	39885.3375
2020.61233	39822.2375
2023.6563	39716.9375
2026.6983	39651.4375
2029.73833	39582.3375
2032.7764	39507.5375
2035.8125	39502.7375
2038.84664	39399.3375
2041.87881	39378.7375
2044.90903	39321.2375
2047.93729	39300.6375
2050.96359	39272.5375
2053.98794	39152.7375
2057.01034	39187.3375
2060.03078	39194.6375
2063.04927	39136.0375
2066.06582	39112.9375
2069.08042	39080.7375
2072.09307	39042.9375
2075.10378	38971.0375
2078.11255	38934.9375
2081.11938	38960.6375
2084.12426	38901.9375
2087.12722	38898.4375
2090.12824	38814.7375
2093.12732	38875.2375
2096.12447	38860.0375
2099.11969	38802.2375
2102.11299	38794.0375
2105.10435	38881.1375
2108.09379	38864.7375
2111.08131	38873.3375
2114.0669	38855.3375
2117.05057	38877.3375
2120.03233	38922.3375
2123.01216	38960.3375
2125.99008	39028.1375
2128.96609	39070.3375
2131.94018	39102.5375
2134.91236	39213.6375
2137.88263	39215.0375
2140.851	39217.0375
2143.81746	39213.6375
2146.78201	39220.9375
2149.74466	39278.5375
2152.7054	39280.9375
2155.66425	39270.2375
2158.6212	39298.7375
2161.57625	39260.4375
2164.52941	39255.3375
2167.48067	39197.2375
2170.43004	39236.3375
2173.37752	39242.8375
2176.32311	39267.9375
2179.26681	39279.3375
2182.20863	39292.7375
2185.14856	39368.8375
2188.08661	39294.8375
2191.02278	39304.3375
2193.95707	39273.3375
2196.88948	39254.7375
2199.82001	39281.3375
2202.74867	39243.0375
2205.67545	39230.6375
2208.60037	39195.9375
2211.52341	39180.0375
2214.44458	39171.0375
2217.36388	39094.6375
2220.28132	39105.0375
2223.1969	39026.6375
2226.11061	38943.8375
2229.02246	38787.6375
2231.93245	38730.2375
2234.84058	38694.3375
2237.74686	38667.8375
2240.65128	38639.6375
2243.55385	38557.8375
2246.45456	38569.1375
2249.35343	38496.0375
2252.25044	38463.0375
2255.14561	38334.7375
2258.03893	38362.0375
2260.93041	38289.9375
2263.82004	38176.3375
2266.70783	38123.1375
2269.59378	37967.1375
2272.4779	37936.0375
2275.36017	37848.9375
2278.24061	37828.3375
2281.11922	37722.1375
2283.996	37683.0375
2286.87094	37671.5375
2289.74405	37668.0375
2292.61534	37625.4375
2295.4848	37610.7375
2298.35243	37628.0375
2301.21824	37604.9375
2304.08223	37603.6375
2306.94439	37633.3375
2309.80474	37665.6375
2312.66327	37711.8375
2315.51999	37626.7375
2318.37489	37637.6375
2321.22797	37589.3375
2324.07925	37626.6375
2326.92871	37535.0375
2329.77637	37483.3375
2332.62222	37435.7375
2335.46626	37495.7375
2338.3085	37488.7375
2341.14893	37534.2375
2343.98756	37519.9375
2346.8244	37561.9375
2349.65943	37600.3375
2352.49267	37564.2375
2355.32411	37583.8375
2358.15376	37520.5375
2360.98161	37505.8375
2363.80768	37419.4375
2366.63195	37387.8375
2369.45444	37354.4375
2372.27514	37334.0375
2375.09405	37308.7375
2377.91118	37115.6375
2380.72652	37012.9375
2383.54009	36928.4375
2386.35187	36874.3375
2389.16188	36778.0375
2391.97011	36698.5375
2394.77657	36731.9375
2397.58125	36687.4375
2400.38416	36644.4375
2403.18529	36546.7375
2405.98466	36512.4375
2408.78226	36432.0375
2411.57809	36401.8375
2414.37216	36265.8375
2417.16446	36286.3375
2419.955	36245.9375
2422.74378	36235.9375
2425.5308	36167.8375
2428.31606	36204.0375
2431.09956	36200.2375
2433.88131	36215.6375
2436.6613	36204.7375
2439.43954	36187.3375
2442.21603	36116.3375
2444.99077	36094.1375
2447.76377	36109.0375
2450.53501	36047.9375
2453.30451	36099.5375
2456.07226	36025.0375
2458.83827	36015.3375
2461.60254	35960.3375
2464.36507	36011.7375
2467.12586	36021.1375
2469.88492	36036.3375
2472.64224	36013.0375
2475.39782	36063.8375
2478.15167	36084.1375
2480.90379	36105.7375
2483.65417	36170.1375
2486.40283	36138.7375
2489.14976	36191.5375
2491.89497	36202.7375
2494.63845	36253.6375
2497.3802	36181.6375
2500.12024	36210.2375
2502.85855	36183.7375
2505.59514	36183.9375
2508.33002	36120.9375
2511.06318	36043.9375
2513.79462	36060.0375
2516.52435	36013.3375
2519.25237	36020.5375
2521.97867	35998.5375
2524.70327	35936.2375
2527.42616	35929.3375
2530.14734	35931.2375
2532.86681	35835.9375
2535.58458	35901.8375
2538.30065	35865.4375
2541.01501	35869.9375
2543.72768	35901.6375
2546.43864	35879.9375
2549.14791	35785.2375
2551.85548	35744.9375
2554.56136	35660.7375
2557.26554	35609.8375
2559.96803	35594.1375
2562.66883	35576.4375
2565.36794	35533.0375
2568.06536	35550.6375
2570.7611	35463.8375
2573.45514	35429.8375
2576.14751	35401.4375
2578.83819	35446.6375
2581.52719	35452.5375
2584.21451	35439.4375
2586.90015	35450.2375
2589.58411	35384.8375
2592.2664	35421.3375
2594.94701	35346.8375
2597.62594	35404.4375
2600.30321	35405.6375
2602.9788	35390.3375
2605.65273	35350.9375
2608.32498	35346.3375
2610.99557	35346.4375
2613.66449	35404.8375
2616.33175	35391.9375
2618.99734	35379.3375
2621.66128	35359.5375
2624.32355	35402.3375
2626.98416	35361.8375
2629.64311	35370.4375
2632.30041	35334.3375
2634.95605	35294.8375
2637.61004	35297.8375
2640.26238	35316.4375
2642.91306	35259.8375
2645.56209	35214.9375
2648.20948	35152.3375
2650.85521	35119.3375
2653.4993	35145.3375
2656.14175	35148.2375
2658.78255	35166.8375
2661.42171	35249.8375
2664.05923	35268.3375
2666.6951	35262.1375
2669.32934	35342.8375
2671.96194	35311.1375
2674.59291	35360.1375
2677.22224	35329.2375
2679.84993	35352.1375
2682.476	35331.4375
2685.10043	35265.5375
2687.72324	35196.2375
2690.34441	35203.1375
2692.96396	35224.5375
2695.58188	35229.4375
2698.19818	35163.2375
2700.81285	35160.0375
2703.4259	35114.0375
2706.03733	35205.7375
2708.64714	35147.7375
2711.25533	35170.2375
2713.86191	35215.1375
2716.46687	35308.1375
2719.07021	35238.1375
2721.67194	35311.9375
2724.27206	35238.6375
2726.87057	35278.0375
2729.46747	35322.1375
2732.06276	35308.0375
2734.65644	35361.0375
2737.24852	35363.9375
2739.83899	35338.0375
2742.42786	35325.3375
2745.01513	35305.2375
2747.60079	35325.3375
2750.18486	35278.2375
2752.76733	35298.2375
2755.3482	35262.8375
2757.92747	35248.3375
2760.50515	35161.5375
2763.08123	35268.8375
2765.65573	35197.8375
2768.22863	35213.3375
2770.79994	35150.1375
2773.36967	35173.4375
2775.9378	35206.7375
2778.50435	35209.0375
2781.06932	35175.6375
2783.6327	35229.7375
2786.1945	35161.4375
2788.75471	35098.0375
2791.31335	35028.6375
2793.87041	35017.9375
2796.42589	34929.0375
2798.97979	34917.0375
2801.53212	34825.2375
2804.08288	34744.5375
2806.63206	34701.7375
2809.17967	34659.2375
2811.72571	34605.1375
2814.27018	34488.9375
2816.81308	34390.8375
2819.35442	34353.2375
2821.89419	34349.8375
2824.43239	34375.0375
2826.96904	34336.7375
2829.50412	34345.6375
2832.03763	34259.3375
2834.56959	34214.9375
2837.1	34191.9375
2839.62884	34124.5375
2842.15613	34144.9375
2844.68186	34153.9375
2847.20604	34107.2375
2849.72867	34083.6375
2852.24974	34023.3375
2854.76927	33956.7375
2857.28724	33949.0375
2859.80367	33932.8375
2862.31855	33918.3375
2864.83189	33876.4375
2867.34368	33795.4375
2869.85393	33805.8375
2872.36264	33810.2375
2874.8698	33746.7375
2877.37543	33715.2375
2879.87952	33718.9375
2882.38207	33736.8375
2884.88308	33734.7375
2887.38256	33768.1375
2889.88051	33779.4375
2892.37692	33802.1375
2894.8718	33786.1375
2897.36515	33846.5375
2899.85698	33840.8375
2902.34727	33903.1375
2904.83604	33942.4375
2907.32328	33955.6375
2909.809	33974.9375
2912.29319	33955.7375
2914.77587	34033.9375
2917.25702	34020.8375
2919.73665	33947.0375
2922.21476	33965.0375
2924.69136	33884.8375
2927.16644	33920.1375
2929.64	33863.9375
2932.11205	33801.8375
2934.58258	33739.8375
2937.05161	33792.3375
2939.51912	33784.3375
2941.98513	33740.1375
2944.44962	33711.3375
2946.91261	33637.2375
2949.37409	33700.3375
2951.83407	33657.3375
2954.29254	33607.3375
2956.74951	33611.8375
2959.20498	33612.6375
2961.65895	33609.7375
2964.11142	33642.4375
2966.56239	33533.1375
2969.01186	33517.4375
2971.45984	33370.2375
2973.90632	33324.2375
2976.35131	33252.2375
2978.7948	33256.4375
2981.23681	33204.3375
2983.67732	33116.4375
2986.11635	33049.4375
2988.55388	33005.8375
2990.98993	32905.3375
2993.4245	32882.4375
2995.85758	32804.3375
2998.28917	32695.8375
3000.71928	32652.9375
3003.14791	32626.2375
3005.57506	32609.7375
3008.00073	32462.4375
3010.42493	32415.4375
3012.84764	32347.9375
3015.26888	32290.1375
3017.68865	32232.6375
3020.10694	32147.1375
