Data from AgNPs_FTO_APTES_UA_20uM_CRN_0uM_R6G_10uM_NaF_0.1M_Addition_RamanShift__8__10-59-01-928.txt Node

Date: Thu Feb 17 10:59:01 GMT 2022
User: TCL
Spectrometer: QEP01345
Trigger mode: 4
Integration Time (sec): 7.000000E0
Scans to average: 10
Electric dark correction enabled: true
Nonlinearity correction enabled: false
Boxcar width: 0
XAxis mode: Raman Shifts
Number of Pixels in Spectrum: 1044
>>>>>Begin Spectral Data<<<<<
46.04893	1.3
50.45542	-0.9
54.85868	-1.1
59.25871	0.9
63.6555	34.4
68.04907	36.3
72.43941	42.7
76.82654	41.7
81.21044	43.5
85.59113	47.2
89.96862	46.7
94.34289	47.6
98.71396	49
103.08183	52.8
107.4465	54
111.80798	51.4
116.16626	54.4
120.52136	58.5
124.87327	59.8
129.222	63.8
133.56755	65
137.90993	69.6
142.24913	75.2
146.58517	86.2
150.91804	101.9
155.24774	114.3
159.57429	143.5
163.89768	191.5
168.21792	254.4
172.53501	346
176.84895	478.9
181.15975	673.3
185.46741	952.1
189.77193	1318.3
194.07331	1778.7
198.37157	2307
202.6667	2875.5
206.9587	3440.7
211.24758	3998.5
215.53334	4574.5
219.81599	5190.5
224.09553	5831
228.37195	6580.6
232.64527	7364.5
236.91549	8174.4
241.18261	8989.2
245.44663	9692.3
249.70755	10305.3
253.96539	10826.8
258.22014	11225.4
262.4718	11561.2
266.72039	11771.7
270.96589	11862.7
275.20832	11755.7
279.44768	11584.7
283.68397	11342.6
287.91719	11153.5
292.14735	11020.2
296.37445	11018.9
300.59849	11140.7
304.81948	11333.6
309.03742	11519.9
313.25231	11596.9
317.46415	11391.6
321.67296	10944.9
325.87872	10443.8
330.08145	10102.2
334.28114	9981.2
338.47781	10062.2
342.67145	10210.4
346.86207	10491.3
351.04966	10863.5
355.23424	11268.4
359.4158	11512.4
363.59435	11576
367.76989	11507.7
371.94243	11392.6
376.11196	11252.2
380.27849	11192.2
384.44203	11090.7
388.60257	11100
392.76012	11155.5
396.91468	11310.7
401.06626	11514.9
405.21485	11631.1
409.36047	11477
413.50311	11089.4
417.64277	10745.7
421.77947	10652.5
425.9132	10630.6
430.04396	10659.7
434.17176	10663
438.2966	10683.7
442.41849	10771.6
446.53742	10943.4
450.6534	11120.6
454.76644	11163.7
458.87653	11131.5
462.98368	11069.8
467.08789	10984.6
471.18916	10873.8
475.2875	10635.3
479.38291	10473
483.4754	10344.5
487.56496	10266.8
491.6516	10223.9
495.73531	10210.3
499.81612	10189.8
503.89401	10243.7
507.96899	10324.9
512.04106	10406.3
516.11023	10489.8
520.1765	10534.7
524.23987	10506.7
528.30034	10425.3
532.35792	10336.4
536.41261	10228.2
540.46441	10055.9
544.51333	9994.4
548.55936	10042.2
552.60252	10193.9
556.64279	10414.6
560.6802	10573.4
564.71473	10681.4
568.7464	10942.4
572.7752	11222.6
576.80114	11296
580.82422	11404
584.84444	11647.9
588.86181	11995.2
592.87633	12430
596.888	12592.9
600.89682	12384.7
604.9028	12542.9
608.90594	14288.3
612.90624	16995.1
616.90371	16579.7
620.89834	12758.9
624.89015	10655.8
628.87913	10298.6
632.86528	10414.2
636.84862	10536
640.82913	10326.5
644.80683	9908.6
648.78172	9656.6
652.75379	9667.6
656.72306	9887
660.68952	10167
664.65319	10098.8
668.61405	9741.3
672.57211	9518.7
676.52738	9522.2
680.47986	9544.7
684.42955	9516.8
688.37646	9474.8
692.32058	9474.1
696.26192	9552.8
700.20048	9663.3
704.13626	9725.6
708.06928	9765.3
711.99952	9720.6
715.927	9658.3
719.85171	9638
723.77365	9608.8
727.69284	9489.2
731.60928	9359.5
735.52295	9298.7
739.43388	9300.8
743.34206	9331.9
747.24749	9410.2
751.15017	9476.1
755.05012	9637.4
758.94733	10004
762.8418	10837
766.73354	12285.5
770.62254	13661.8
774.50882	13960.5
778.39237	13245.5
782.27321	12072.4
786.15132	10823.1
790.02671	9994.3
793.89938	9594.3
797.76935	9376
801.6366	9301.8
805.50115	9223.8
809.36299	9156.2
813.22213	9075
817.07857	9040.8
820.93231	9020.7
824.78336	8991.7
828.63172	8994.3
832.47738	8983.2
836.32036	8960.8
840.16066	8926.3
843.99827	8906.3
847.8332	8914.5
851.66546	8910.8
855.49504	8944.1
859.32195	8945.2
863.1462	8907.7
866.96777	8907.1
870.78668	8891
874.60293	8892.4
878.41652	8920.2
882.22745	8952.7
886.03573	9022.2
889.84136	9053.9
893.64433	9047.8
897.44466	9093.9
901.24235	9109.4
905.0374	9130.4
908.8298	9101.8
912.61957	9092.7
916.40671	9113.9
920.19121	9207.6
923.97308	9310.5
927.75233	9419.6
931.52895	9460.3
935.30295	9287.9
939.07433	9029.6
942.84309	8806.8
946.60924	8647.3
950.37278	8565
954.13371	8558
957.89203	8497.6
961.64774	8467.9
965.40086	8459.2
969.15137	8419.7
972.89929	8355.5
976.64461	8326.1
980.38733	8299.5
984.12747	8280.6
987.86502	8293.4
991.59999	8326.6
995.33237	8390.5
999.06217	8482.1
1002.78939	8634
1006.51404	8851.2
1010.23611	9036.2
1013.95561	9113.7
1017.67255	9117.7
1021.38692	8993.9
1025.09872	8835
1028.80796	8684.7
1032.51465	8626.8
1036.21877	8621.3
1039.92035	8671.4
1043.61937	8718.8
1047.31584	8791.1
1051.00976	8846.3
1054.70114	8884.4
1058.38998	8867.7
1062.07627	8843.2
1065.76003	8868.4
1069.44126	8916.8
1073.11995	9015.3
1076.79611	9195.8
1080.46974	9313.1
1084.14085	9512.3
1087.80943	9779.4
1091.47549	9865.7
1095.13903	9746.3
1098.80005	9419
1102.45857	9121.4
1106.11456	8921.9
1109.76805	8855.1
1113.41903	8919.3
1117.06751	9088.1
1120.71348	9371.1
1124.35696	9719.9
1127.99793	10055.9
1131.63641	10112.9
1135.2724	9836.4
1138.90589	9508.2
1142.5369	9321.7
1146.16542	9196.8
1149.79145	9119.4
1153.415	9154.8
1157.03607	9237.7
1160.65467	9503.4
1164.27079	9940
1167.88443	10535.3
1171.49561	11332.3
1175.10432	12432.2
1178.71056	13849.9
1182.31434	15158
1185.91565	15664.1
1189.51451	15543.4
1193.11091	14977.5
1196.70485	14102.2
1200.29634	13168.4
1203.88538	12335.2
1207.47197	11652.4
1211.05612	11170.2
1214.63782	10749.7
1218.21708	10489.3
1221.79391	10314.1
1225.36829	10258.8
1228.94024	10217.1
1232.50976	10191.5
1236.07685	10151.3
1239.6415	10111.6
1243.20374	10077.6
1246.76355	10030.2
1250.32093	10054.2
1253.8759	10215.2
1257.42845	10501
1260.97859	10928.5
1264.52631	11408.2
1268.07163	11850.7
1271.61453	12228.3
1275.15503	12528.7
1278.69312	12760
1282.22882	13011.8
1285.76211	13439.4
1289.29301	13998.2
1292.82151	14593.6
1296.34761	15215.6
1299.87133	16030.9
1303.39266	17090
1306.9116	18542.1
1310.42815	20132.3
1313.94233	20938.5
1317.45412	20407.9
1320.96354	19169.2
1324.47058	17975.4
1327.97525	17040.1
1331.47754	16403.9
1334.97747	16073.7
1338.47502	16024.7
1341.97022	16187.1
1345.46305	16729.4
1348.95352	17594.7
1352.44163	18452.2
1355.92738	19446.6
1359.41078	20936.6
1362.89183	22867.9
1366.37053	22872.2
1369.84688	20062.8
1373.32088	16581.1
1376.79254	14271.3
1380.26186	13209.7
1383.72883	12689.1
1387.19347	12228.7
1390.65578	11830
1394.11575	11637.7
1397.57339	11663.3
1401.0287	11739.2
1404.48168	11782.2
1407.93234	11702
1411.38068	11483.2
1414.82669	11248.3
1418.27039	11020.8
1421.71177	10807.3
1425.15083	10596.4
1428.58758	10486.5
1432.02203	10570.2
1435.45416	10795.3
1438.88399	10995.1
1442.31151	11042.8
1445.73673	11121
1449.15965	11185.3
1452.58027	11217.1
1455.9986	11272.3
1459.41463	11357.6
1462.82837	11520.9
1466.23982	11704
1469.64898	11886.4
1473.05586	12028.6
1476.46045	12106.5
1479.86276	12187
1483.26279	12335.7
1486.66054	12606.5
1490.05602	13029.4
1493.44922	13728.4
1496.84016	14720.8
1500.22882	16040.2
1503.61521	17643.1
1506.99934	19384.8
1510.38121	20903.2
1513.76081	21283.5
1517.13816	20112.6
1520.51324	17929.5
1523.88607	15934
1527.25665	14599.5
1530.62498	13766.2
1533.99105	13180.2
1537.35488	12710.4
1540.71647	12219
1544.07581	11868.1
1547.4329	11553.8
1550.78776	11452.8
1554.14038	11399.1
1557.49077	11545
1560.83892	11729.2
1564.18484	12012.1
1567.52853	12356.3
1570.86999	12659
1574.20922	12873.1
1577.54624	12886.6
1580.88103	12413.8
1584.2136	11744.8
1587.54395	11420.6
1590.87208	11590.4
1594.19801	12099.6
1597.52172	12749.6
1600.84321	12886.6
1604.16251	12325.8
1607.47959	11560.8
1610.79447	10850.7
1614.10715	10103.6
1617.41763	9391.1
1620.7259	8848
1624.03199	8613.2
1627.33587	8593.3
1630.63757	8890.8
1633.93707	9526.2
1637.23439	10660.4
1640.52951	12328.7
1643.82246	14373.4
1647.11321	16343
1650.40179	17231
1653.68819	16322.7
1656.97241	13932.9
1660.25446	11309.8
1663.53433	9398.2
1666.81203	8283.9
1670.08756	7637.9
1673.36092	7261
1676.63211	7039.6
1679.90115	6862.9
1683.16801	6721.5
1686.43272	6633.2
1689.69527	6576.8
1692.95567	6507.7
1696.2139	6474
1699.46999	6438.2
1702.72392	6401.6
1705.97571	6384.4
1709.22535	6352.8
1712.47284	6364.2
1715.71819	6389.7
1718.96139	6391.3
1722.20246	6392.2
1725.44139	6368
1728.67818	6325.8
1731.91284	6293.2
1735.14537	6303.6
1738.37576	6234.1
1741.60403	6292.4
1744.83017	6302.8
1748.05418	6335.7
1751.27607	6342.3
1754.49584	6392
1757.71349	6432
1760.92903	6473
1764.14244	6496.5
1767.35375	6525.4
1770.56294	6517.9
1773.77002	6546.5
1776.97499	6548.5
1780.17785	6525.3
1783.37861	6507.5
1786.57727	6476.2
1789.77382	6402.7
1792.96828	6356.8
1796.16064	6283.2
1799.3509	6216
1802.53907	6144.9
1805.72514	6074.3
1808.90913	6001.9
1812.09102	5938.4
1815.27083	5847
1818.44856	5803.8
1821.6242	5749.9
1824.79776	5701
1827.96924	5663.8
1831.13864	5660.9
1834.30597	5643.7
1837.47122	5633.8
1840.6344	5610.9
1843.7955	5602.4
1846.95454	5586.1
1850.11151	5584.5
1853.26642	5564
1856.41926	5556.7
1859.57004	5543.9
1862.71876	5530.4
1865.86542	5506.6
1869.01003	5495.5
1872.15258	5461.9
1875.29308	5444.8
1878.43152	5440.8
1881.56792	5420.7
1884.70227	5407.4
1887.83457	5388.1
1890.96482	5382.7
1894.09304	5355.7
1897.21921	5330.6
1900.34335	5297.9
1903.46544	5291.7
1906.58551	5295.3
1909.70353	5290.7
1912.81953	5261.3
1915.93349	5236
1919.04543	5223.5
1922.15534	5215.2
1925.26322	5184.4
1928.36908	5175.9
1931.47292	5148
1934.57473	5130.1
1937.67453	5096.5
1940.77232	5073.8
1943.86808	5056.6
1946.96184	5043.5
1950.05358	5032.1
1953.14331	5009
1956.23103	4983.2
1959.31675	4956.8
1962.40046	4940.2
1965.48217	4916.9
1968.56188	4908.5
1971.63959	4877.7
1974.7153	4881.2
1977.78901	4852
1980.86073	4822.3
1983.93046	4789.8
1986.99819	4772
1990.06394	4758.7
1993.1277	4742.7
1996.18947	4713.9
1999.24925	4698.2
2002.30706	4683.8
2005.36288	4640.9
2008.41672	4645.4
2011.46859	4638.1
2014.51848	4610.4
2017.56639	4587.4
2020.61233	4566.1
2023.6563	4553
2026.6983	4529.4
2029.73833	4511.4
2032.7764	4517.2
2035.8125	4490.1
2038.84664	4479.9
2041.87881	4485.7
2044.90903	4461.5
2047.93729	4459.6
2050.96359	4436
2053.98794	4444.9
2057.01034	4441.7
2060.03078	4421.4
2063.04927	4419
2066.06582	4414.4
2069.08042	4428.9
2072.09307	4410.6
2075.10378	4413.7
2078.11255	4399.8
2081.11938	4405
2084.12426	4385.8
2087.12722	4388.4
2090.12824	4379.9
2093.12732	4389.3
2096.12447	4389.2
2099.11969	4367.7
2102.11299	4351.8
2105.10435	4360.4
2108.09379	4355.1
2111.08131	4358.8
2114.0669	4341.3
2117.05057	4349.9
2120.03233	4322.7
2123.01216	4338.4
2125.99008	4339.4
2128.96609	4330.7
2131.94018	4329.6
2134.91236	4332.4
2137.88263	4326.7
2140.851	4312
2143.81746	4307.8
2146.78201	4306.5
2149.74466	4304.4
2152.7054	4290.9
2155.66425	4278.6
2158.6212	4284
2161.57625	4278.1
2164.52941	4268.7
2167.48067	4241.9
2170.43004	4235.2
2173.37752	4234.3
2176.32311	4247.3
2179.26681	4248.8
2182.20863	4247
2185.14856	4236.3
2188.08661	4211.1
2191.02278	4206.6
2193.95707	4196.6
2196.88948	4206.8
2199.82001	4198.9
2202.74867	4176.4
2205.67545	4168.2
2208.60037	4158.2
2211.52341	4133.9
2214.44458	4149.2
2217.36388	4116.5
2220.28132	4089.9
2223.1969	4094.3
2226.11061	4088.2
2229.02246	4074.1
2231.93245	4061.6
2234.84058	4060.9
2237.74686	4067.8
2240.65128	4051
2243.55385	4049.3
2246.45456	4032
2249.35343	4023.5
2252.25044	4018
2255.14561	4004.2
2258.03893	4006.1
2260.93041	3982.4
2263.82004	3978.9
2266.70783	3980.7
2269.59378	3958.7
2272.4779	3952.1
2275.36017	3933.2
2278.24061	3934.9
2281.11922	3929.3
2283.996	3910.1
2286.87094	3894.6
2289.74405	3867.8
2292.61534	3868.7
2295.4848	3850
2298.35243	3841
2301.21824	3841.3
2304.08223	3829.4
2306.94439	3840.9
2309.80474	3822.2
2312.66327	3811.7
2315.51999	3811.3
2318.37489	3795.8
2321.22797	3781.7
2324.07925	3795.7
2326.92871	3775.2
2329.77637	3767.5
2332.62222	3751.9
2335.46626	3762.1
2338.3085	3753
2341.14893	3736.9
2343.98756	3733.9
2346.8244	3745.7
2349.65943	3731.5
2352.49267	3751.7
2355.32411	3749.7
2358.15376	3752
2360.98161	3757.1
2363.80768	3767
2366.63195	3748.3
2369.45444	3755.2
2372.27514	3739.3
2375.09405	3735.4
2377.91118	3730
2380.72652	3704.1
2383.54009	3688.3
2386.35187	3681.6
2389.16188	3651.3
2391.97011	3641.8
2394.77657	3629.5
2397.58125	3606.8
2400.38416	3602.7
2403.18529	3586.9
2405.98466	3563.4
2408.78226	3570.5
2411.57809	3568.2
2414.37216	3558.8
2417.16446	3566.3
2419.955	3558.9
2422.74378	3547.7
2425.5308	3544.8
2428.31606	3553.6
2431.09956	3543
2433.88131	3533.9
2436.6613	3526
2439.43954	3530.4
2442.21603	3531.9
2444.99077	3540.4
2447.76377	3542.6
2450.53501	3508.6
2453.30451	3520.7
2456.07226	3523.3
2458.83827	3520.2
2461.60254	3507.8
2464.36507	3501
2467.12586	3487.6
2469.88492	3484.9
2472.64224	3488.2
2475.39782	3483.9
2478.15167	3492.2
2480.90379	3491.7
2483.65417	3508.1
2486.40283	3505.1
2489.14976	3506.2
2491.89497	3503.9
2494.63845	3483.5
2497.3802	3479.6
2500.12024	3487.1
2502.85855	3465.4
2505.59514	3476.9
2508.33002	3458.5
2511.06318	3438.2
2513.79462	3428.8
2516.52435	3413.1
2519.25237	3406.3
2521.97867	3391.9
2524.70327	3386.6
2527.42616	3378.4
2530.14734	3361
2532.86681	3358.4
2535.58458	3345.8
2538.30065	3344
2541.01501	3328.5
2543.72768	3350
2546.43864	3346.5
2549.14791	3336.7
2551.85548	3328.9
2554.56136	3309.7
2557.26554	3307.1
2559.96803	3305.2
2562.66883	3299
2565.36794	3288.2
2568.06536	3286.3
2570.7611	3274.7
2573.45514	3280.5
2576.14751	3261.7
2578.83819	3254.5
2581.52719	3245.7
2584.21451	3235.8
2586.90015	3236.1
2589.58411	3234.5
2592.2664	3230.3
2594.94701	3215.4
2597.62594	3213.9
2600.30321	3209.1
2602.9788	3203.1
2605.65273	3195.7
2608.32498	3185.9
2610.99557	3201.3
2613.66449	3193.5
2616.33175	3187
2618.99734	3191.6
2621.66128	3168.6
2624.32355	3162.1
2626.98416	3151.1
2629.64311	3142.8
2632.30041	3146.8
2634.95605	3137
2637.61004	3148.9
2640.26238	3135
2642.91306	3139.4
2645.56209	3131.8
2648.20948	3138.1
2650.85521	3109.4
2653.4993	3107.8
2656.14175	3123
2658.78255	3121
2661.42171	3118.1
2664.05923	3129.9
2666.6951	3140.2
2669.32934	3134.1
2671.96194	3137.2
2674.59291	3127.8
2677.22224	3121.8
2679.84993	3125.4
2682.476	3116.8
2685.10043	3112.6
2687.72324	3094.5
2690.34441	3125.2
2692.96396	3107.2
2695.58188	3111.1
2698.19818	3082.5
2700.81285	3098.2
2703.4259	3091.8
2706.03733	3079.4
2708.64714	3089.6
2711.25533	3092.5
2713.86191	3098.5
2716.46687	3086.4
2719.07021	3101.2
2721.67194	3101
2724.27206	3098.6
2726.87057	3098
2729.46747	3090.5
2732.06276	3082.2
2734.65644	3080.6
2737.24852	3072.6
2739.83899	3069.6
2742.42786	3050.2
2745.01513	3061.7
2747.60079	3059.4
2750.18486	3029.8
2752.76733	3040.6
2755.3482	3029.7
2757.92747	3022.6
2760.50515	3011.1
2763.08123	3018.2
2765.65573	3002.5
2768.22863	3005
2770.79994	2998.2
2773.36967	2983.4
2775.9378	2985.6
2778.50435	2992.7
2781.06932	2997.6
2783.6327	2997.3
2786.1945	2975.7
2788.75471	2990.2
2791.31335	2974.3
2793.87041	2971.4
2796.42589	2961.7
2798.97979	2967.2
2801.53212	2947.3
2804.08288	2944.7
2806.63206	2943.2
2809.17967	2935
2811.72571	2940.3
2814.27018	2938
2816.81308	2925.8
2819.35442	2929.5
2821.89419	2925.5
2824.43239	2916.8
2826.96904	2926.5
2829.50412	2919.7
2832.03763	2904.3
2834.56959	2916.3
2837.1	2902.2
2839.62884	2912.1
2842.15613	2909
2844.68186	2927.4
2847.20604	2919.2
2849.72867	2938.9
2852.24974	2940.4
2854.76927	2916
2857.28724	2937.7
2859.80367	2936.6
2862.31855	2934.5
2864.83189	2931.3
2867.34368	2919.7
2869.85393	2927.6
2872.36264	2929.1
2874.8698	2924.5
2877.37543	2919.5
2879.87952	2909.6
2882.38207	2909.2
2884.88308	2902.5
2887.38256	2909.7
2889.88051	2908.3
2892.37692	2911.8
2894.8718	2901.3
2897.36515	2912.5
2899.85698	2903
2902.34727	2915.8
2904.83604	2908.5
2907.32328	2918.5
2909.809	2927.5
2912.29319	2921.5
2914.77587	2928.5
2917.25702	2926.3
2919.73665	2927.6
2922.21476	2929.4
2924.69136	2907.9
2927.16644	2914.6
2929.64	2906.4
2932.11205	2897.7
2934.58258	2885.2
2937.05161	2890.8
2939.51912	2881.5
2941.98513	2879.7
2944.44962	2864.6
2946.91261	2840.4
2949.37409	2847.2
2951.83407	2840
2954.29254	2830.3
2956.74951	2824.9
2959.20498	2823.9
2961.65895	2801.7
2964.11142	2793.7
2966.56239	2803.3
2969.01186	2782.1
2971.45984	2785.6
2973.90632	2770.7
2976.35131	2768.5
2978.7948	2750.2
2981.23681	2748
2983.67732	2740.9
2986.11635	2739.9
2988.55388	2729.1
2990.98993	2726
2993.4245	2708.9
2995.85758	2704.5
2998.28917	2698.8
3000.71928	2693.4
3003.14791	2691.6
3005.57506	2678.6
3008.00073	2672
3010.42493	2675.3
3012.84764	2670.3
3015.26888	2658.8
3017.68865	2660.1
3020.10694	2664.3
3022.52376	2640.7
3024.9391	2646.7
3027.35298	2638.2
3029.76539	2621.7
3032.17632	2622
3034.5858	2608.1
3036.9938	2610.8
3039.40034	2598.4
3041.80542	2594.1
3044.20903	2596.6
3046.61118	2589.9
3049.01187	2602.8
3051.4111	2582.1
3053.80888	2574.8
3056.20519	2585.3
3058.60005	2568.6
3060.99345	2579
3063.3854	2571.2
3065.7759	2573.7
3068.16494	2546.9
3070.55254	2543.2
3072.93868	2543.1
3075.32338	2542.1
3077.70662	2543.1
3080.08842	2518.7
3082.46878	2523
3084.84769	2519
3087.22515	2514.1
3089.60118	2512.6
3091.97576	2519.2
3094.3489	2520.2
3096.72061	2530.1
3099.09087	2520
3101.4597	2524.9
3103.82709	2538.9
3106.19305	2529.4
3108.55757	2535.3
3110.92066	2534.8
3113.28232	2535.3
3115.64255	2515.3
3118.00134	2509.7
3120.35871	2506.9
3122.71466	2502.5
3125.06917	2513.6
3127.42226	2508.5
3129.77393	2514.1
3132.12417	2498.7
3134.47299	2513.1
3136.82039	2504.2
3139.16636	2519.9
3141.51092	2509.8
3143.85406	2532
3146.19579	2534
3148.53609	2529.8
3150.87499	2541.1
3153.21246	2533.3
3155.54853	2551.7
3157.88318	2546.4
3160.21642	2568.5
3162.54826	2551.3
3164.87868	2541.1
3167.2077	2562.5
3169.5353	2556.3
3171.86151	2562.8
3174.18631	2573.4
3176.5097	2573.5
3178.83169	2560.1
3181.15228	2560.5
3183.47147	2551.9
3185.78926	2547.9
3188.10565	2547.8
3190.42065	2558.4
3192.73424	2555
3195.04645	2548.3
3197.35725	2542.5
3199.66667	2559.6
3201.97469	2556.5
3204.28132	2546.4
3206.58656	2559
3208.8904	2554.2
3211.19287	2570.2
3213.49394	2567.3
3215.79363	2569
3218.09193	2570
3220.38884	2569.5
3222.68438	2574.6
3224.97853	2576.9
3227.2713	2570.4
3229.56269	2567
3231.8527	2569.9
3234.14133	2558.1
3236.42858	2556
3238.71446	2562.5
3240.99896	2546.1
3243.28209	2552.3
3245.56384	2546.4
3247.84423	2549.2
3250.12324	2532
3252.40088	2535.5
3254.67715	2530.8
3256.95205	2530.7
3259.22558	2529.2
3261.49775	2515.2
3263.76855	2508.9
3266.03799	2497.5
3268.30606	2501.9
3270.57277	2504.2
3272.83812	2494.5
3275.10211	2496.7
3277.36474	2502.4
3279.62601	2502.4
3281.88593	2502.8
3284.14448	2492
3286.40168	2499.5
3288.65753	2494.8
3290.91202	2490.8
3293.16516	2492
3295.41695	2483.2
3297.66738	2471.9
3299.91647	2453.9
3302.16421	2436.6
3304.4106	2438.1
3306.65564	2415.1
3308.89933	2381.9
3311.14169	2381.5
3313.38269	2352.9
3315.62236	2354.9
3317.86068	2326.6
3320.09766	2301.2
3322.3333	2299
3324.5676	2283.2
3326.80056	2242.6
3329.03219	2226.7
3331.26248	1.3
3333.49143	0.7
3335.71905	-1.8
