Data from AgNPs_FTO_APTES_UA_20uM_CRN_0uM_R6G_10uM_NaF_0.1M_Addition_RamanShift__27__11-21-11-958.txt Node

Date: Thu Feb 17 11:21:11 GMT 2022
User: TCL
Spectrometer: QEP01345
Trigger mode: 4
Integration Time (sec): 7.000000E0
Scans to average: 10
Electric dark correction enabled: true
Nonlinearity correction enabled: false
Boxcar width: 0
XAxis mode: Raman Shifts
Number of Pixels in Spectrum: 1044
>>>>>Begin Spectral Data<<<<<
46.04893	1.5125
50.45542	0.1125
54.85868	-2.1875
59.25871	0.7125
63.6555	31.1125
68.04907	32.2125
72.43941	37.4125
76.82654	36.2125
81.21044	40.4125
85.59113	44.5125
89.96862	42.4125
94.34289	44.9125
98.71396	42.9125
103.08183	48.1125
107.4465	49.3125
111.80798	47.2125
116.16626	47.9125
120.52136	54.2125
124.87327	49.5125
129.222	54.2125
133.56755	56.0125
137.90993	54.6125
142.24913	57.4125
146.58517	61.5125
150.91804	72.9125
155.24774	81.5125
159.57429	101.9125
163.89768	125.3125
168.21792	167.1125
172.53501	221.9125
176.84895	297.2125
181.15975	420.4125
185.46741	579.1125
189.77193	797.8125
194.07331	1055.2125
198.37157	1364.6125
202.6667	1683.2125
206.9587	2003.3125
211.24758	2332.2125
215.53334	2679.9125
219.81599	3100.9125
224.09553	3573.9125
228.37195	4105.6125
232.64527	4692.3125
236.91549	5256.4125
241.18261	5772.4125
245.44663	6183.3125
249.70755	6475.0125
253.96539	6637.4125
258.22014	6725.9125
262.4718	6707.6125
266.72039	6675.1125
270.96589	6596.0125
275.20832	6457.3125
279.44768	6261.4125
283.68397	6060.8125
287.91719	5946.5125
292.14735	6028.5125
296.37445	6309.8125
300.59849	6836.7125
304.81948	7488.3125
309.03742	8032.6125
313.25231	8140.9125
317.46415	7651.7125
321.67296	6737.4125
325.87872	5932.2125
330.08145	5544.0125
334.28114	5512.2125
338.47781	5672.3125
342.67145	5921.7125
346.86207	6364.8125
351.04966	7034.5125
355.23424	7815.4125
359.4158	8375.7125
363.59435	8638.9125
367.76989	8639.5125
371.94243	8524.4125
376.11196	8366.2125
380.27849	8179.5125
384.44203	7935.1125
388.60257	7656.7125
392.76012	7431.0125
396.91468	7440.0125
401.06626	7681.6125
405.21485	7881.7125
409.36047	7620.6125
413.50311	6886.2125
417.64277	6206.8125
421.77947	5815.6125
425.9132	5640.6125
430.04396	5620.7125
434.17176	5710.5125
438.2966	5941.6125
442.41849	6328.8125
446.53742	6808.0125
450.6534	7215.6125
454.76644	7322.3125
458.87653	7149.5125
462.98368	6812.9125
467.08789	6430.8125
471.18916	6087.0125
475.2875	5730.9125
479.38291	5383.3125
483.4754	5128.8125
487.56496	4960.3125
491.6516	4886.4125
495.73531	4864.6125
499.81612	4909.2125
503.89401	5030.7125
507.96899	5181.3125
512.04106	5379.2125
516.11023	5651.4125
520.1765	5894.8125
524.23987	5902.9125
528.30034	5776.3125
532.35792	5583.5125
536.41261	5327.2125
540.46441	5058.3125
544.51333	4891.4125
548.55936	4869.2125
552.60252	5033.9125
556.64279	5320.7125
560.6802	5464.2125
564.71473	5600.9125
568.7464	6073.0125
572.7752	6359.5125
576.80114	5923.3125
580.82422	5380.7125
584.84444	5145.4125
588.86181	5345.9125
592.87633	5759.0125
596.888	5997.4125
600.89682	6075.5125
604.9028	7198.9125
608.90594	10915.9125
612.90624	16072.5125
616.90371	15638.0125
620.89834	9046.6125
624.89015	5700.9125
628.87913	4967.9125
632.86528	4984.1125
636.84862	5154.6125
640.82913	4996.1125
644.80683	4510.2125
648.78172	4176.6125
652.75379	4232.0125
656.72306	4711.7125
660.68952	5272.3125
664.65319	5100.4125
668.61405	4467.3125
672.57211	4141.9125
676.52738	4092.1125
680.47986	4039.3125
684.42955	3946.0125
688.37646	3895.4125
692.32058	3972.4125
696.26192	4096.1125
700.20048	4272.4125
704.13626	4353.6125
708.06928	4312.8125
711.99952	4200.5125
715.927	4174.3125
719.85171	4240.2125
723.77365	4271.9125
727.69284	4191.5125
731.60928	4136.4125
735.52295	4185.4125
739.43388	4207.5125
743.34206	4245.2125
747.24749	4232.3125
751.15017	4243.7125
755.05012	4374.9125
758.94733	4883.8125
762.8418	6102.6125
766.73354	8158.2125
770.62254	10309.4125
774.50882	11705.7125
778.39237	11518.5125
782.27321	9285.8125
786.15132	6731.8125
790.02671	5254.7125
793.89938	4622.0125
797.76935	4359.6125
801.6366	4260.9125
805.50115	4189.1125
809.36299	4148.0125
813.22213	4094.1125
817.07857	4075.5125
820.93231	4047.5125
824.78336	4082.3125
828.63172	4125.1125
832.47738	4163.5125
836.32036	4102.9125
840.16066	4018.2125
843.99827	3943.1125
847.8332	3912.2125
851.66546	3908.8125
855.49504	3926.3125
859.32195	3887.3125
863.1462	3821.3125
866.96777	3792.9125
870.78668	3794.5125
874.60293	3834.9125
878.41652	3892.4125
882.22745	3971.7125
886.03573	4013.5125
889.84136	3990.4125
893.64433	3933.6125
897.44466	3907.9125
901.24235	3903.6125
905.0374	3869.0125
908.8298	3775.9125
912.61957	3717.2125
916.40671	3716.9125
920.19121	3744.1125
923.97308	3839.8125
927.75233	3980.9125
931.52895	4124.2125
935.30295	4027.8125
939.07433	3745.7125
942.84309	3516.6125
946.60924	3364.9125
950.37278	3304.5125
954.13371	3279.9125
957.89203	3239.0125
961.64774	3217.5125
965.40086	3215.5125
969.15137	3200.1125
972.89929	3202.9125
976.64461	3199.2125
980.38733	3199.8125
984.12747	3207.4125
987.86502	3232.7125
991.59999	3273.7125
995.33237	3360.6125
999.06217	3521.8125
1002.78939	3698.1125
1006.51404	3863.9125
1010.23611	4051.9125
1013.95561	4169.6125
1017.67255	4103.6125
1021.38692	3886.4125
1025.09872	3665.6125
1028.80796	3526.9125
1032.51465	3511.2125
1036.21877	3556.7125
1039.92035	3686.6125
1043.61937	3764.9125
1047.31584	3780.1125
1051.00976	3754.2125
1054.70114	3690.3125
1058.38998	3630.2125
1062.07627	3613.7125
1065.76003	3593.5125
1069.44126	3617.4125
1073.11995	3726.5125
1076.79611	3941.9125
1080.46974	4233.4125
1084.14085	4594.3125
1087.80943	4918.9125
1091.47549	5006.4125
1095.13903	4747.3125
1098.80005	4326.1125
1102.45857	4043.0125
1106.11456	3996.7125
1109.76805	4139.4125
1113.41903	4452.1125
1117.06751	4933.4125
1120.71348	5585.3125
1124.35696	6292.0125
1127.99793	6761.0125
1131.63641	6477.0125
1135.2724	5697.4125
1138.90589	5023.5125
1142.5369	4631.5125
1146.16542	4419.7125
1149.79145	4265.7125
1153.415	4226.2125
1157.03607	4276.1125
1160.65467	4470.4125
1164.27079	4852.5125
1167.88443	5438.4125
1171.49561	6476.8125
1175.10432	8164.9125
1178.71056	10398.9125
1182.31434	11991.0125
1185.91565	12310.5125
1189.51451	11740.4125
1193.11091	10670.1125
1196.70485	9427.2125
1200.29634	8359.0125
1203.88538	7409.5125
1207.47197	6382.7125
1211.05612	5623.3125
1214.63782	5283.8125
1218.21708	5198.7125
1221.79391	5176.9125
1225.36829	5069.4125
1228.94024	4901.5125
1232.50976	4794.7125
1236.07685	4861.5125
1239.6415	5016.0125
1243.20374	5150.2125
1246.76355	5141.2125
1250.32093	5181.4125
1253.8759	5387.8125
1257.42845	5754.9125
1260.97859	6234.5125
1264.52631	6773.3125
1268.07163	7202.6125
1271.61453	7502.7125
1275.15503	7592.8125
1278.69312	7562.9125
1282.22882	7607.5125
1285.76211	8037.2125
1289.29301	8676.9125
1292.82151	9372.1125
1296.34761	10012.2125
1299.87133	10892.5125
1303.39266	12405.6125
1306.9116	14725.9125
1310.42815	17314.5125
1313.94233	18479.0125
1317.45412	17302.4125
1320.96354	14905.5125
1324.47058	12464.5125
1327.97525	10594.3125
1331.47754	9625.8125
1334.97747	9545.8125
1338.47502	9975.2125
1341.97022	10611.8125
1345.46305	11456.6125
1348.95352	12873.3125
1352.44163	15022.5125
1355.92738	18050.3125
1359.41078	21944.8125
1362.89183	24721.9125
1366.37053	23100.5125
1369.84688	18518.5125
1373.32088	14370.0125
1376.79254	11709.4125
1380.26186	10187.4125
1383.72883	9162.2125
1387.19347	8224.7125
1390.65578	7362.5125
1394.11575	6759.5125
1397.57339	6506.6125
1401.0287	6490.9125
1404.48168	6561.8125
1407.93234	6675.4125
1411.38068	6784.5125
1414.82669	6785.6125
1418.27039	6642.1125
1421.71177	6475.0125
1425.15083	6367.4125
1428.58758	6521.3125
1432.02203	6800.4125
1435.45416	7067.0125
1438.88399	7164.8125
1442.31151	7128.4125
1445.73673	7075.4125
1449.15965	7038.1125
1452.58027	6856.1125
1455.9986	6570.0125
1459.41463	6484.0125
1462.82837	6689.4125
1466.23982	7106.7125
1469.64898	7564.0125
1473.05586	7933.3125
1476.46045	8245.5125
1479.86276	8576.7125
1483.26279	8895.9125
1486.66054	9146.7125
1490.05602	9495.2125
1493.44922	9948.4125
1496.84016	10744.9125
1500.22882	12451.1125
1503.61521	15098.0125
1506.99934	17988.3125
1510.38121	20557.2125
1513.76081	21251.4125
1517.13816	19086.0125
1520.51324	15236.9125
1523.88607	11889.2125
1527.25665	9924.9125
1530.62498	9035.6125
1533.99105	8612.7125
1537.35488	8381.2125
1540.71647	8262.1125
1544.07581	8187.3125
1547.4329	8069.5125
1550.78776	7881.4125
1554.14038	7647.8125
1557.49077	7500.7125
1560.83892	7583.4125
1564.18484	7954.4125
1567.52853	8597.4125
1570.86999	9175.1125
1574.20922	9564.5125
1577.54624	9444.7125
1580.88103	8537.0125
1584.2136	7305.3125
1587.54395	6657.2125
1590.87208	6805.7125
1594.19801	7722.8125
1597.52172	9136.0125
1600.84321	10089.3125
1604.16251	9841.0125
1607.47959	8668.3125
1610.79447	7160.6125
1614.10715	5852.5125
1617.41763	4999.4125
1620.7259	4523.6125
1624.03199	4323.8125
1627.33587	4335.7125
1630.63757	4578.0125
1633.93707	5078.6125
1637.23439	6017.6125
1640.52951	7577.7125
1643.82246	9846.7125
1647.11321	12340.0125
1650.40179	13731.9125
1653.68819	12774.1125
1656.97241	9945.2125
1660.25446	7154.1125
1663.53433	5331.6125
1666.81203	4287.5125
1670.08756	3731.8125
1673.36092	3412.2125
1676.63211	3191.3125
1679.90115	3046.2125
1683.16801	2952.4125
1686.43272	2886.4125
1689.69527	2822.6125
1692.95567	2782.7125
1696.2139	2767.1125
1699.46999	2762.5125
1702.72392	2746.1125
1705.97571	2738.6125
1709.22535	2669.8125
1712.47284	2690.2125
1715.71819	2705.2125
1718.96139	2709.9125
1722.20246	2682.5125
1725.44139	2653.7125
1728.67818	2602.0125
1731.91284	2537.1125
1735.14537	2478.7125
1738.37576	2391.2125
1741.60403	2404.9125
1744.83017	2384.6125
1748.05418	2375.4125
1751.27607	2350.6125
1754.49584	2343.5125
1757.71349	2348.7125
1760.92903	2330.2125
1764.14244	2320.6125
1767.35375	2305.7125
1770.56294	2276.8125
1773.77002	2249.4125
1776.97499	2220.7125
1780.17785	2195.5125
1783.37861	2185.8125
1786.57727	2162.0125
1789.77382	2135.9125
1792.96828	2147.4125
1796.16064	2123.7125
1799.3509	2125.8125
1802.53907	2102.4125
1805.72514	2101.1125
1808.90913	2091.5125
1812.09102	2071.8125
1815.27083	2056.2125
1818.44856	2040.1125
1821.6242	2028.0125
1824.79776	2020.4125
1827.96924	2010.7125
1831.13864	2001.2125
1834.30597	1998.2125
1837.47122	1979.2125
1840.6344	1971.6125
1843.7955	1965.0125
1846.95454	1958.0125
1850.11151	1960.7125
1853.26642	1946.0125
1856.41926	1958.5125
1859.57004	1950.3125
1862.71876	1952.1125
1865.86542	1939.5125
1869.01003	1940.7125
1872.15258	1940.7125
1875.29308	1944.3125
1878.43152	1940.7125
1881.56792	1940.7125
1884.70227	1933.6125
1887.83457	1939.1125
1890.96482	1941.8125
1894.09304	1933.8125
1897.21921	1934.1125
1900.34335	1933.2125
1903.46544	1933.6125
1906.58551	1937.4125
1909.70353	1942.1125
1912.81953	1930.7125
1915.93349	1932.3125
1919.04543	1929.2125
1922.15534	1917.7125
1925.26322	1907.9125
1928.36908	1878.6125
1931.47292	1876.9125
1934.57473	1854.7125
1937.67453	1844.9125
1940.77232	1839.1125
1943.86808	1826.2125
1946.96184	1828.3125
1950.05358	1813.3125
1953.14331	1805.5125
1956.23103	1801.1125
1959.31675	1801.5125
1962.40046	1796.5125
1965.48217	1785.8125
1968.56188	1778.2125
1971.63959	1794.0125
1974.7153	1788.5125
1977.78901	1778.9125
1980.86073	1768.6125
1983.93046	1761.1125
1986.99819	1732.3125
1990.06394	1722.7125
1993.1277	1719.1125
1996.18947	1706.6125
1999.24925	1696.9125
2002.30706	1690.8125
2005.36288	1676.1125
2008.41672	1660.9125
2011.46859	1665.7125
2014.51848	1653.4125
2017.56639	1648.4125
2020.61233	1641.3125
2023.6563	1631.0125
2026.6983	1622.1125
2029.73833	1622.8125
2032.7764	1610.9125
2035.8125	1612.2125
2038.84664	1592.7125
2041.87881	1607.6125
2044.90903	1603.8125
2047.93729	1596.9125
2050.96359	1581.4125
2053.98794	1590.1125
2057.01034	1586.9125
2060.03078	1574.3125
2063.04927	1562.2125
2066.06582	1561.6125
2069.08042	1566.9125
2072.09307	1558.8125
2075.10378	1541.8125
2078.11255	1550.0125
2081.11938	1547.5125
2084.12426	1545.9125
2087.12722	1538.9125
2090.12824	1534.5125
2093.12732	1544.0125
2096.12447	1532.0125
2099.11969	1536.1125
2102.11299	1535.4125
2105.10435	1538.4125
2108.09379	1533.0125
2111.08131	1527.8125
2114.0669	1527.4125
2117.05057	1525.5125
2120.03233	1528.8125
2123.01216	1525.9125
2125.99008	1528.2125
2128.96609	1533.2125
2131.94018	1528.1125
2134.91236	1533.6125
2137.88263	1532.3125
2140.851	1517.6125
2143.81746	1528.7125
2146.78201	1506.5125
2149.74466	1510.7125
2152.7054	1502.4125
2155.66425	1482.4125
2158.6212	1488.7125
2161.57625	1485.1125
2164.52941	1480.6125
2167.48067	1471.8125
2170.43004	1473.1125
2173.37752	1476.3125
2176.32311	1471.5125
2179.26681	1475.4125
2182.20863	1484.8125
2185.14856	1482.7125
2188.08661	1476.5125
2191.02278	1481.1125
2193.95707	1471.6125
2196.88948	1460.4125
2199.82001	1455.0125
2202.74867	1457.6125
2205.67545	1447.2125
2208.60037	1448.3125
2211.52341	1447.3125
2214.44458	1436.9125
2217.36388	1437.0125
2220.28132	1434.2125
2223.1969	1411.8125
2226.11061	1415.2125
2229.02246	1398.2125
2231.93245	1399.0125
2234.84058	1394.0125
2237.74686	1406.9125
2240.65128	1401.0125
2243.55385	1396.0125
2246.45456	1400.7125
2249.35343	1387.7125
2252.25044	1401.0125
2255.14561	1396.7125
2258.03893	1407.6125
2260.93041	1418.3125
2263.82004	1404.8125
2266.70783	1410.5125
2269.59378	1392.9125
2272.4779	1394.1125
2275.36017	1392.9125
2278.24061	1386.2125
2281.11922	1379.2125
2283.996	1378.4125
2286.87094	1370.2125
2289.74405	1343.4125
2292.61534	1341.5125
2295.4848	1349.2125
2298.35243	1335.4125
2301.21824	1336.2125
2304.08223	1324.5125
2306.94439	1333.6125
2309.80474	1332.2125
2312.66327	1332.0125
2315.51999	1329.7125
2318.37489	1329.3125
2321.22797	1326.8125
2324.07925	1318.7125
2326.92871	1329.6125
2329.77637	1324.7125
2332.62222	1324.6125
2335.46626	1324.0125
2338.3085	1312.4125
2341.14893	1321.7125
2343.98756	1322.8125
2346.8244	1324.5125
2349.65943	1324.9125
2352.49267	1347.5125
2355.32411	1345.1125
2358.15376	1358.1125
2360.98161	1376.2125
2363.80768	1384.2125
2366.63195	1391.4125
2369.45444	1410.7125
2372.27514	1414.4125
2375.09405	1415.5125
2377.91118	1398.8125
2380.72652	1382.1125
2383.54009	1377.0125
2386.35187	1354.9125
2389.16188	1336.8125
2391.97011	1312.3125
2394.77657	1310.8125
2397.58125	1297.9125
2400.38416	1286.3125
2403.18529	1281.1125
2405.98466	1279.5125
2408.78226	1264.4125
2411.57809	1263.0125
2414.37216	1265.4125
2417.16446	1262.6125
2419.955	1267.7125
2422.74378	1269.9125
2425.5308	1262.3125
2428.31606	1273.2125
2431.09956	1273.7125
2433.88131	1273.3125
2436.6613	1285.0125
2439.43954	1284.1125
2442.21603	1287.7125
2444.99077	1294.7125
2447.76377	1293.0125
2450.53501	1299.7125
2453.30451	1312.5125
2456.07226	1306.6125
2458.83827	1311.6125
2461.60254	1310.0125
2464.36507	1306.8125
2467.12586	1309.6125
2469.88492	1312.6125
2472.64224	1304.3125
2475.39782	1328.1125
2478.15167	1335.0125
2480.90379	1344.7125
2483.65417	1359.4125
2486.40283	1367.3125
2489.14976	1393.0125
2491.89497	1399.9125
2494.63845	1403.6125
2497.3802	1400.6125
2500.12024	1379.9125
2502.85855	1371.5125
2505.59514	1363.1125
2508.33002	1333.0125
2511.06318	1326.8125
2513.79462	1308.7125
2516.52435	1293.3125
2519.25237	1272.8125
2521.97867	1252.0125
2524.70327	1262.4125
2527.42616	1242.0125
2530.14734	1252.5125
2532.86681	1252.7125
2535.58458	1249.8125
2538.30065	1252.4125
2541.01501	1254.9125
2543.72768	1267.6125
2546.43864	1269.1125
2549.14791	1277.4125
2551.85548	1278.0125
2554.56136	1284.9125
2557.26554	1276.9125
2559.96803	1277.3125
2562.66883	1285.5125
2565.36794	1275.2125
2568.06536	1281.8125
2570.7611	1273.1125
2573.45514	1271.2125
2576.14751	1266.3125
2578.83819	1269.7125
2581.52719	1262.0125
2584.21451	1253.4125
2586.90015	1251.1125
2589.58411	1247.8125
2592.2664	1252.4125
2594.94701	1245.4125
2597.62594	1247.8125
2600.30321	1253.4125
2602.9788	1248.8125
2605.65273	1261.3125
2608.32498	1267.2125
2610.99557	1266.4125
2613.66449	1275.8125
2616.33175	1265.3125
2618.99734	1278.4125
2621.66128	1272.6125
2624.32355	1272.9125
2626.98416	1263.5125
2629.64311	1260.5125
2632.30041	1249.0125
2634.95605	1248.1125
2637.61004	1238.1125
2640.26238	1226.2125
2642.91306	1241.1125
2645.56209	1225.9125
2648.20948	1238.3125
2650.85521	1240.9125
2653.4993	1245.8125
2656.14175	1245.8125
2658.78255	1259.5125
2661.42171	1276.0125
2664.05923	1268.4125
2666.6951	1276.7125
2669.32934	1285.8125
2671.96194	1288.5125
2674.59291	1294.9125
2677.22224	1291.3125
2679.84993	1302.5125
2682.476	1292.5125
2685.10043	1294.1125
2687.72324	1296.5125
2690.34441	1292.9125
2692.96396	1288.9125
2695.58188	1296.4125
2698.19818	1294.1125
2700.81285	1297.7125
2703.4259	1319.2125
2706.03733	1313.7125
2708.64714	1318.0125
2711.25533	1327.4125
2713.86191	1336.4125
2716.46687	1350.1125
2719.07021	1348.4125
2721.67194	1349.1125
2724.27206	1352.6125
2726.87057	1346.9125
2729.46747	1352.4125
2732.06276	1344.6125
2734.65644	1342.2125
2737.24852	1328.3125
2739.83899	1333.7125
2742.42786	1318.0125
2745.01513	1323.7125
2747.60079	1309.6125
2750.18486	1307.0125
2752.76733	1309.3125
2755.3482	1305.7125
2757.92747	1301.2125
2760.50515	1302.5125
2763.08123	1295.3125
2765.65573	1305.7125
2768.22863	1299.1125
2770.79994	1306.6125
2773.36967	1301.3125
2775.9378	1305.7125
2778.50435	1325.3125
2781.06932	1330.4125
2783.6327	1338.6125
2786.1945	1346.9125
2788.75471	1360.4125
2791.31335	1371.1125
2793.87041	1373.5125
2796.42589	1386.8125
2798.97979	1400.6125
2801.53212	1398.1125
2804.08288	1417.0125
2806.63206	1419.5125
2809.17967	1433.0125
2811.72571	1437.5125
2814.27018	1453.7125
2816.81308	1463.0125
2819.35442	1473.3125
2821.89419	1497.2125
2824.43239	1510.9125
2826.96904	1512.7125
2829.50412	1520.1125
2832.03763	1523.3125
2834.56959	1535.8125
2837.1	1537.9125
2839.62884	1568.6125
2842.15613	1604.4125
2844.68186	1640.5125
2847.20604	1690.2125
2849.72867	1723.0125
2852.24974	1744.2125
2854.76927	1753.3125
2857.28724	1761.8125
2859.80367	1749.9125
2862.31855	1740.9125
2864.83189	1739.5125
2867.34368	1726.9125
2869.85393	1725.6125
2872.36264	1721.2125
2874.8698	1706.4125
2877.37543	1701.4125
2879.87952	1696.7125
2882.38207	1687.7125
2884.88308	1682.0125
2887.38256	1676.0125
2889.88051	1669.9125
2892.37692	1675.4125
2894.8718	1674.5125
2897.36515	1671.1125
2899.85698	1680.1125
2902.34727	1682.8125
2904.83604	1682.9125
2907.32328	1689.7125
2909.809	1684.4125
2912.29319	1688.5125
2914.77587	1681.0125
2917.25702	1672.2125
2919.73665	1658.8125
2922.21476	1671.7125
2924.69136	1652.3125
2927.16644	1648.3125
2929.64	1645.9125
2932.11205	1620.2125
2934.58258	1602.6125
2937.05161	1592.6125
2939.51912	1552.0125
2941.98513	1537.8125
2944.44962	1496.0125
2946.91261	1469.8125
2949.37409	1447.2125
2951.83407	1421.9125
2954.29254	1415.0125
2956.74951	1395.8125
2959.20498	1394.6125
2961.65895	1391.4125
2964.11142	1387.3125
2966.56239	1373.6125
2969.01186	1356.0125
2971.45984	1348.7125
2973.90632	1342.8125
2976.35131	1336.4125
2978.7948	1322.8125
2981.23681	1316.3125
2983.67732	1306.8125
2986.11635	1293.2125
2988.55388	1295.0125
2990.98993	1274.3125
2993.4245	1273.9125
2995.85758	1258.0125
2998.28917	1253.2125
3000.71928	1255.4125
3003.14791	1245.1125
3005.57506	1255.2125
3008.00073	1248.0125
3010.42493	1246.0125
3012.84764	1249.8125
3015.26888	1246.6125
3017.68865	1246.1125
3020.10694	1245.5125
3022.52376	1248.0125
3024.9391	1235.2125
3027.35298	1246.8125
3029.76539	1224.0125
3032.17632	1229.6125
3034.5858	1228.9125
3036.9938	1220.0125
3039.40034	1211.5125
3041.80542	1211.1125
3044.20903	1202.7125
3046.61118	1211.3125
3049.01187	1209.4125
3051.4111	1206.8125
3053.80888	1205.5125
3056.20519	1203.2125
3058.60005	1209.6125
3060.99345	1212.0125
3063.3854	1204.8125
3065.7759	1213.9125
3068.16494	1200.3125
3070.55254	1202.3125
3072.93868	1197.2125
3075.32338	1189.9125
3077.70662	1198.4125
3080.08842	1185.6125
3082.46878	1178.4125
3084.84769	1161.8125
3087.22515	1162.4125
3089.60118	1168.5125
3091.97576	1160.7125
3094.3489	1157.9125
3096.72061	1160.0125
3099.09087	1154.0125
3101.4597	1149.5125
3103.82709	1155.7125
3106.19305	1151.0125
3108.55757	1155.3125
3110.92066	1154.2125
3113.28232	1163.2125
3115.64255	1148.0125
3118.00134	1156.6125
3120.35871	1152.6125
