Data from AgNPs_FTO_APTES_UA_20uM_CRN_200uM_R6G_10uM_NaF_0.1M_Addition_RamanShift__30__18-27-24-947.txt Node

Date: Thu Feb 17 18:27:24 GMT 2022
User: TCL
Spectrometer: QEP01345
Trigger mode: 4
Integration Time (sec): 1.000000E1
Scans to average: 7
Electric dark correction enabled: true
Nonlinearity correction enabled: false
Boxcar width: 0
XAxis mode: Raman Shifts
Number of Pixels in Spectrum: 1044
>>>>>Begin Spectral Data<<<<<
46.04893	0.55357
50.45542	-0.58929
54.85868	0.41071
59.25871	-3.01786
63.6555	64.83929
68.04907	68.26786
72.43941	73.69643
76.82654	77.125
81.21044	83.83929
85.59113	82.26786
89.96862	86.41071
94.34289	90.26786
98.71396	98.26786
103.08183	95.55357
107.4465	101.83929
111.80798	100.55357
116.16626	103.98214
120.52136	103.26786
124.87327	107.83929
129.222	113.98214
133.56755	118.83929
137.90993	123.41071
142.24913	135.98214
146.58517	155.125
150.91804	175.83929
155.24774	208.55357
159.57429	266.83929
163.89768	333.55357
168.21792	440.41071
172.53501	592.55357
176.84895	833.125
181.15975	1165.125
185.46741	1633.26786
189.77193	2272.69643
194.07331	3048.41071
198.37157	3959.83929
202.6667	4939.55357
206.9587	5917.41071
211.24758	6900.41071
215.53334	7955.55357
219.81599	9146.98214
224.09553	10491.41071
228.37195	12006.41071
232.64527	13657.69643
236.91549	15336.26786
241.18261	16782.69643
245.44663	17946.98214
249.70755	18914.125
253.96539	19611.69643
258.22014	20136.55357
262.4718	20522.83929
266.72039	20628.26786
270.96589	20624.55357
275.20832	20305.98214
279.44768	19791.69643
283.68397	19233.83929
287.91719	18886.83929
292.14735	18997.125
296.37445	19618.98214
300.59849	20879.55357
304.81948	22383.69643
309.03742	23638.125
313.25231	23916.83929
317.46415	22704.41071
321.67296	20429.69643
325.87872	18458.98214
330.08145	17545.55357
334.28114	17458.83929
338.47781	17907.41071
342.67145	18641.69643
346.86207	19722.98214
351.04966	21445.125
355.23424	23416.41071
359.4158	24874.55357
363.59435	25552.125
367.76989	25588.125
371.94243	25385.98214
376.11196	25119.98214
380.27849	24848.41071
384.44203	24367.83929
388.60257	23776.69643
392.76012	23316.55357
396.91468	23378.69643
401.06626	24032.98214
405.21485	24471.55357
409.36047	23864.55357
413.50311	22111.98214
417.64277	20330.41071
421.77947	19277.69643
425.9132	18777.125
430.04396	18681.83929
434.17176	18763.125
438.2966	19161.41071
442.41849	19788.26786
446.53742	20589.55357
450.6534	21263.26786
454.76644	21654.55357
458.87653	21573.125
462.98368	21228.98214
467.08789	20693.83929
471.18916	20007.69643
475.2875	19307.98214
479.38291	18676.55357
483.4754	18216.125
487.56496	17917.69643
491.6516	17759.55357
495.73531	17685.98214
499.81612	17755.83929
503.89401	18070.55357
507.96899	18500.26786
512.04106	19096.55357
516.11023	19722.69643
520.1765	20179.98214
524.23987	20258.98214
528.30034	19852.55357
532.35792	19289.98214
536.41261	18774.26786
540.46441	18148.69643
544.51333	17750.69643
548.55936	17771.41071
552.60252	18162.98214
556.64279	18735.69643
560.6802	19007.83929
564.71473	19506.125
568.7464	20723.69643
572.7752	21385.55357
576.80114	20309.69643
580.82422	18879.98214
584.84444	18240.83929
588.86181	18193.41071
592.87633	18438.26786
596.888	18831.98214
600.89682	19735.41071
604.9028	22940.98214
608.90594	32147.69643
612.90624	45294.98214
616.90371	44522.125
620.89834	28626.98214
624.89015	20600.26786
628.87913	19066.26786
632.86528	19343.83929
636.84862	19890.98214
640.82913	19496.125
644.80683	18200.83929
648.78172	17300.98214
652.75379	17340.83929
656.72306	18417.26786
660.68952	19752.26786
664.65319	19376.55357
668.61405	17929.26786
672.57211	17205.41071
676.52738	17205.41071
680.47986	17181.26786
684.42955	16991.69643
688.37646	16911.83929
692.32058	16940.83929
696.26192	17131.125
700.20048	17420.69643
704.13626	17632.41071
708.06928	17489.125
711.99952	17284.55357
715.927	17237.98214
719.85171	17390.26786
723.77365	17496.55357
727.69284	17347.83929
731.60928	17143.83929
735.52295	17136.55357
739.43388	17225.125
743.34206	17342.83929
747.24749	17377.83929
751.15017	17439.69643
755.05012	17830.26786
758.94733	19072.26786
762.8418	22037.41071
766.73354	26950.98214
770.62254	31956.69643
774.50882	35200.98214
778.39237	34633.55357
782.27321	29310.98214
786.15132	23297.98214
790.02671	19754.98214
793.89938	18255.83929
797.76935	17588.41071
801.6366	17348.55357
805.50115	17210.55357
809.36299	17118.55357
813.22213	17107.69643
817.07857	17034.83929
820.93231	16990.41071
824.78336	17032.83929
828.63172	17158.98214
832.47738	17263.55357
836.32036	17118.41071
840.16066	16956.26786
843.99827	16877.41071
847.8332	16825.98214
851.66546	16794.26786
855.49504	16831.26786
859.32195	16811.125
863.1462	16701.125
866.96777	16661.98214
870.78668	16679.41071
874.60293	16771.83929
878.41652	16855.41071
882.22745	17054.55357
886.03573	17191.69643
889.84136	17154.98214
893.64433	17014.98214
897.44466	16988.69643
901.24235	17019.41071
905.0374	16895.98214
908.8298	16697.125
912.61957	16511.98214
916.40671	16556.41071
920.19121	16645.83929
923.97308	16816.55357
927.75233	17191.55357
931.52895	17616.125
935.30295	17477.26786
939.07433	16813.41071
942.84309	16204.125
946.60924	15835.83929
950.37278	15671.26786
954.13371	15590.41071
957.89203	15556.41071
961.64774	15474.55357
965.40086	15445.125
969.15137	15404.55357
972.89929	15379.55357
976.64461	15373.125
980.38733	15422.69643
984.12747	15430.125
987.86502	15499.26786
991.59999	15626.83929
995.33237	15837.26786
999.06217	16208.55357
1002.78939	16659.83929
1006.51404	17055.26786
1010.23611	17516.26786
1013.95561	17815.83929
1017.67255	17792.98214
1021.38692	17510.41071
1025.09872	17183.69643
1028.80796	17005.41071
1032.51465	17110.41071
1036.21877	17308.26786
1039.92035	17438.83929
1043.61937	17507.125
1047.31584	17454.83929
1051.00976	17295.83929
1054.70114	17132.41071
1058.38998	17063.125
1062.07627	17053.26786
1065.76003	17121.125
1069.44126	17184.41071
1073.11995	17346.41071
1076.79611	17717.125
1080.46974	18273.98214
1084.14085	19105.41071
1087.80943	19801.55357
1091.47549	20022.26786
1095.13903	19473.69643
1098.80005	18563.41071
1102.45857	17920.55357
1106.11456	17831.83929
1109.76805	18174.26786
1113.41903	18900.83929
1117.06751	20034.69643
1120.71348	21503.55357
1124.35696	23176.98214
1127.99793	24212.41071
1131.63641	23625.55357
1135.2724	21787.26786
1138.90589	20202.55357
1142.5369	19284.83929
1146.16542	18638.83929
1149.79145	18215.26786
1153.415	18134.41071
1157.03607	18275.125
1160.65467	18714.98214
1164.27079	19447.55357
1167.88443	20652.125
1171.49561	22678.125
1175.10432	26083.55357
1178.71056	30770.125
1182.31434	34557.98214
1185.91565	35427.41071
1189.51451	33938.125
1193.11091	31250.26786
1196.70485	28393.41071
1200.29634	26433.55357
1203.88538	24870.26786
1207.47197	22864.83929
1211.05612	21207.69643
1214.63782	20212.125
1218.21708	19819.69643
1221.79391	19658.41071
1225.36829	19698.41071
1228.94024	19646.125
1232.50976	19546.98214
1236.07685	19605.83929
1239.6415	19808.98214
1243.20374	20077.98214
1246.76355	20245.69643
1250.32093	20513.125
1253.8759	21031.69643
1257.42845	21833.26786
1260.97859	22713.98214
1264.52631	23575.41071
1268.07163	24388.26786
1271.61453	25029.83929
1275.15503	25361.98214
1278.69312	25408.41071
1282.22882	25627.41071
1285.76211	26255.125
1289.29301	27322.55357
1292.82151	28371.55357
1296.34761	29599.69643
1299.87133	31581.55357
1303.39266	35119.41071
1306.9116	40464.41071
1310.42815	46077.26786
1313.94233	48009.98214
1317.45412	45101.26786
1320.96354	40043.98214
1324.47058	35132.55357
1327.97525	31433.41071
1331.47754	29468.55357
1334.97747	29057.41071
1338.47502	29918.83929
1341.97022	31688.26786
1345.46305	34293.26786
1348.95352	37675.69643
1352.44163	41838.55357
1355.92738	47954.55357
1359.41078	56809.69643
1362.89183	63100.26786
1366.37053	58971.83929
1369.84688	48164.69643
1373.32088	38813.125
1376.79254	32764.26786
1380.26186	29307.83929
1383.72883	27223.41071
1387.19347	25638.69643
1390.65578	24199.98214
1394.11575	23111.69643
1397.57339	22639.41071
1401.0287	22613.98214
1404.48168	22843.69643
1407.93234	23259.125
1411.38068	23761.41071
1414.82669	24062.41071
1418.27039	24081.69643
1421.71177	23714.125
1425.15083	23313.55357
1428.58758	23229.26786
1432.02203	23482.41071
1435.45416	23763.83929
1438.88399	23748.26786
1442.31151	23684.125
1445.73673	23687.98214
1449.15965	23777.98214
1452.58027	23617.69643
1455.9986	23256.98214
1459.41463	23097.125
1462.82837	23388.69643
1466.23982	24013.83929
1469.64898	24664.125
1473.05586	25124.98214
1476.46045	25516.55357
1479.86276	26102.26786
1483.26279	26947.69643
1486.66054	27987.26786
1490.05602	29397.26786
1493.44922	31351.98214
1496.84016	34333.98214
1500.22882	39042.69643
1503.61521	45679.98214
1506.99934	53216.41071
1510.38121	58954.83929
1513.76081	59950.41071
1517.13816	54339.98214
1520.51324	45202.55357
1523.88607	37271.98214
1527.25665	32155.98214
1530.62498	29475.55357
1533.99105	28007.55357
1537.35488	27208.98214
1540.71647	26940.55357
1544.07581	27017.125
1547.4329	27173.98214
1550.78776	27287.26786
1554.14038	27299.98214
1557.49077	27359.69643
1560.83892	27816.83929
1564.18484	28787.98214
1567.52853	30149.55357
1570.86999	31295.41071
1574.20922	31848.83929
1577.54624	31376.98214
1580.88103	29242.26786
1584.2136	26476.26786
1587.54395	24902.98214
1590.87208	24973.55357
1594.19801	26523.26786
1597.52172	28805.83929
1600.84321	30038.98214
1604.16251	29299.69643
1607.47959	27404.26786
1610.79447	25182.98214
1614.10715	23000.98214
1617.41763	21321.98214
1620.7259	20321.41071
1624.03199	19878.26786
1627.33587	19942.69643
1630.63757	20426.98214
1633.93707	21533.98214
1637.23439	23339.98214
1640.52951	26212.41071
1643.82246	30425.125
1647.11321	35545.125
1650.40179	39018.26786
1653.68819	37573.98214
1656.97241	31862.26786
1660.25446	25833.41071
1663.53433	21779.55357
1666.81203	19443.98214
1670.08756	18099.26786
1673.36092	17267.83929
1676.63211	16777.83929
1679.90115	16376.83929
1683.16801	16087.125
1686.43272	15896.55357
1689.69527	15728.55357
1692.95567	15616.98214
1696.2139	15541.83929
1699.46999	15491.98214
1702.72392	15459.26786
1705.97571	15482.55357
1709.22535	15451.98214
1712.47284	15495.69643
1715.71819	15486.98214
1718.96139	15431.98214
1722.20246	15412.26786
1725.44139	15292.41071
1728.67818	15167.83929
1731.91284	15048.83929
1735.14537	14923.69643
1738.37576	14883.83929
1741.60403	14801.83929
1744.83017	14729.69643
1748.05418	14684.125
1751.27607	14644.98214
1754.49584	14588.98214
1757.71349	14584.83929
1760.92903	14513.98214
1764.14244	14507.98214
1767.35375	14466.69643
1770.56294	14397.26786
1773.77002	14308.26786
1776.97499	14308.26786
1780.17785	14256.55357
1783.37861	14215.83929
1786.57727	14167.125
1789.77382	14143.69643
1792.96828	14118.26786
1796.16064	14082.26786
1799.3509	14042.26786
1802.53907	14045.41071
1805.72514	13996.98214
1808.90913	13955.98214
1812.09102	13955.69643
1815.27083	13883.69643
1818.44856	13831.98214
1821.6242	13842.55357
1824.79776	13828.26786
1827.96924	13773.69643
1831.13864	13751.41071
1834.30597	13725.41071
1837.47122	13723.125
1840.6344	13681.98214
1843.7955	13711.98214
1846.95454	13704.125
1850.11151	13641.41071
1853.26642	13648.83929
1856.41926	13658.41071
1859.57004	13657.41071
1862.71876	13645.41071
1865.86542	13685.125
1869.01003	13705.125
1872.15258	13661.26786
1875.29308	13660.26786
1878.43152	13620.83929
1881.56792	13639.41071
1884.70227	13681.98214
1887.83457	13636.98214
1890.96482	13609.41071
1894.09304	13608.26786
1897.21921	13569.55357
1900.34335	13568.55357
1903.46544	13571.125
1906.58551	13564.125
1909.70353	13570.69643
1912.81953	13527.41071
1915.93349	13518.125
1919.04543	13484.41071
1922.15534	13515.98214
1925.26322	13462.41071
1928.36908	13435.125
1931.47292	13382.69643
1934.57473	13346.41071
1937.67453	13327.69643
1940.77232	13266.98214
1943.86808	13229.55357
1946.96184	13169.41071
1950.05358	13125.98214
1953.14331	13097.41071
1956.23103	13070.26786
1959.31675	13051.98214
1962.40046	12997.55357
1965.48217	12993.125
1968.56188	12987.83929
1971.63959	12927.55357
1974.7153	12900.41071
1977.78901	12862.41071
1980.86073	12797.41071
1983.93046	12746.83929
1986.99819	12700.41071
1990.06394	12638.69643
1993.1277	12622.98214
1996.18947	12578.41071
1999.24925	12501.41071
2002.30706	12449.55357
2005.36288	12429.26786
2008.41672	12373.26786
2011.46859	12381.83929
2014.51848	12339.98214
2017.56639	12261.83929
2020.61233	12235.55357
2023.6563	12215.55357
2026.6983	12166.26786
2029.73833	12154.41071
2032.7764	12112.83929
2035.8125	12088.41071
2038.84664	12082.41071
2041.87881	12068.26786
2044.90903	12024.26786
2047.93729	12029.26786
2050.96359	12008.98214
2053.98794	11975.26786
2057.01034	11964.69643
2060.03078	11972.98214
2063.04927	11929.26786
2066.06582	11918.83929
2069.08042	11912.98214
2072.09307	11911.26786
2075.10378	11906.41071
2078.11255	11872.41071
2081.11938	11857.55357
2084.12426	11875.69643
2087.12722	11853.26786
2090.12824	11850.98214
2093.12732	11894.83929
2096.12447	11863.26786
2099.11969	11850.55357
2102.11299	11836.83929
2105.10435	11854.26786
2108.09379	11861.41071
2111.08131	11905.41071
2114.0669	11886.55357
2117.05057	11873.41071
2120.03233	11927.55357
2123.01216	11939.55357
2125.99008	11951.41071
2128.96609	11949.83929
2131.94018	11971.125
2134.91236	11945.69643
2137.88263	11960.41071
2140.851	11921.69643
2143.81746	11923.26786
2146.78201	11943.55357
2149.74466	11914.69643
2152.7054	11908.55357
2155.66425	11876.69643
2158.6212	11861.125
2161.57625	11891.55357
2164.52941	11867.125
2167.48067	11858.41071
2170.43004	11861.55357
2173.37752	11843.55357
2176.32311	11857.55357
2179.26681	11875.83929
2182.20863	11864.125
2185.14856	11874.26786
2188.08661	11869.41071
2191.02278	11855.125
2193.95707	11847.55357
2196.88948	11835.55357
2199.82001	11806.83929
2202.74867	11800.69643
2205.67545	11753.125
2208.60037	11764.98214
2211.52341	11755.125
2214.44458	11732.125
2217.36388	11727.83929
2220.28132	11686.41071
2223.1969	11680.125
2226.11061	11648.26786
2229.02246	11584.98214
2231.93245	11555.41071
2234.84058	11542.83929
2237.74686	11526.55357
2240.65128	11516.83929
2243.55385	11539.41071
2246.45456	11515.69643
2249.35343	11513.41071
2252.25044	11490.26786
2255.14561	11506.55357
2258.03893	11520.69643
2260.93041	11514.125
2263.82004	11499.98214
2266.70783	11461.26786
2269.59378	11458.83929
2272.4779	11374.83929
2275.36017	11359.55357
2278.24061	11345.55357
2281.11922	11334.26786
2283.996	11309.26786
2286.87094	11263.83929
2289.74405	11266.55357
2292.61534	11224.83929
2295.4848	11183.98214
2298.35243	11193.125
2301.21824	11214.83929
2304.08223	11198.26786
2306.94439	11138.55357
2309.80474	11158.125
2312.66327	11153.69643
2315.51999	11135.55357
2318.37489	11130.83929
2321.22797	11136.41071
2324.07925	11136.98214
2326.92871	11084.69643
2329.77637	11056.69643
2332.62222	11051.125
2335.46626	11045.83929
2338.3085	11057.26786
2341.14893	11050.69643
2343.98756	11076.98214
2346.8244	11068.98214
2349.65943	11054.69643
2352.49267	11079.55357
2355.32411	11099.55357
2358.15376	11117.41071
2360.98161	11108.125
2363.80768	11133.98214
2366.63195	11144.83929
2369.45444	11146.41071
2372.27514	11128.98214
2375.09405	11101.69643
2377.91118	11082.41071
2380.72652	11066.125
2383.54009	10989.26786
2386.35187	10958.125
2389.16188	10897.26786
2391.97011	10840.98214
2394.77657	10837.41071
2397.58125	10782.41071
2400.38416	10772.125
2403.18529	10721.83929
2405.98466	10747.83929
2408.78226	10691.69643
2411.57809	10634.55357
2414.37216	10642.41071
2417.16446	10616.125
2419.955	10607.69643
2422.74378	10620.41071
2425.5308	10577.83929
2428.31606	10618.69643
2431.09956	10612.125
2433.88131	10590.98214
2436.6613	10609.41071
2439.43954	10640.83929
2442.21603	10615.98214
2444.99077	10618.26786
2447.76377	10624.41071
2450.53501	10596.125
2453.30451	10616.55357
2456.07226	10613.26786
2458.83827	10596.83929
2461.60254	10561.41071
2464.36507	10559.41071
2467.12586	10539.55357
2469.88492	10573.41071
2472.64224	10562.55357
2475.39782	10566.55357
2478.15167	10591.69643
2480.90379	10613.55357
2483.65417	10619.98214
2486.40283	10689.55357
2489.14976	10701.125
2491.89497	10698.55357
2494.63845	10749.55357
2497.3802	10697.26786
2500.12024	10668.125
2502.85855	10631.55357
2505.59514	10600.83929
2508.33002	10562.26786
2511.06318	10477.98214
2513.79462	10450.26786
2516.52435	10422.125
2519.25237	10359.125
2521.97867	10324.83929
2524.70327	10320.41071
2527.42616	10309.125
2530.14734	10257.98214
2532.86681	10280.125
2535.58458	10258.26786
2538.30065	10287.125
2541.01501	10279.41071
2543.72768	10287.69643
2546.43864	10278.69643
2549.14791	10256.98214
2551.85548	10248.125
2554.56136	10250.83929
2557.26554	10247.125
2559.96803	10219.41071
2562.66883	10219.55357
2565.36794	10189.125
2568.06536	10161.125
2570.7611	10138.98214
2573.45514	10124.26786
2576.14751	10116.41071
2578.83819	10107.41071
2581.52719	10072.41071
2584.21451	10059.55357
2586.90015	10059.26786
2589.58411	10025.69643
2592.2664	10030.55357
2594.94701	10006.98214
2597.62594	9990.98214
2600.30321	9973.55357
2602.9788	9980.55357
2605.65273	9984.69643
2608.32498	9961.125
2610.99557	9980.41071
2613.66449	9985.26786
2616.33175	9947.41071
2618.99734	9983.55357
2621.66128	9951.83929
2624.32355	9937.83929
2626.98416	9931.41071
2629.64311	9933.69643
2632.30041	9903.26786
2634.95605	9886.98214
2637.61004	9822.98214
2640.26238	9826.98214
2642.91306	9827.98214
2645.56209	9811.125
2648.20948	9780.69643
2650.85521	9789.69643
2653.4993	9791.41071
2656.14175	9797.69643
2658.78255	9812.26786
2661.42171	9809.83929
2664.05923	9859.69643
2666.6951	9848.98214
2669.32934	9897.41071
2671.96194	9892.69643
2674.59291	9905.55357
2677.22224	9879.83929
2679.84993	9890.69643
2682.476	9866.125
2685.10043	9848.98214
2687.72324	9890.69643
2690.34441	9874.83929
2692.96396	9872.83929
2695.58188	9872.83929
2698.19818	9839.55357
2700.81285	9884.125
2703.4259	9828.98214
2706.03733	9866.83929
2708.64714	9895.55357
2711.25533	9886.125
2713.86191	9871.26786
2716.46687	9904.26786
2719.07021	9884.41071
2721.67194	9892.55357
2724.27206	9883.55357
2726.87057	9879.83929
2729.46747	9891.41071
2732.06276	9858.83929
2734.65644	9876.98214
2737.24852	9850.41071
2739.83899	9845.83929
2742.42786	9843.83929
2745.01513	9795.69643
2747.60079	9769.98214
2750.18486	9769.55357
2752.76733	9753.69643
2755.3482	9748.69643
2757.92747	9777.41071
2760.50515	9770.26786
2763.08123	9716.69643
2765.65573	9687.69643
2768.22863	9673.26786
2770.79994	9680.69643
2773.36967	9717.55357
2775.9378	9695.55357
2778.50435	9677.26786
2781.06932	9675.98214
2783.6327	9688.83929
2786.1945	9669.125
2788.75471	9633.98214
2791.31335	9666.41071
2793.87041	9658.83929
2796.42589	9658.55357
2798.97979	9674.69643
2801.53212	9653.98214
2804.08288	9646.41071
2806.63206	9615.125
2809.17967	9615.98214
2811.72571	9623.26786
2814.27018	9640.83929
2816.81308	9630.26786
2819.35442	9626.69643
2821.89419	9653.125
2824.43239	9652.83929
2826.96904	9677.69643
2829.50412	9641.98214
2832.03763	9649.125
2834.56959	9640.83929
2837.1	9654.26786
2839.62884	9700.26786
2842.15613	9659.98214
2844.68186	9683.83929
2847.20604	9724.69643
2849.72867	9771.55357
2852.24974	9776.55357
2854.76927	9768.83929
2857.28724	9756.41071
2859.80367	9783.83929
2862.31855	9762.26786
2864.83189	9752.55357
2867.34368	9744.69643
2869.85393	9723.83929
2872.36264	9706.69643
2874.8698	9704.55357
2877.37543	9699.41071
2879.87952	9698.41071
2882.38207	9675.26786
2884.88308	9642.83929
2887.38256	9641.26786
2889.88051	9609.55357
2892.37692	9653.83929
2894.8718	9627.83929
2897.36515	9646.125
2899.85698	9642.125
2902.34727	9642.125
2904.83604	9649.41071
2907.32328	9651.125
2909.809	9613.55357
2912.29319	9661.125
2914.77587	9633.26786
2917.25702	9629.125
2919.73665	9606.41071
2922.21476	9579.83929
2924.69136	9579.125
2927.16644	9535.98214
2929.64	9567.125
2932.11205	9526.41071
2934.58258	9487.26786
2937.05161	9513.69643
2939.51912	9493.55357
2941.98513	9452.55357
2944.44962	9426.41071
2946.91261	9358.83929
2949.37409	9366.83929
2951.83407	9356.69643
2954.29254	9351.125
2956.74951	9315.98214
2959.20498	9313.26786
2961.65895	9311.26786
2964.11142	9304.26786
2966.56239	9254.69643
