Data from AgNPs_FTO_APTES_UA_20uM_CRN_1uM_R6G_10uM_NaF_0.1M_Addition_RamanShift__28__12-34-42-054.txt Node

Date: Thu Feb 17 12:34:42 GMT 2022
User: TCL
Spectrometer: QEP01345
Trigger mode: 4
Integration Time (sec): 7.000000E0
Scans to average: 10
Electric dark correction enabled: true
Nonlinearity correction enabled: false
Boxcar width: 0
XAxis mode: Raman Shifts
Number of Pixels in Spectrum: 1044
>>>>>Begin Spectral Data<<<<<
46.04893	-0.55
50.45542	-1.35
54.85868	-2.85
59.25871	-0.85
63.6555	106.45
68.04907	110.45
72.43941	116.45
76.82654	117.25
81.21044	119.35
85.59113	125.45
89.96862	129.95
94.34289	129.55
98.71396	134.15
103.08183	142.05
107.4465	144.85
111.80798	144.65
116.16626	153.05
120.52136	157.85
124.87327	165.35
129.222	177.35
133.56755	186.05
137.90993	198.05
142.24913	215.15
146.58517	245.95
150.91804	284.95
155.24774	345.35
159.57429	431.85
163.89768	547.85
168.21792	734.25
172.53501	1002.95
176.84895	1409.35
181.15975	1987.25
185.46741	2780.35
189.77193	3856.55
194.07331	5146.25
198.37157	6632.85
202.6667	8224.75
206.9587	9829.25
211.24758	11380.05
215.53334	12974.65
219.81599	14670.15
224.09553	16577.75
228.37195	18759.05
232.64527	21103.75
236.91549	23518.05
241.18261	25944.25
245.44663	28120.85
249.70755	30061.05
253.96539	31764.95
258.22014	33212.05
262.4718	34403.75
266.72039	35382.35
270.96589	35865.55
275.20832	35938.45
279.44768	35719.95
283.68397	35450.35
287.91719	35169.75
292.14735	35107.25
296.37445	35283.75
300.59849	35761.15
304.81948	36293.15
309.03742	36635.15
313.25231	36451.45
317.46415	35466.05
321.67296	33997.25
325.87872	32893.65
330.08145	32375.75
334.28114	32434.85
338.47781	32906.95
342.67145	33553.05
346.86207	34433.15
351.04966	35652.25
355.23424	36950.05
359.4158	38062.75
363.59435	38789.05
367.76989	39167.45
371.94243	39357.25
376.11196	39471.05
380.27849	39582.45
384.44203	39683.85
388.60257	39608.35
392.76012	39726.25
396.91468	40160.05
401.06626	40951.05
405.21485	41593.35
409.36047	41513.65
413.50311	40700.15
417.64277	39962.95
421.77947	39658.05
425.9132	39727.55
430.04396	40022.25
434.17176	40353.95
438.2966	40923.35
442.41849	41799.75
446.53742	43079.85
450.6534	44485.65
454.76644	45561.65
458.87653	46013.95
462.98368	45724.45
467.08789	44882.55
471.18916	43886.55
475.2875	42899.55
479.38291	42252.75
483.4754	41768.95
487.56496	41243.15
491.6516	40722.05
495.73531	40256.25
499.81612	40059.55
503.89401	40314.35
507.96899	40506.55
512.04106	40671.35
516.11023	40730.65
520.1765	40848.65
524.23987	40753.15
528.30034	40424.15
532.35792	40041.85
536.41261	39490.55
540.46441	39030.05
544.51333	38962.25
548.55936	39360.55
552.60252	40115.15
556.64279	41025.55
560.6802	41530.75
564.71473	41984.95
568.7464	42994.75
572.7752	44020.95
576.80114	44047.35
580.82422	43899.95
584.84444	44004.35
588.86181	44463.25
592.87633	45204.15
596.888	45617.55
600.89682	46028.25
604.9028	48618.05
608.90594	55635.85
612.90624	63712.25
616.90371	60620.55
620.89834	48774.15
624.89015	43601.05
628.87913	42836.55
632.86528	42600.95
636.84862	42307.35
640.82913	41499.45
644.80683	40256.85
648.78172	39398.95
652.75379	39486.85
656.72306	40421.65
660.68952	41660.25
664.65319	41570.55
668.61405	40577.15
672.57211	40093.55
676.52738	40104.95
680.47986	40082.25
684.42955	40012.65
688.37646	40087.45
692.32058	40294.95
696.26192	40682.65
700.20048	41144.95
704.13626	41505.05
708.06928	41371.15
711.99952	40998.95
715.927	40973.15
719.85171	41067.15
723.77365	40931.75
727.69284	40560.05
731.60928	40333.35
735.52295	40321.25
739.43388	40486.95
743.34206	40872.05
747.24749	41175.65
751.15017	41672.45
755.05012	42464.95
758.94733	43926.45
762.8418	46617.25
766.73354	50838.15
770.62254	54994.85
774.50882	56390.35
778.39237	53947.15
782.27321	49231.75
786.15132	45083.85
790.02671	42783.25
793.89938	41682.05
797.76935	41299.15
801.6366	41135.95
805.50115	41013.95
809.36299	40869.65
813.22213	40677.25
817.07857	40672.45
820.93231	40675.05
824.78336	40777.25
828.63172	40923.25
832.47738	41030.35
836.32036	41159.75
840.16066	41284.15
843.99827	41438.95
847.8332	41404.55
851.66546	41187.45
855.49504	41065.25
859.32195	41053.05
863.1462	40846.35
866.96777	40730.55
870.78668	40614.05
874.60293	40653.65
878.41652	40809.25
882.22745	40943.95
886.03573	41111.55
889.84136	41039.95
893.64433	40855.25
897.44466	40759.45
901.24235	40690.45
905.0374	40691.75
908.8298	40629.75
912.61957	40692.35
916.40671	41141.65
920.19121	41680.65
923.97308	42255.05
927.75233	42634.45
931.52895	42645.15
935.30295	42068.65
939.07433	41359.65
942.84309	40848.95
946.60924	40649.45
950.37278	40473.25
954.13371	40162.35
957.89203	39920.65
961.64774	39744.75
965.40086	39645.15
969.15137	39564.25
972.89929	39423.45
976.64461	39383.25
980.38733	39452.05
984.12747	39601.25
987.86502	39908.05
991.59999	40539.75
995.33237	41513.55
999.06217	43171.25
1002.78939	45119.85
1006.51404	46389.55
1010.23611	47018.15
1013.95561	47479.35
1017.67255	47476.55
1021.38692	47013.35
1025.09872	46753.75
1028.80796	47595.45
1032.51465	49413.85
1036.21877	50989.05
1039.92035	51091.05
1043.61937	50020.55
1047.31584	48256.05
1051.00976	46368.85
1054.70114	45278.15
1058.38998	44942.05
1062.07627	44949.55
1065.76003	45059.65
1069.44126	45244.65
1073.11995	45521.05
1076.79611	45911.35
1080.46974	46264.05
1084.14085	46768.45
1087.80943	47440.95
1091.47549	47595.05
1095.13903	47082.35
1098.80005	46172.35
1102.45857	45431.75
1106.11456	44996.85
1109.76805	45120.45
1113.41903	45710.85
1117.06751	46448.75
1120.71348	47199.95
1124.35696	47972.95
1127.99793	48593.45
1131.63641	48481.45
1135.2724	47630.45
1138.90589	46848.05
1142.5369	46363.35
1146.16542	46095.35
1149.79145	46028.55
1153.415	46393.05
1157.03607	46892.35
1160.65467	47666.25
1164.27079	49034.95
1167.88443	51100.05
1171.49561	54176.25
1175.10432	58704.65
1178.71056	64673.55
1182.31434	69811.05
1185.91565	72255.95
1189.51451	71724.15
1193.11091	68755.15
1196.70485	64941.65
1200.29634	61799.25
1203.88538	59541.95
1207.47197	57582.25
1211.05612	55969.15
1214.63782	55171.85
1218.21708	55320.25
1221.79391	55724.25
1225.36829	55825.95
1228.94024	55241.45
1232.50976	54332.65
1236.07685	53728.95
1239.6415	53589.15
1243.20374	53780.85
1246.76355	54250.95
1250.32093	55149.25
1253.8759	56584.15
1257.42845	58314.45
1260.97859	59743.75
1264.52631	60791.95
1268.07163	62051.45
1271.61453	63506.85
1275.15503	65222.25
1278.69312	67084.75
1282.22882	68522.95
1285.76211	69902.35
1289.29301	71353.45
1292.82151	72956.15
1296.34761	75271.05
1299.87133	78799.75
1303.39266	83763.85
1306.9116	90376.75
1310.42815	97315.95
1313.94233	101343.85
1317.45412	100727.15
1320.96354	97028.05
1324.47058	92708.95
1327.97525	88916.05
1331.47754	86690.45
1334.97747	86319.35
1338.47502	87520.55
1341.97022	89123.75
1345.46305	89887.05
1348.95352	89786.25
1352.44163	89944.35
1355.92738	92556.55
1359.41078	98729.55
1362.89183	104481.75
1366.37053	101674.35
1369.84688	91088.25
1373.32088	80345.15
1376.79254	73377.75
1380.26186	69770.45
1383.72883	68268.95
1387.19347	67374.95
1390.65578	66679.55
1394.11575	66584.65
1397.57339	67392.15
1401.0287	68827.15
1404.48168	70641.55
1407.93234	72488.55
1411.38068	73757.15
1414.82669	73810.45
1418.27039	71962.25
1421.71177	69202.15
1425.15083	66664.55
1428.58758	65398.85
1432.02203	65427.65
1435.45416	65990.95
1438.88399	66544.75
1442.31151	67054.35
1445.73673	67678.55
1449.15965	68382.85
1452.58027	68550.65
1455.9986	68215.45
1459.41463	68197.65
1462.82837	68703.05
1466.23982	69974.25
1469.64898	71308.35
1473.05586	72347.15
1476.46045	72926.55
1479.86276	73645.05
1483.26279	74455.75
1486.66054	75201.85
1490.05602	76488.05
1493.44922	78004.65
1496.84016	79549.65
1500.22882	81541.05
1503.61521	84524.45
1506.99934	88508.75
1510.38121	92121.25
1513.76081	93170.35
1517.13816	90086.25
1520.51324	84474.35
1523.88607	79389.85
1527.25665	75867.35
1530.62498	73945.05
1533.99105	72832.25
1537.35488	72156.85
1540.71647	71801.35
1544.07581	71519.65
1547.4329	70956.55
1550.78776	70042.05
1554.14038	69369.35
1557.49077	69012.35
1560.83892	69008.75
1564.18484	69091.35
1567.52853	69037.95
1570.86999	68947.65
1574.20922	69069.75
1577.54624	68965.25
1580.88103	68041.75
1584.2136	67340.25
1587.54395	68475.25
1590.87208	72041.45
1594.19801	77657.95
1597.52172	83760.05
1600.84321	86630.25
1604.16251	84032.15
1607.47959	77895.35
1610.79447	70946.45
1614.10715	64882.95
1617.41763	60209.75
1620.7259	57360.45
1624.03199	56062.45
1627.33587	56221.45
1630.63757	57755.05
1633.93707	60816.45
1637.23439	64997.45
1640.52951	70202.45
1643.82246	75908.15
1647.11321	80653.65
1650.40179	82005.45
1653.68819	77765.45
1656.97241	69194.15
1660.25446	60669.55
1663.53433	54384.55
1666.81203	50458.45
1670.08756	48051.25
1673.36092	46568.95
1676.63211	45533.55
1679.90115	44874.25
1683.16801	44291.35
1686.43272	43956.25
1689.69527	43655.25
1692.95567	43462.75
1696.2139	43378.75
1699.46999	43317.05
1702.72392	43244.45
1705.97571	43211.05
1709.22535	43116.25
1712.47284	43141.95
1715.71819	43221.65
1718.96139	43132.05
1722.20246	43025.25
1725.44139	42900.15
1728.67818	42720.35
1731.91284	42517.05
1735.14537	42322.45
1738.37576	42196.05
1741.60403	42088.75
1744.83017	41936.45
1748.05418	41875.95
1751.27607	41786.95
1754.49584	41758.45
1757.71349	41744.45
1760.92903	41794.85
1764.14244	41755.55
1767.35375	41789.85
1770.56294	41742.75
1773.77002	41705.15
1776.97499	41747.25
1780.17785	41690.75
1783.37861	41611.95
1786.57727	41564.95
1789.77382	41496.25
1792.96828	41555.65
1796.16064	41526.55
1799.3509	41519.25
1802.53907	41466.15
1805.72514	41392.75
1808.90913	41351.35
1812.09102	41286.25
1815.27083	41185.85
1818.44856	41195.75
1821.6242	41102.75
1824.79776	41074.75
1827.96924	41045.45
1831.13864	41073.85
1834.30597	41041.95
1837.47122	41024.35
1840.6344	40980.75
1843.7955	41020.55
1846.95454	41026.65
1850.11151	41056.65
1853.26642	41067.95
1856.41926	41102.95
1859.57004	41077.15
1862.71876	41081.15
1865.86542	41115.45
1869.01003	41078.35
1872.15258	41123.55
1875.29308	41131.75
1878.43152	41105.85
1881.56792	41186.35
1884.70227	41183.95
1887.83457	41198.65
1890.96482	41256.95
1894.09304	41180.65
1897.21921	41180.65
1900.34335	41144.75
1903.46544	41169.55
1906.58551	41198.05
1909.70353	41240.45
1912.81953	41197.65
1915.93349	41226.15
1919.04543	41159.55
1922.15534	41109.45
1925.26322	41058.75
1928.36908	40975.45
1931.47292	40963.05
1934.57473	40841.45
1937.67453	40689.75
1940.77232	40618.95
1943.86808	40477.75
1946.96184	40354.55
1950.05358	40189.45
1953.14331	40063.55
1956.23103	39975.75
1959.31675	39888.15
1962.40046	39753.55
1965.48217	39619.95
1968.56188	39569.95
1971.63959	39434.55
1974.7153	39390.15
1977.78901	39234.55
1980.86073	39145.15
1983.93046	39061.55
1986.99819	38927.55
1990.06394	38843.95
1993.1277	38768.85
1996.18947	38605.25
1999.24925	38594.15
2002.30706	38437.75
2005.36288	38316.35
2008.41672	38252.95
2011.46859	38166.05
2014.51848	38045.35
2017.56639	37953.95
2020.61233	37883.25
2023.6563	37798.75
2026.6983	37721.35
2029.73833	37673.95
2032.7764	37646.05
2035.8125	37560.55
2038.84664	37508.45
2041.87881	37482.55
2044.90903	37445.95
2047.93729	37396.75
2050.96359	37384.05
2053.98794	37320.25
2057.01034	37319.45
2060.03078	37357.35
2063.04927	37272.35
2066.06582	37286.05
2069.08042	37233.85
2072.09307	37177.15
2075.10378	37122.65
2078.11255	37031.65
2081.11938	37088.15
2084.12426	37041.15
2087.12722	37044.45
2090.12824	36999.75
2093.12732	37018.45
2096.12447	37011.15
2099.11969	36965.35
2102.11299	36990.65
2105.10435	36988.95
2108.09379	37036.15
2111.08131	37102.15
2114.0669	37046.85
2117.05057	37069.05
2120.03233	37115.55
2123.01216	37140.05
2125.99008	37173.95
2128.96609	37226.75
2131.94018	37247.45
2134.91236	37359.95
2137.88263	37358.45
2140.851	37369.65
2143.81746	37394.65
2146.78201	37406.75
2149.74466	37446.85
2152.7054	37467.75
2155.66425	37475.25
2158.6212	37459.15
2161.57625	37442.25
2164.52941	37448.65
2167.48067	37417.95
2170.43004	37403.85
2173.37752	37420.25
2176.32311	37488.35
2179.26681	37477.95
2182.20863	37479.15
2185.14856	37554.05
2188.08661	37535.75
2191.02278	37537.95
2193.95707	37470.55
2196.88948	37465.55
2199.82001	37520.65
2202.74867	37507.45
2205.67545	37529.45
2208.60037	37459.65
2211.52341	37516.45
2214.44458	37462.95
2217.36388	37454.15
2220.28132	37434.25
2223.1969	37350.95
2226.11061	37290.35
2229.02246	37152.95
2231.93245	37103.95
2234.84058	37077.45
2237.74686	36990.75
2240.65128	36979.65
2243.55385	36910.05
2246.45456	36932.55
2249.35343	36847.65
2252.25044	36835.65
2255.14561	36759.05
2258.03893	36768.65
2260.93041	36753.85
2263.82004	36617.85
2266.70783	36522.75
2269.59378	36455.95
2272.4779	36347.75
2275.36017	36305.15
2278.24061	36258.15
2281.11922	36167.05
2283.996	36129.95
2286.87094	36101.05
2289.74405	36098.05
2292.61534	36069.95
2295.4848	36070.35
2298.35243	36109.95
2301.21824	36060.95
2304.08223	36096.15
2306.94439	36128.15
2309.80474	36150.75
2312.66327	36221.45
2315.51999	36196.45
2318.37489	36185.35
2321.22797	36181.45
2324.07925	36168.55
2326.92871	36125.85
2329.77637	36064.25
2332.62222	36031.55
2335.46626	36085.55
2338.3085	36105.55
2341.14893	36164.45
2343.98756	36202.15
2346.8244	36218.35
2349.65943	36242.45
2352.49267	36238.45
2355.32411	36246.25
2358.15376	36252.95
2360.98161	36214.75
2363.80768	36130.35
2366.63195	36100.95
2369.45444	36052.35
2372.27514	35978.65
2375.09405	35908.45
2377.91118	35798.85
2380.72652	35687.25
2383.54009	35609.25
2386.35187	35521.35
2389.16188	35415.25
2391.97011	35401.95
2394.77657	35345.95
2397.58125	35319.95
2400.38416	35255.75
2403.18529	35183.85
2405.98466	35164.55
2408.78226	35013.45
2411.57809	34946.15
2414.37216	34871.15
2417.16446	34856.05
2419.955	34835.75
2422.74378	34809.85
2425.5308	34757.75
2428.31606	34766.55
2431.09956	34780.15
2433.88131	34785.05
2436.6613	34803.35
2439.43954	34719.75
2442.21603	34742.65
2444.99077	34705.95
2447.76377	34700.55
2450.53501	34628.45
2453.30451	34669.25
2456.07226	34629.05
2458.83827	34614.15
2461.60254	34579.45
2464.36507	34606.95
2467.12586	34602.65
2469.88492	34619.45
2472.64224	34608.45
2475.39782	34605.25
2478.15167	34623.45
2480.90379	34713.65
2483.65417	34744.55
2486.40283	34801.15
2489.14976	34831.55
2491.89497	34825.65
2494.63845	34930.35
2497.3802	34879.45
2500.12024	34886.35
2502.85855	34890.75
2505.59514	34832.25
2508.33002	34777.65
2511.06318	34704.75
2513.79462	34680.15
2516.52435	34632.25
2519.25237	34609.95
2521.97867	34549.15
2524.70327	34559.15
2527.42616	34487.85
2530.14734	34507.15
2532.86681	34440.95
2535.58458	34466.15
2538.30065	34473.65
2541.01501	34486.85
2543.72768	34489.05
2546.43864	34446.65
2549.14791	34416.35
2551.85548	34388.45
2554.56136	34294.85
2557.26554	34241.85
2559.96803	34219.25
2562.66883	34210.95
2565.36794	34148.55
2568.06536	34160.35
2570.7611	34095.65
2573.45514	34085.85
2576.14751	34079.55
2578.83819	34049.75
2581.52719	34103.65
2584.21451	34089.85
2586.90015	34051.25
2589.58411	34041.95
2592.2664	34125.65
2594.94701	34032.35
2597.62594	34100.75
2600.30321	34073.45
2602.9788	34133.25
2605.65273	34068.85
2608.32498	34095.65
2610.99557	34089.55
2613.66449	34107.95
2616.33175	34112.55
2618.99734	34128.05
2621.66128	34076.65
2624.32355	34062.05
2626.98416	34125.45
2629.64311	34074.45
2632.30041	34088.95
2634.95605	34086.55
2637.61004	34044.65
2640.26238	34014.25
2642.91306	33923.35
2645.56209	33842.95
2648.20948	33825.15
2650.85521	33819.55
2653.4993	33817.55
2656.14175	33783.95
2658.78255	33837.25
2661.42171	33885.75
2664.05923	33932.25
2666.6951	33929.65
2669.32934	33957.85
2671.96194	34003.25
2674.59291	34037.65
2677.22224	34049.95
2679.84993	34080.05
2682.476	34045.75
2685.10043	34041.35
2687.72324	33945.95
2690.34441	33965.15
2692.96396	33954.35
2695.58188	33918.35
2698.19818	33914.05
2700.81285	33881.75
2703.4259	33849.95
2706.03733	33883.55
2708.64714	33832.85
2711.25533	33841.35
2713.86191	33881.55
2716.46687	33982.05
2719.07021	33941.05
2721.67194	33953.75
2724.27206	33910.15
2726.87057	33960.85
2729.46747	33980.05
2732.06276	33995.75
2734.65644	33987.35
2737.24852	34036.55
2739.83899	33955.95
2742.42786	33977.45
2745.01513	33973.55
2747.60079	34016.45
2750.18486	33959.45
2752.76733	33973.45
2755.3482	33928.25
2757.92747	33944.35
2760.50515	33937.65
2763.08123	33890.65
2765.65573	33831.75
2768.22863	33899.95
2770.79994	33802.95
2773.36967	33846.25
2775.9378	33858.15
2778.50435	33840.95
2781.06932	33863.65
2783.6327	33872.85
2786.1945	33869.35
2788.75471	33806.15
2791.31335	33720.95
2793.87041	33676.05
2796.42589	33604.95
2798.97979	33601.15
2801.53212	33455.05
2804.08288	33422.95
2806.63206	33407.45
2809.17967	33365.35
2811.72571	33287.85
2814.27018	33219.75
2816.81308	33178.85
2819.35442	33153.65
2821.89419	33115.55
2824.43239	33143.75
2826.96904	33197.25
2829.50412	33212.75
2832.03763	33163.75
2834.56959	33122.25
2837.1	33039.55
2839.62884	33071.75
2842.15613	33037.15
2844.68186	33052.55
2847.20604	33021.15
2849.72867	32987.05
2852.24974	33004.45
2854.76927	32927.05
2857.28724	32838.15
2859.80367	32886.45
2862.31855	32838.35
2864.83189	32785.95
2867.34368	32761.45
2869.85393	32774.15
2872.36264	32735.45
2874.8698	32684.95
2877.37543	32665.35
2879.87952	32650.35
2882.38207	32713.75
2884.88308	32678.25
2887.38256	32681.75
2889.88051	32710.05
2892.37692	32731.15
2894.8718	32718.15
2897.36515	32819.35
2899.85698	32765.05
2902.34727	32845.45
2904.83604	32843.75
2907.32328	32883.05
2909.809	32919.15
2912.29319	32907.55
2914.77587	32878.85
2917.25702	32884.45
2919.73665	32827.05
2922.21476	32865.35
2924.69136	32792.95
2927.16644	32808.75
2929.64	32745.35
2932.11205	32702.45
2934.58258	32592.05
2937.05161	32649.35
2939.51912	32669.75
2941.98513	32594.75
2944.44962	32567.25
2946.91261	32475.65
2949.37409	32597.45
2951.83407	32495.35
2954.29254	32501.85
2956.74951	32493.25
2959.20498	32487.75
2961.65895	32440.55
2964.11142	32427.25
2966.56239	32409.05
2969.01186	32312.25
2971.45984	32220.55
2973.90632	32164.15
2976.35131	32115.05
2978.7948	32061.15
2981.23681	32049.45
2983.67732	31965.05
2986.11635	31904.55
2988.55388	31806.15
2990.98993	31758.25
2993.4245	31732.85
2995.85758	31638.65
2998.28917	31521.65
3000.71928	31488.65
3003.14791	31408.95
3005.57506	31426.65
3008.00073	31342.35
3010.42493	31302.35
3012.84764	31267.85
3015.26888	31197.65
3017.68865	31118.55
3020.10694	31115.55
3022.52376	31037.25
3024.9391	30951.85
3027.35298	30951.15
3029.76539	30910.45
3032.17632	30911.55
3034.5858	30876.55
3036.9938	30800.35
3039.40034	30821.25
3041.80542	30798.05
3044.20903	30746.05
3046.61118	30735.95
3049.01187	30615.85
3051.4111	30589.45
3053.80888	30533.35
3056.20519	30424.35
3058.60005	30358.65
3060.99345	30295.65
3063.3854	30200.75
3065.7759	30112.55
3068.16494	30019.55
3070.55254	29894.85
3072.93868	29813.35
3075.32338	29692.35
3077.70662	29608.25
3080.08842	29519.75
3082.46878	29475.25
3084.84769	29427.85
3087.22515	29485.45
3089.60118	29406.35
3091.97576	29369.85
3094.3489	29350.95
3096.72061	29367.95
3099.09087	29368.25
3101.4597	29336.45
3103.82709	29313.95
3106.19305	29285.05
3108.55757	29291.05
3110.92066	29203.85
3113.28232	29198.35
3115.64255	29079.85
3118.00134	29016.75
3120.35871	28926.05
3122.71466	28840.85
3125.06917	28796.55
3127.42226	28759.05
3129.77393	28769.65
3132.12417	28678.25
3134.47299	28692.95
3136.82039	28637.15
3139.16636	28676.35
3141.51092	28590.05
3143.85406	28582.15
3146.19579	28562.55
3148.53609	28563.95
3150.87499	28576.45
3153.21246	28559.85
3155.54853	28606.95
3157.88318	28573.25
3160.21642	28596.15
3162.54826	28527.95
3164.87868	28514.55
3167.2077	28423.15
3169.5353	28439.75
3171.86151	28387.55
3174.18631	28416.75
3176.5097	28437.55
3178.83169	28344.75
3181.15228	28291.65
3183.47147	28219.65
3185.78926	28232.55
3188.10565	28206.15
3190.42065	28211.55
3192.73424	28150.75
3195.04645	28139.75
3197.35725	28122.45
3199.66667	28074.95
3201.97469	28134.85
3204.28132	28082.15
3206.58656	28094.65
3208.8904	28118.75
3211.19287	28119.65
3213.49394	28094.85
3215.79363	28103.75
3218.09193	28130.65
3220.38884	28130.05
3222.68438	28171.75
3224.97853	28089.35
3227.2713	28078.35
3229.56269	28051.25
3231.8527	28022.95
3234.14133	27982.15
3236.42858	27938.15
