Data from AgNPs_FTO_APTES_UA_20uM_CRN_20uM_R6G_10uM_NaF_0.1M_Addition_RamanShift__3__14-53-32-236.txt Node

Date: Thu Feb 17 14:53:32 GMT 2022
User: TCL
Spectrometer: QEP01345
Trigger mode: 4
Integration Time (sec): 7.000000E0
Scans to average: 10
Electric dark correction enabled: true
Nonlinearity correction enabled: false
Boxcar width: 0
XAxis mode: Raman Shifts
Number of Pixels in Spectrum: 1044
>>>>>Begin Spectral Data<<<<<
46.04893	-0.4125
50.45542	-1.6125
54.85868	-2.9125
59.25871	-1.1125
63.6555	128.6875
68.04907	128.7875
72.43941	136.4875
76.82654	138.8875
81.21044	135.1875
85.59113	145.5875
89.96862	151.0875
94.34289	156.5875
98.71396	157.7875
103.08183	166.1875
107.4465	165.5875
111.80798	173.0875
116.16626	178.0875
120.52136	190.9875
124.87327	196.3875
129.222	209.4875
133.56755	218.2875
137.90993	241.5875
142.24913	265.1875
146.58517	302.0875
150.91804	358.4875
155.24774	428.4875
159.57429	538.1875
163.89768	703.1875
168.21792	942.7875
172.53501	1309.4875
176.84895	1829.2875
181.15975	2596.4875
185.46741	3643.5875
189.77193	5049.8875
194.07331	6774.5875
198.37157	8754.9875
202.6667	10846.8875
206.9587	12890.2875
211.24758	14946.4875
215.53334	16934.3875
219.81599	19058.5875
224.09553	21393.0875
228.37195	23986.5875
232.64527	26834.7875
236.91549	29860.9875
241.18261	32993.0875
245.44663	35927.9875
249.70755	38517.8875
253.96539	40848.2875
258.22014	42832.1875
262.4718	44386.2875
266.72039	45543.2875
270.96589	46134.0875
275.20832	46259.3875
279.44768	45996.4875
283.68397	45571.5875
287.91719	45115.0875
292.14735	44877.1875
296.37445	44817.9875
300.59849	44966.4875
304.81948	45101.2875
309.03742	45220.6875
313.25231	45058.8875
317.46415	44560.4875
321.67296	43923.6875
325.87872	43307.7875
330.08145	43019.0875
334.28114	43078.3875
338.47781	43386.6875
342.67145	43886.9875
346.86207	44602.8875
351.04966	45340.0875
355.23424	46125.2875
359.4158	46796.0875
363.59435	47304.1875
367.76989	47689.1875
371.94243	47982.6875
376.11196	48270.4875
380.27849	48574.2875
384.44203	48884.2875
388.60257	49211.4875
392.76012	49680.9875
396.91468	50129.3875
401.06626	50686.4875
405.21485	51158.8875
409.36047	51051.7875
413.50311	50602.7875
417.64277	50251.5875
421.77947	50173.9875
425.9132	50284.2875
430.04396	50566.2875
434.17176	50920.5875
438.2966	51433.1875
442.41849	52249.4875
446.53742	53589.3875
450.6534	55009.5875
454.76644	56068.9875
458.87653	56387.6875
462.98368	56095.5875
467.08789	55416.9875
471.18916	54636.7875
475.2875	53810.3875
479.38291	53248.9875
483.4754	52821.0875
487.56496	52387.5875
491.6516	51956.9875
495.73531	51536.7875
499.81612	51338.2875
503.89401	51595.8875
507.96899	51788.2875
512.04106	51806.6875
516.11023	51752.8875
520.1765	51552.6875
524.23987	51448.3875
528.30034	51382.2875
532.35792	51242.6875
536.41261	50787.8875
540.46441	50377.1875
544.51333	50383.7875
548.55936	50793.9875
552.60252	51608.0875
556.64279	52535.2875
560.6802	53322.8875
564.71473	53512.4875
568.7464	53932.9875
572.7752	54879.7875
576.80114	56008.9875
580.82422	56944.4875
584.84444	58209.2875
588.86181	59867.1875
592.87633	61428.8875
596.888	61581.3875
600.89682	60273.5875
604.9028	60322.2875
608.90594	63467.5875
612.90624	67017.9875
616.90371	64056.3875
620.89834	56549.6875
624.89015	53115.5875
628.87913	52734.5875
632.86528	52841.2875
636.84862	52723.9875
640.82913	52237.8875
644.80683	51362.8875
648.78172	50753.8875
652.75379	50754.5875
656.72306	51297.3875
660.68952	52031.4875
664.65319	51814.8875
668.61405	51174.2875
672.57211	51131.0875
676.52738	51362.0875
680.47986	51372.5875
684.42955	51191.6875
688.37646	51045.1875
692.32058	51347.9875
696.26192	51882.2875
700.20048	52515.0875
704.13626	52888.8875
708.06928	52774.4875
711.99952	52560.9875
715.927	52484.8875
719.85171	52633.1875
723.77365	52589.6875
727.69284	52237.4875
731.60928	51742.9875
735.52295	51559.8875
739.43388	51616.3875
743.34206	51737.4875
747.24749	51929.4875
751.15017	52252.0875
755.05012	52918.4875
758.94733	53977.1875
762.8418	55833.9875
766.73354	58793.3875
770.62254	61537.9875
774.50882	62250.8875
778.39237	60243.6875
782.27321	57146.5875
786.15132	54592.6875
790.02671	52971.8875
793.89938	52156.4875
797.76935	51875.9875
801.6366	51701.4875
805.50115	51571.1875
809.36299	51451.7875
813.22213	51218.3875
817.07857	51127.6875
820.93231	51089.0875
824.78336	50974.9875
828.63172	50959.8875
832.47738	50971.5875
836.32036	51068.0875
840.16066	51265.5875
843.99827	51353.6875
847.8332	51391.0875
851.66546	51382.2875
855.49504	51436.2875
859.32195	51423.3875
863.1462	51452.5875
866.96777	51268.0875
870.78668	51223.8875
874.60293	51302.7875
878.41652	51352.2875
882.22745	51490.1875
886.03573	51592.3875
889.84136	51506.1875
893.64433	51334.4875
897.44466	51195.0875
901.24235	51076.3875
905.0374	51014.1875
908.8298	50944.7875
912.61957	51039.1875
916.40671	51326.6875
920.19121	51894.6875
923.97308	52275.2875
927.75233	52235.7875
931.52895	51905.3875
935.30295	51466.7875
939.07433	50959.0875
942.84309	50599.8875
946.60924	50393.2875
950.37278	50383.2875
954.13371	50344.5875
957.89203	50225.4875
961.64774	50168.5875
965.40086	50100.5875
969.15137	50022.2875
972.89929	49982.5875
976.64461	49974.8875
980.38733	50017.1875
984.12747	50207.9875
987.86502	50533.5875
991.59999	50915.0875
995.33237	51533.8875
999.06217	52377.9875
1002.78939	53323.9875
1006.51404	54072.2875
1010.23611	54800.7875
1013.95561	55277.4875
1017.67255	55448.4875
1021.38692	55071.6875
1025.09872	54444.7875
1028.80796	54260.1875
1032.51465	54688.6875
1036.21877	55360.4875
1039.92035	55496.2875
1043.61937	55341.8875
1047.31584	54715.3875
1051.00976	54125.7875
1054.70114	53909.7875
1058.38998	53886.8875
1062.07627	54045.3875
1065.76003	54443.4875
1069.44126	54845.7875
1073.11995	55476.4875
1076.79611	55982.4875
1080.46974	56346.8875
1084.14085	56721.7875
1087.80943	57167.1875
1091.47549	57452.8875
1095.13903	57452.6875
1098.80005	56971.9875
1102.45857	56186.8875
1106.11456	55706.1875
1109.76805	55529.8875
1113.41903	55669.0875
1117.06751	55952.6875
1120.71348	56261.5875
1124.35696	56571.4875
1127.99793	57012.6875
1131.63641	57080.7875
1135.2724	56866.7875
1138.90589	56639.5875
1142.5369	56587.2875
1146.16542	56753.9875
1149.79145	56986.7875
1153.415	57228.8875
1157.03607	57668.0875
1160.65467	58716.9875
1164.27079	60477.8875
1167.88443	62719.5875
1171.49561	65262.9875
1175.10432	68610.7875
1178.71056	72805.3875
1182.31434	76757.1875
1185.91565	78551.2875
1189.51451	78100.0875
1193.11091	76284.2875
1196.70485	74060.6875
1200.29634	72020.7875
1203.88538	70595.7875
1207.47197	69683.3875
1211.05612	68721.1875
1214.63782	67607.9875
1218.21708	66558.0875
1221.79391	65810.9875
1225.36829	65313.5875
1228.94024	64830.2875
1232.50976	63837.1875
1236.07685	62831.7875
1239.6415	62355.4875
1243.20374	62378.2875
1246.76355	62868.8875
1250.32093	63624.5875
1253.8759	64608.3875
1257.42845	66009.6875
1260.97859	67303.8875
1264.52631	68639.1875
1268.07163	70231.9875
1271.61453	71667.1875
1275.15503	73272.2875
1278.69312	74727.8875
1282.22882	76036.4875
1285.76211	77504.1875
1289.29301	79369.4875
1292.82151	81869.7875
1296.34761	84989.5875
1299.87133	88901.4875
1303.39266	93517.8875
1306.9116	98060.0875
1310.42815	101938.4875
1313.94233	104153.9875
1317.45412	103677.5875
1320.96354	101850.4875
1324.47058	99764.3875
1327.97525	97716.8875
1331.47754	96135.0875
1334.97747	95126.0875
1338.47502	94574.1875
1341.97022	94272.8875
1345.46305	93781.1875
1348.95352	93529.5875
1352.44163	93887.7875
1355.92738	95569.8875
1359.41078	99118.7875
1362.89183	101881.1875
1366.37053	100170.2875
1369.84688	93303.2875
1373.32088	84848.8875
1376.79254	79088.5875
1380.26186	76871.7875
1383.72883	76730.2875
1387.19347	76986.3875
1390.65578	76398.8875
1394.11575	76001.8875
1397.57339	76135.6875
1401.0287	76917.6875
1404.48168	77672.4875
1407.93234	77708.6875
1411.38068	76975.2875
1414.82669	75397.0875
1418.27039	73397.6875
1421.71177	71349.3875
1425.15083	69623.2875
1428.58758	68792.9875
1432.02203	69261.5875
1435.45416	70502.0875
1438.88399	72117.0875
1442.31151	73317.7875
1445.73673	73997.7875
1449.15965	74295.2875
1452.58027	74231.1875
1455.9986	74019.3875
1459.41463	74198.7875
1462.82837	75022.7875
1466.23982	76280.7875
1469.64898	77441.6875
1473.05586	78495.5875
1476.46045	78955.9875
1479.86276	78653.3875
1483.26279	78044.2875
1486.66054	77693.9875
1490.05602	77890.7875
1493.44922	78573.4875
1496.84016	79294.0875
1500.22882	80583.1875
1503.61521	82792.2875
1506.99934	85194.0875
1510.38121	87004.1875
1513.76081	87012.0875
1517.13816	84994.8875
1520.51324	82251.7875
1523.88607	80203.1875
1527.25665	79289.9875
1530.62498	79292.6875
1533.99105	79257.1875
1537.35488	78891.6875
1540.71647	77976.3875
1544.07581	76594.0875
1547.4329	75036.9875
1550.78776	73888.0875
1554.14038	72838.3875
1557.49077	72300.5875
1560.83892	71934.9875
1564.18484	71953.9875
1567.52853	72188.4875
1570.86999	72782.6875
1574.20922	73654.7875
1577.54624	74160.3875
1580.88103	74053.5875
1584.2136	74125.8875
1587.54395	75535.5875
1590.87208	78629.4875
1594.19801	82833.7875
1597.52172	87060.6875
1600.84321	88580.3875
1604.16251	85853.7875
1607.47959	80589.6875
1610.79447	75041.6875
1614.10715	69927.7875
1617.41763	65911.1875
1620.7259	63118.7875
1624.03199	61768.3875
1627.33587	61839.7875
1630.63757	63079.2875
1633.93707	65865.5875
1637.23439	70727.0875
1640.52951	77688.9875
1643.82246	85739.8875
1647.11321	91889.9875
1650.40179	92629.0875
1653.68819	86859.9875
1656.97241	77507.5875
1660.25446	68625.0875
1663.53433	62198.8875
1666.81203	58220.8875
1670.08756	55638.3875
1673.36092	54126.7875
1676.63211	53018.8875
1679.90115	52265.6875
1683.16801	51652.7875
1686.43272	51133.7875
1689.69527	50845.1875
1692.95567	50641.0875
1696.2139	50508.3875
1699.46999	50406.3875
1702.72392	50346.6875
1705.97571	50294.6875
1709.22535	50118.4875
1712.47284	50215.2875
1715.71819	50141.9875
1718.96139	50084.3875
1722.20246	50005.5875
1725.44139	49764.5875
1728.67818	49544.0875
1731.91284	49276.6875
1735.14537	49135.0875
1738.37576	49049.7875
1741.60403	48925.6875
1744.83017	48850.2875
1748.05418	48667.6875
1751.27607	48588.7875
1754.49584	48526.8875
1757.71349	48590.5875
1760.92903	48553.9875
1764.14244	48488.1875
1767.35375	48433.5875
1770.56294	48433.0875
1773.77002	48360.8875
1776.97499	48323.0875
1780.17785	48220.2875
1783.37861	48161.3875
1786.57727	48132.2875
1789.77382	48124.9875
1792.96828	48045.7875
1796.16064	47932.5875
1799.3509	47839.2875
1802.53907	47742.5875
1805.72514	47664.9875
1808.90913	47524.0875
1812.09102	47501.4875
1815.27083	47443.8875
1818.44856	47365.9875
1821.6242	47301.6875
1824.79776	47263.0875
1827.96924	47284.6875
1831.13864	47227.9875
1834.30597	47295.3875
1837.47122	47187.9875
1840.6344	47190.8875
1843.7955	47198.7875
1846.95454	47129.9875
1850.11151	47101.7875
1853.26642	47072.3875
1856.41926	47052.6875
1859.57004	47016.9875
1862.71876	46972.2875
1865.86542	46957.5875
1869.01003	46943.5875
1872.15258	46879.2875
1875.29308	46895.2875
1878.43152	46788.9875
1881.56792	46832.1875
1884.70227	46692.4875
1887.83457	46667.6875
1890.96482	46642.9875
1894.09304	46652.5875
1897.21921	46613.0875
1900.34335	46556.3875
1903.46544	46501.1875
1906.58551	46463.4875
1909.70353	46407.7875
1912.81953	46422.4875
1915.93349	46272.8875
1919.04543	46158.9875
1922.15534	46116.0875
1925.26322	46058.0875
1928.36908	46003.7875
1931.47292	45973.4875
1934.57473	45912.9875
1937.67453	45822.2875
1940.77232	45749.9875
1943.86808	45646.1875
1946.96184	45538.2875
1950.05358	45466.4875
1953.14331	45343.2875
1956.23103	45241.2875
1959.31675	45153.4875
1962.40046	44976.9875
1965.48217	44836.4875
1968.56188	44784.7875
1971.63959	44636.8875
1974.7153	44448.5875
1977.78901	44355.0875
1980.86073	44251.3875
1983.93046	44169.8875
1986.99819	44050.3875
1990.06394	43996.7875
1993.1277	43880.4875
1996.18947	43721.4875
1999.24925	43614.6875
2002.30706	43487.3875
2005.36288	43358.6875
2008.41672	43268.2875
2011.46859	43139.7875
2014.51848	43076.3875
2017.56639	42935.8875
2020.61233	42825.2875
2023.6563	42752.8875
2026.6983	42691.6875
2029.73833	42618.8875
2032.7764	42580.8875
2035.8125	42462.2875
2038.84664	42426.2875
2041.87881	42267.9875
2044.90903	42222.5875
2047.93729	42142.0875
2050.96359	42209.5875
2053.98794	42158.0875
2057.01034	42125.6875
2060.03078	42113.3875
2063.04927	42119.1875
2066.06582	42094.8875
2069.08042	42066.4875
2072.09307	41986.0875
2075.10378	41986.2875
2078.11255	41941.9875
2081.11938	41987.2875
2084.12426	41945.5875
2087.12722	41954.9875
2090.12824	41885.8875
2093.12732	41944.2875
2096.12447	42007.7875
2099.11969	42004.1875
2102.11299	42058.3875
2105.10435	42075.8875
2108.09379	42123.2875
2111.08131	42090.0875
2114.0669	42125.3875
2117.05057	42215.9875
2120.03233	42293.0875
2123.01216	42277.0875
2125.99008	42322.8875
2128.96609	42352.5875
2131.94018	42336.6875
2134.91236	42415.9875
2137.88263	42468.3875
2140.851	42372.4875
2143.81746	42476.2875
2146.78201	42528.3875
2149.74466	42530.9875
2152.7054	42586.4875
2155.66425	42550.8875
2158.6212	42544.4875
2161.57625	42498.0875
2164.52941	42510.5875
2167.48067	42476.1875
2170.43004	42449.7875
2173.37752	42528.0875
2176.32311	42584.8875
2179.26681	42614.7875
2182.20863	42620.9875
2185.14856	42563.8875
2188.08661	42503.9875
2191.02278	42616.2875
2193.95707	42537.8875
2196.88948	42513.6875
2199.82001	42473.9875
2202.74867	42506.2875
2205.67545	42450.0875
2208.60037	42422.5875
2211.52341	42393.5875
2214.44458	42296.5875
2217.36388	42299.9875
2220.28132	42186.0875
2223.1969	42096.9875
2226.11061	42068.1875
2229.02246	41975.7875
2231.93245	41979.1875
2234.84058	41895.1875
2237.74686	41806.2875
2240.65128	41798.9875
2243.55385	41744.5875
2246.45456	41773.7875
2249.35343	41639.3875
2252.25044	41614.2875
2255.14561	41555.3875
2258.03893	41481.7875
2260.93041	41440.1875
2263.82004	41377.7875
2266.70783	41327.1875
2269.59378	41199.6875
2272.4779	41100.9875
2275.36017	41036.4875
2278.24061	40965.3875
2281.11922	40894.9875
2283.996	40814.3875
2286.87094	40797.5875
2289.74405	40791.5875
2292.61534	40773.1875
2295.4848	40803.6875
2298.35243	40748.2875
2301.21824	40743.0875
2304.08223	40744.4875
2306.94439	40715.1875
2309.80474	40757.2875
2312.66327	40710.3875
2315.51999	40664.1875
2318.37489	40615.7875
2321.22797	40655.9875
2324.07925	40581.0875
2326.92871	40523.3875
2329.77637	40452.5875
2332.62222	40440.5875
2335.46626	40427.1875
2338.3085	40439.4875
2341.14893	40423.2875
2343.98756	40422.7875
2346.8244	40361.9875
2349.65943	40338.5875
2352.49267	40298.3875
2355.32411	40365.6875
2358.15376	40347.5875
2360.98161	40298.8875
2363.80768	40216.2875
2366.63195	40194.2875
2369.45444	40175.4875
2372.27514	40092.8875
2375.09405	39992.8875
2377.91118	39969.0875
2380.72652	39861.0875
2383.54009	39828.3875
2386.35187	39793.1875
2389.16188	39712.1875
2391.97011	39664.4875
2394.77657	39594.1875
2397.58125	39527.7875
2400.38416	39487.4875
2403.18529	39350.6875
2405.98466	39383.3875
2408.78226	39302.6875
2411.57809	39296.7875
2414.37216	39249.6875
2417.16446	39218.9875
2419.955	39178.0875
2422.74378	39200.1875
2425.5308	39180.5875
2428.31606	39118.9875
2431.09956	39069.8875
2433.88131	39081.6875
2436.6613	39120.4875
2439.43954	39115.3875
2442.21603	39137.2875
2444.99077	39039.4875
2447.76377	38969.0875
2450.53501	38960.8875
2453.30451	38989.2875
2456.07226	38913.5875
2458.83827	38920.2875
2461.60254	38863.7875
2464.36507	38832.1875
2467.12586	38778.9875
2469.88492	38795.4875
2472.64224	38838.4875
2475.39782	38836.1875
2478.15167	38922.2875
2480.90379	38964.2875
2483.65417	38975.2875
2486.40283	38916.0875
2489.14976	38941.3875
2491.89497	38847.8875
2494.63845	38898.9875
2497.3802	38881.1875
2500.12024	38847.0875
2502.85855	38790.4875
2505.59514	38785.0875
2508.33002	38754.4875
2511.06318	38742.7875
2513.79462	38639.6875
2516.52435	38652.5875
2519.25237	38594.8875
2521.97867	38597.1875
2524.70327	38636.4875
2527.42616	38559.7875
2530.14734	38536.8875
2532.86681	38487.1875
2535.58458	38462.4875
2538.30065	38431.8875
2541.01501	38410.3875
2543.72768	38412.5875
2546.43864	38395.2875
2549.14791	38353.0875
2551.85548	38258.5875
2554.56136	38248.1875
2557.26554	38170.3875
2559.96803	38101.9875
2562.66883	38082.6875
2565.36794	38048.1875
2568.06536	38056.8875
2570.7611	38040.6875
2573.45514	37955.0875
2576.14751	37941.8875
2578.83819	37872.5875
2581.52719	37889.3875
2584.21451	37808.7875
2586.90015	37751.7875
2589.58411	37685.5875
2592.2664	37644.3875
2594.94701	37590.4875
2597.62594	37633.4875
2600.30321	37588.2875
2602.9788	37569.0875
2605.65273	37494.1875
2608.32498	37481.7875
2610.99557	37496.1875
2613.66449	37553.6875
2616.33175	37488.1875
2618.99734	37519.7875
2621.66128	37470.5875
2624.32355	37431.1875
2626.98416	37351.0875
2629.64311	37372.3875
2632.30041	37305.4875
2634.95605	37225.9875
2637.61004	37222.5875
2640.26238	37271.7875
2642.91306	37223.7875
2645.56209	37167.3875
2648.20948	37171.6875
2650.85521	37175.7875
2653.4993	37176.1875
2656.14175	37220.1875
2658.78255	37218.6875
2661.42171	37251.4875
2664.05923	37239.9875
2666.6951	37186.8875
2669.32934	37279.6875
2671.96194	37255.3875
2674.59291	37204.4875
2677.22224	37203.5875
2679.84993	37220.4875
2682.476	37208.9875
2685.10043	37240.8875
2687.72324	37185.5875
2690.34441	37147.8875
2692.96396	37123.4875
2695.58188	37184.4875
2698.19818	37125.2875
2700.81285	37117.7875
2703.4259	37119.4875
2706.03733	37219.8875
2708.64714	37121.6875
2711.25533	37109.6875
2713.86191	37182.2875
2716.46687	37317.3875
2719.07021	37337.9875
2721.67194	37415.1875
2724.27206	37341.7875
2726.87057	37373.0875
2729.46747	37464.2875
2732.06276	37442.8875
2734.65644	37421.2875
2737.24852	37351.0875
2739.83899	37267.9875
2742.42786	37307.2875
2745.01513	37326.4875
2747.60079	37273.6875
2750.18486	37190.9875
2752.76733	37184.0875
2755.3482	37106.0875
2757.92747	37113.3875
2760.50515	37076.4875
2763.08123	37058.1875
2765.65573	37040.5875
2768.22863	37005.4875
2770.79994	36922.4875
2773.36967	36975.6875
2775.9378	36923.8875
2778.50435	36964.3875
2781.06932	36962.4875
2783.6327	36889.0875
2786.1945	36812.3875
2788.75471	36835.3875
2791.31335	36771.8875
2793.87041	36729.6875
2796.42589	36596.8875
2798.97979	36556.5875
2801.53212	36458.5875
2804.08288	36461.2875
2806.63206	36361.0875
2809.17967	36228.4875
2811.72571	36159.3875
2814.27018	36084.1875
2816.81308	36058.2875
2819.35442	35996.0875
2821.89419	35994.3875
2824.43239	36018.1875
2826.96904	35944.1875
2829.50412	35939.0875
2832.03763	35810.7875
2834.56959	35817.0875
2837.1	35744.7875
2839.62884	35749.6875
2842.15613	35701.4875
2844.68186	35750.6875
2847.20604	35628.9875
2849.72867	35628.4875
2852.24974	35565.0875
2854.76927	35589.8875
2857.28724	35551.1875
2859.80367	35487.6875
2862.31855	35387.2875
2864.83189	35401.0875
2867.34368	35395.6875
2869.85393	35419.5875
2872.36264	35373.6875
2874.8698	35293.4875
2877.37543	35274.7875
2879.87952	35238.0875
2882.38207	35238.8875
2884.88308	35260.7875
2887.38256	35194.1875
2889.88051	35206.0875
2892.37692	35238.1875
2894.8718	35247.7875
2897.36515	35340.4875
2899.85698	35259.0875
2902.34727	35338.7875
2904.83604	35376.7875
2907.32328	35418.0875
2909.809	35461.0875
2912.29319	35533.9875
2914.77587	35515.8875
2917.25702	35492.3875
2919.73665	35405.7875
2922.21476	35452.5875
2924.69136	35416.5875
2927.16644	35410.3875
2929.64	35318.6875
2932.11205	35317.5875
2934.58258	35224.9875
2937.05161	35245.3875
2939.51912	35240.3875
2941.98513	35252.4875
2944.44962	35240.9875
2946.91261	35173.2875
2949.37409	35220.8875
2951.83407	35179.7875
2954.29254	35213.9875
2956.74951	35165.0875
2959.20498	35190.1875
2961.65895	35114.9875
2964.11142	35139.2875
2966.56239	35168.4875
2969.01186	35150.5875
2971.45984	35043.6875
2973.90632	34962.0875
2976.35131	34938.5875
2978.7948	34893.3875
2981.23681	34859.3875
2983.67732	34832.6875
2986.11635	34758.1875
2988.55388	34683.2875
2990.98993	34597.3875
2993.4245	34501.5875
2995.85758	34401.7875
2998.28917	34337.3875
3000.71928	34328.4875
3003.14791	34237.9875
3005.57506	34273.3875
3008.00073	34128.3875
3010.42493	34081.0875
3012.84764	34023.9875
3015.26888	34014.6875
3017.68865	33948.6875
3020.10694	33950.7875
