Data from AgNPs_FTO_APTES_UA_20uM_CRN_10uM_R6G_10uM_NaF_0.1M_Addition_RamanShift__9__14-20-52-193.txt Node

Date: Thu Feb 17 14:20:52 GMT 2022
User: TCL
Spectrometer: QEP01345
Trigger mode: 4
Integration Time (sec): 7.000000E0
Scans to average: 10
Electric dark correction enabled: true
Nonlinearity correction enabled: false
Boxcar width: 0
XAxis mode: Raman Shifts
Number of Pixels in Spectrum: 1044
>>>>>Begin Spectral Data<<<<<
46.04893	-0.6
50.45542	-0.5
54.85868	-3.9
59.25871	-0.9
63.6555	123.2
68.04907	126.5
72.43941	130.7
76.82654	133.3
81.21044	139.7
85.59113	143
89.96862	143.7
94.34289	153.2
98.71396	153.4
103.08183	160.2
107.4465	163
111.80798	165.8
116.16626	173.4
120.52136	183.4
124.87327	186.7
129.222	202.9
133.56755	218.2
137.90993	235.8
142.24913	259.1
146.58517	294.3
150.91804	346.9
155.24774	412.9
159.57429	524.3
163.89768	673.3
168.21792	910.3
172.53501	1243
176.84895	1747.2
181.15975	2481
185.46741	3493.2
189.77193	4830.8
194.07331	6497.7
198.37157	8397.9
202.6667	10448.1
206.9587	12439.5
211.24758	14373.5
215.53334	16281.8
219.81599	18354
224.09553	20568.2
228.37195	23030.7
232.64527	25760.4
236.91549	28664.1
241.18261	31647
245.44663	34462.3
249.70755	36957.7
253.96539	39277.3
258.22014	41169.8
262.4718	42717.8
266.72039	43821.2
270.96589	44413.3
275.20832	44552.3
279.44768	44385.4
283.68397	44063.8
287.91719	43759.9
292.14735	43609.7
296.37445	43610.2
300.59849	43674
304.81948	43798
309.03742	43881.8
313.25231	43738.7
317.46415	43159.9
321.67296	42488.6
325.87872	41903.6
330.08145	41640.4
334.28114	41728.7
338.47781	42020.1
342.67145	42446.9
346.86207	43101.4
351.04966	43774.3
355.23424	44413.1
359.4158	44958.7
363.59435	45372.9
367.76989	45740.5
371.94243	46010
376.11196	46246.6
380.27849	46497.1
384.44203	46826.8
388.60257	47044.3
392.76012	47576.3
396.91468	48119
401.06626	48715.7
405.21485	49178.7
409.36047	49141.2
413.50311	48699
417.64277	48473.4
421.77947	48448
425.9132	48660
430.04396	49004.7
434.17176	49254.3
438.2966	49520.3
442.41849	50109
446.53742	51014.6
450.6534	52069.1
454.76644	52866.8
458.87653	53255.7
462.98368	53267.2
467.08789	53022.4
471.18916	52594.3
475.2875	52190.8
479.38291	51899.7
483.4754	51718.7
487.56496	51308.7
491.6516	50921.3
495.73531	50531.7
499.81612	50219
503.89401	50374.9
507.96899	50512.4
512.04106	50546.5
516.11023	50502.7
520.1765	50343.1
524.23987	50209.5
528.30034	49983.8
532.35792	49740.2
536.41261	49452.7
540.46441	49184.9
544.51333	49275
548.55936	49686.6
552.60252	50394.8
556.64279	51238.2
560.6802	51948.8
564.71473	52316
568.7464	53009.5
572.7752	54112.4
576.80114	55425.6
580.82422	56677.3
584.84444	57691.7
588.86181	58751.7
592.87633	59638.3
596.888	59488.9
600.89682	58359.1
604.9028	58496.3
608.90594	60970.9
612.90624	63520.7
616.90371	60640.2
620.89834	54435.9
624.89015	51722
628.87913	51495.5
632.86528	51844.6
636.84862	52002.5
640.82913	51603.3
644.80683	50816
648.78172	50189.5
652.75379	50061.9
656.72306	50551.1
660.68952	51189.3
664.65319	51110.9
668.61405	50566.5
672.57211	50618.1
676.52738	50865.7
680.47986	50901.5
684.42955	50645.3
688.37646	50540.7
692.32058	50718.1
696.26192	51265.6
700.20048	51803.5
704.13626	52209.4
708.06928	52323.6
711.99952	52218.8
715.927	52071.5
719.85171	52090.1
723.77365	51973.2
727.69284	51538.1
731.60928	51134.9
735.52295	50857.1
739.43388	50876.7
743.34206	51054.2
747.24749	51334.3
751.15017	51623.6
755.05012	52225.1
758.94733	53221.8
762.8418	54862.3
766.73354	57655.2
770.62254	60141.9
774.50882	60480.2
778.39237	58577.2
782.27321	56024.3
786.15132	53840.1
790.02671	52389
793.89938	51721
797.76935	51331.7
801.6366	51111.3
805.50115	51046.6
809.36299	50903
813.22213	50810.8
817.07857	50709
820.93231	50709.1
824.78336	50669
828.63172	50548.2
832.47738	50456.4
836.32036	50462.3
840.16066	50540.3
843.99827	50543.7
847.8332	50649.8
851.66546	50788.5
855.49504	50826.7
859.32195	50845.2
863.1462	50863.7
866.96777	50902.1
870.78668	50884.3
874.60293	50897
878.41652	50971.6
882.22745	51054
886.03573	51149.5
889.84136	51145.5
893.64433	51034.3
897.44466	50902.2
901.24235	50799.3
905.0374	50757
908.8298	50702.1
912.61957	50755.7
916.40671	51092.8
920.19121	51595.4
923.97308	51912.8
927.75233	51806.1
931.52895	51404.6
935.30295	50961.8
939.07433	50440.1
942.84309	50073.6
946.60924	49865.1
950.37278	49845.3
954.13371	49979.7
957.89203	49953.5
961.64774	49962.1
965.40086	49879.3
969.15137	49858.3
972.89929	49756.2
976.64461	49667
980.38733	49633.4
984.12747	49678.9
987.86502	49941
991.59999	50160.8
995.33237	50463.3
999.06217	51000
1002.78939	51611.7
1006.51404	52376.5
1010.23611	53045
1013.95561	53548.9
1017.67255	53631
1021.38692	53364.8
1025.09872	52880
1028.80796	52390
1032.51465	52250.6
1036.21877	52361.4
1039.92035	52441.7
1043.61937	52531.3
1047.31584	52599.9
1051.00976	52582.1
1054.70114	52737.1
1058.38998	53032.8
1062.07627	53479.1
1065.76003	54099.2
1069.44126	54652.8
1073.11995	55317.8
1076.79611	55929.6
1080.46974	56279.5
1084.14085	56506.5
1087.80943	56855.9
1091.47549	57177.9
1095.13903	57248.2
1098.80005	56794.5
1102.45857	56043.5
1106.11456	55294.9
1109.76805	54888.3
1113.41903	54799.7
1117.06751	54940.1
1120.71348	55220
1124.35696	55657.6
1127.99793	55964.7
1131.63641	56071.2
1135.2724	56000
1138.90589	55821.4
1142.5369	55947.7
1146.16542	56189.5
1149.79145	56441.3
1153.415	56768.4
1157.03607	57174.7
1160.65467	57949.5
1164.27079	59379.1
1167.88443	61223.1
1171.49561	63334.8
1175.10432	65984
1178.71056	69237.5
1182.31434	72418.7
1185.91565	74127.2
1189.51451	74365.8
1193.11091	73751.2
1196.70485	72307
1200.29634	70583.7
1203.88538	69109.1
1207.47197	68266.2
1211.05612	67584.4
1214.63782	66484.2
1218.21708	65303.2
1221.79391	64098
1225.36829	63211.2
1228.94024	62674.5
1232.50976	62157.2
1236.07685	61707.8
1239.6415	61379.7
1243.20374	61423
1246.76355	61765.3
1250.32093	62391.5
1253.8759	63303.6
1257.42845	64483.1
1260.97859	65784.1
1264.52631	67037.7
1268.07163	68316.8
1271.61453	69475.6
1275.15503	70529.4
1278.69312	71784.1
1282.22882	72950.7
1285.76211	74446
1289.29301	76327
1292.82151	78533.9
1296.34761	81284.3
1299.87133	84397.9
1303.39266	87592.6
1306.9116	90586.9
1310.42815	93069.7
1313.94233	94177.7
1317.45412	93856.3
1320.96354	92762.9
1324.47058	91987.4
1327.97525	91282.4
1331.47754	90798.8
1334.97747	90522.9
1338.47502	90636.1
1341.97022	90901.2
1345.46305	91214
1348.95352	91440.6
1352.44163	91245.1
1355.92738	91628.9
1359.41078	92883.8
1362.89183	94049.9
1366.37053	92379.2
1369.84688	87215.4
1373.32088	80813.5
1376.79254	76237.8
1380.26186	74345.4
1383.72883	74088.4
1387.19347	74207.4
1390.65578	73754.1
1394.11575	73186.3
1397.57339	72983.8
1401.0287	73187.9
1404.48168	73286.6
1407.93234	72955.4
1411.38068	72140
1414.82669	70780.7
1418.27039	69005.1
1421.71177	67357
1425.15083	66035.9
1428.58758	65417.1
1432.02203	65791.1
1435.45416	66817.4
1438.88399	68047.1
1442.31151	69143.5
1445.73673	69733.4
1449.15965	70160.1
1452.58027	70389.5
1455.9986	70497.2
1459.41463	70957.2
1462.82837	71666.8
1466.23982	72649.2
1469.64898	73594.2
1473.05586	74242.2
1476.46045	74526.7
1479.86276	74358.9
1483.26279	74008.2
1486.66054	73803.6
1490.05602	74155.2
1493.44922	75014.1
1496.84016	75988.7
1500.22882	77500.4
1503.61521	79768.2
1506.99934	82188.6
1510.38121	83714
1513.76081	83621.9
1517.13816	81992.2
1520.51324	79982.7
1523.88607	78657.9
1527.25665	78198.9
1530.62498	78262.9
1533.99105	78107.3
1537.35488	77322.3
1540.71647	76051.1
1544.07581	74632.2
1547.4329	73238.1
1550.78776	71927.2
1554.14038	71072.2
1557.49077	70475
1560.83892	70263.4
1564.18484	70081.1
1567.52853	70263.1
1570.86999	70791.3
1574.20922	71537.1
1577.54624	72117.9
1580.88103	71998.2
1584.2136	71944.2
1587.54395	72903.1
1590.87208	74973.8
1594.19801	77694
1597.52172	80428.3
1600.84321	81045.4
1604.16251	78857.7
1607.47959	75350.7
1610.79447	71499.4
1614.10715	67648.7
1617.41763	64232.1
1620.7259	61823.8
1624.03199	60381.5
1627.33587	60080.1
1630.63757	60914.4
1633.93707	63204
1637.23439	67228.1
1640.52951	73281.6
1643.82246	80369
1647.11321	86018.8
1650.40179	87215.3
1653.68819	82971
1656.97241	75161.1
1660.25446	67433.9
1663.53433	61451.4
1666.81203	57541.2
1670.08756	55116.3
1673.36092	53519.9
1676.63211	52484.5
1679.90115	51696.2
1683.16801	51130.2
1686.43272	50720
1689.69527	50428.9
1692.95567	50171.8
1696.2139	50003.7
1699.46999	49923
1702.72392	49757.3
1705.97571	49704.3
1709.22535	49595.5
1712.47284	49594.8
1715.71819	49602
1718.96139	49522.2
1722.20246	49375.7
1725.44139	49221.7
1728.67818	49058.8
1731.91284	48844.1
1735.14537	48665.2
1738.37576	48489.7
1741.60403	48406.3
1744.83017	48260.9
1748.05418	48107.5
1751.27607	47997.7
1754.49584	48019.7
1757.71349	48035.8
1760.92903	48064.4
1764.14244	47934.8
1767.35375	47913
1770.56294	47810.1
1773.77002	47724.5
1776.97499	47767.5
1780.17785	47622
1783.37861	47635.7
1786.57727	47479
1789.77382	47429.2
1792.96828	47368.9
1796.16064	47374.7
1799.3509	47338.7
1802.53907	47231.3
1805.72514	47147.3
1808.90913	47008.3
1812.09102	46944.7
1815.27083	46890.4
1818.44856	46842.5
1821.6242	46744
1824.79776	46714.5
1827.96924	46750.9
1831.13864	46653.4
1834.30597	46653
1837.47122	46655.7
1840.6344	46528.3
1843.7955	46519.2
1846.95454	46520
1850.11151	46485.6
1853.26642	46476
1856.41926	46463.9
1859.57004	46464.6
1862.71876	46360.6
1865.86542	46337.6
1869.01003	46334.8
1872.15258	46264.1
1875.29308	46201.1
1878.43152	46136.5
1881.56792	46121
1884.70227	46137.6
1887.83457	46085.3
1890.96482	46016.2
1894.09304	45979.3
1897.21921	45912.2
1900.34335	45842
1903.46544	45809.4
1906.58551	45782.8
1909.70353	45754
1912.81953	45685.2
1915.93349	45631.9
1919.04543	45500.7
1922.15534	45454.8
1925.26322	45430.5
1928.36908	45299.3
1931.47292	45235.4
1934.57473	45159.2
1937.67453	45106
1940.77232	45029.2
1943.86808	44917
1946.96184	44804.5
1950.05358	44686
1953.14331	44560.6
1956.23103	44488.9
1959.31675	44368.8
1962.40046	44250.2
1965.48217	44077.9
1968.56188	43976.2
1971.63959	43874.8
1974.7153	43726.1
1977.78901	43635.8
1980.86073	43479.4
1983.93046	43389.7
1986.99819	43255.2
1990.06394	43150.3
1993.1277	43057.5
1996.18947	42911.2
1999.24925	42881.7
2002.30706	42717.1
2005.36288	42586.9
2008.41672	42433.5
2011.46859	42377.6
2014.51848	42265.8
2017.56639	42180.7
2020.61233	42075.8
2023.6563	41931.2
2026.6983	41857.2
2029.73833	41724.1
2032.7764	41671
2035.8125	41583.5
2038.84664	41537.7
2041.87881	41451.8
2044.90903	41410.8
2047.93729	41326.8
2050.96359	41319.4
2053.98794	41268.8
2057.01034	41258.4
2060.03078	41210.7
2063.04927	41185.1
2066.06582	41137.1
2069.08042	41098.7
2072.09307	41050.9
2075.10378	41041.9
2078.11255	41010
2081.11938	41053.5
2084.12426	41065.7
2087.12722	41020.5
2090.12824	41013.7
2093.12732	41023.9
2096.12447	41045.8
2099.11969	41007.9
2102.11299	41016.7
2105.10435	41094.3
2108.09379	41097
2111.08131	41151.1
2114.0669	41054.9
2117.05057	41171.7
2120.03233	41232.5
2123.01216	41264.5
2125.99008	41322.4
2128.96609	41376.9
2131.94018	41392.5
2134.91236	41420.5
2137.88263	41417.4
2140.851	41432.1
2143.81746	41518.5
2146.78201	41539.1
2149.74466	41559.3
2152.7054	41535.9
2155.66425	41579.5
2158.6212	41506.2
2161.57625	41518.6
2164.52941	41450.5
2167.48067	41474.3
2170.43004	41454.7
2173.37752	41457.3
2176.32311	41454.1
2179.26681	41474.9
2182.20863	41472.2
2185.14856	41525.3
2188.08661	41504.3
2191.02278	41506.5
2193.95707	41432.6
2196.88948	41412.9
2199.82001	41396.4
2202.74867	41312.1
2205.67545	41312.4
2208.60037	41189.3
2211.52341	41167.8
2214.44458	41138.1
2217.36388	41099.4
2220.28132	41049.4
2223.1969	40920
2226.11061	40828.6
2229.02246	40743
2231.93245	40699.9
2234.84058	40611.6
2237.74686	40532.5
2240.65128	40501.8
2243.55385	40484.6
2246.45456	40499.5
2249.35343	40473.6
2252.25044	40419.8
2255.14561	40337
2258.03893	40291.2
2260.93041	40218.1
2263.82004	40092.4
2266.70783	40041.2
2269.59378	39940.9
2272.4779	39868.9
2275.36017	39852
2278.24061	39797.4
2281.11922	39654
2283.996	39605.7
2286.87094	39613.3
2289.74405	39544
2292.61534	39490.8
2295.4848	39371.2
2298.35243	39428.1
2301.21824	39459.2
2304.08223	39391.6
2306.94439	39384.4
2309.80474	39343.1
2312.66327	39365.7
2315.51999	39286.8
2318.37489	39227.9
2321.22797	39180.4
2324.07925	39115.7
2326.92871	39041.7
2329.77637	39004.9
2332.62222	38936.2
2335.46626	38898.3
2338.3085	38847
2341.14893	38825.8
2343.98756	38806.9
2346.8244	38806.6
2349.65943	38771.2
2352.49267	38785.7
2355.32411	38794.1
2358.15376	38776.8
2360.98161	38749.3
2363.80768	38732.5
2366.63195	38698.2
2369.45444	38633.8
2372.27514	38561.3
2375.09405	38594.6
2377.91118	38578.1
2380.72652	38436.5
2383.54009	38377.7
2386.35187	38318.3
2389.16188	38179.9
2391.97011	38153.9
2394.77657	38090.3
2397.58125	38043.2
2400.38416	38000.9
2403.18529	37934.3
2405.98466	37894.6
2408.78226	37844.2
2411.57809	37795.2
2414.37216	37760.3
2417.16446	37711.1
2419.955	37679.5
2422.74378	37649.5
2425.5308	37608.2
2428.31606	37616.6
2431.09956	37604.6
2433.88131	37554.7
2436.6613	37535.6
2439.43954	37526.8
2442.21603	37487.7
2444.99077	37399.8
2447.76377	37376.5
2450.53501	37385.5
2453.30451	37340.8
2456.07226	37338.2
2458.83827	37306
2461.60254	37219.7
2464.36507	37236
2467.12586	37251.9
2469.88492	37262.5
2472.64224	37231.2
2475.39782	37216.7
2478.15167	37295.9
2480.90379	37241.2
2483.65417	37248.8
2486.40283	37227.2
2489.14976	37147.9
2491.89497	37107.7
2494.63845	37170.7
2497.3802	37139.7
2500.12024	37110.5
2502.85855	37104.8
2505.59514	37060.4
2508.33002	36958.5
2511.06318	36917.9
2513.79462	36904
2516.52435	36885.5
2519.25237	36876.2
2521.97867	36836.4
2524.70327	36856.8
2527.42616	36780.1
2530.14734	36716.8
2532.86681	36753.6
2535.58458	36644.3
2538.30065	36608.1
2541.01501	36609.9
2543.72768	36626.4
2546.43864	36600.1
2549.14791	36496.6
2551.85548	36414
2554.56136	36322.5
2557.26554	36295.6
2559.96803	36171
2562.66883	36129.1
2565.36794	36138.9
2568.06536	36056.9
2570.7611	36046.7
2573.45514	35972.3
2576.14751	35916
2578.83819	35869.4
2581.52719	35888.7
2584.21451	35819
2586.90015	35777.6
2589.58411	35664.6
2592.2664	35662.2
2594.94701	35563.6
2597.62594	35589.3
2600.30321	35509.6
2602.9788	35585.2
2605.65273	35512.4
2608.32498	35478.7
2610.99557	35427.4
2613.66449	35448
2616.33175	35390.3
2618.99734	35361.6
2621.66128	35266.3
2624.32355	35228.7
2626.98416	35168.3
2629.64311	35158.7
2632.30041	35172.9
2634.95605	35091.3
2637.61004	35057.5
2640.26238	35030.2
2642.91306	35017.9
2645.56209	34944.2
2648.20948	34955.3
2650.85521	34938.2
2653.4993	34947.8
2656.14175	34924.1
2658.78255	34970
2661.42171	35031.3
2664.05923	35023.5
2666.6951	34993.1
2669.32934	34970.6
2671.96194	34970.2
2674.59291	35012.1
2677.22224	35038.1
2679.84993	35062
2682.476	34945.8
2685.10043	34987.5
2687.72324	34961.9
2690.34441	35033.4
2692.96396	34942.9
2695.58188	34978.6
2698.19818	34940.4
2700.81285	34895.3
2703.4259	34918.2
2706.03733	35019.9
2708.64714	34938.8
2711.25533	34932.8
2713.86191	34939.1
2716.46687	35024.9
2719.07021	35048
2721.67194	35015.2
2724.27206	34977.5
2726.87057	34988.1
2729.46747	34989.5
2732.06276	34977
2734.65644	34983.9
2737.24852	35024.1
2739.83899	35017.2
2742.42786	35022.8
2745.01513	34977.5
2747.60079	34951.7
2750.18486	34879.1
2752.76733	34855.6
2755.3482	34775.4
2757.92747	34758.5
2760.50515	34712.6
2763.08123	34692.9
2765.65573	34635.8
2768.22863	34655.9
2770.79994	34597.8
2773.36967	34627.7
2775.9378	34597.9
2778.50435	34620.8
2781.06932	34543.9
2783.6327	34477.8
2786.1945	34416.5
2788.75471	34392.1
2791.31335	34302.3
2793.87041	34288.3
2796.42589	34191.7
2798.97979	34148.9
2801.53212	34071.2
2804.08288	34016.1
2806.63206	33973.8
2809.17967	33856.8
2811.72571	33722.9
2814.27018	33663.5
2816.81308	33522.7
2819.35442	33513.6
2821.89419	33468.4
2824.43239	33497.3
2826.96904	33458.3
2829.50412	33430.8
2832.03763	33386.5
2834.56959	33309.4
2837.1	33271.5
2839.62884	33199.1
2842.15613	33123.3
2844.68186	33141.5
2847.20604	33154.9
2849.72867	33094.6
2852.24974	33021.9
2854.76927	32988.1
2857.28724	32998.4
2859.80367	33012.8
2862.31855	32888.9
2864.83189	32864.7
2867.34368	32735.6
2869.85393	32778.2
2872.36264	32767.2
2874.8698	32728
2877.37543	32689.2
2879.87952	32649.8
2882.38207	32626.6
2884.88308	32593.4
2887.38256	32616
2889.88051	32576.1
2892.37692	32637.3
2894.8718	32622.6
2897.36515	32629.8
2899.85698	32670.6
2902.34727	32673.2
2904.83604	32650
2907.32328	32678.9
2909.809	32687.3
2912.29319	32708.1
2914.77587	32714.4
2917.25702	32738.2
2919.73665	32652.9
2922.21476	32672.7
2924.69136	32606.5
2927.16644	32617.8
2929.64	32551
2932.11205	32534.7
2934.58258	32450
2937.05161	32514.7
2939.51912	32549.9
2941.98513	32474.4
2944.44962	32462.2
2946.91261	32417.4
2949.37409	32474
2951.83407	32441
2954.29254	32369.4
2956.74951	32383.8
2959.20498	32377.3
2961.65895	32370.3
2964.11142	32369.3
2966.56239	32307.4
2969.01186	32305.3
2971.45984	32226.7
2973.90632	32255.5
2976.35131	32176.2
2978.7948	32110.2
2981.23681	32082.3
2983.67732	32006.7
2986.11635	31978
2988.55388	31897.1
2990.98993	31831.2
2993.4245	31791.9
2995.85758	31759.3
2998.28917	31656.7
3000.71928	31585.4
3003.14791	31524.5
3005.57506	31540.7
3008.00073	31418.2
3010.42493	31395.2
3012.84764	31287.4
3015.26888	31221.1
3017.68865	31193.2
3020.10694	31159.6
3022.52376	31142.5
3024.9391	31073.7
3027.35298	31046
3029.76539	31030.2
3032.17632	30985
3034.5858	30928.3
3036.9938	30901.6
3039.40034	30866.9
3041.80542	30845.7
3044.20903	30754.1
3046.61118	30750.1
3049.01187	30620.7
3051.4111	30552.6
3053.80888	30497.2
3056.20519	30461.5
3058.60005	30432
3060.99345	30372.4
3063.3854	30295.9
3065.7759	30193.4
3068.16494	30090.5
3070.55254	30046.5
3072.93868	29975.4
3075.32338	29863.8
3077.70662	29777.3
3080.08842	29715.6
3082.46878	29661.2
3084.84769	29649
3087.22515	29605.1
3089.60118	29597.5
3091.97576	29548.1
3094.3489	29539.3
3096.72061	29531.1
3099.09087	29552
3101.4597	29454.4
3103.82709	29494.4
3106.19305	29494.9
3108.55757	29495.2
3110.92066	29421.5
3113.28232	29377.2
3115.64255	29241
3118.00134	29160
3120.35871	29127.3
3122.71466	29031.3
3125.06917	29043.4
3127.42226	28941.9
3129.77393	28942
3132.12417	28836.4
3134.47299	28837.6
3136.82039	28843.8
3139.16636	28815.5
3141.51092	28778.6
3143.85406	28811.6
3146.19579	28779
3148.53609	28799
3150.87499	28818.7
3153.21246	28817.1
3155.54853	28853.1
3157.88318	28769.5
3160.21642	28815
3162.54826	28781.6
3164.87868	28723.1
3167.2077	28679.1
3169.5353	28661.5
3171.86151	28633.1
3174.18631	28636.1
3176.5097	28595.7
3178.83169	28521.2
3181.15228	28531
3183.47147	28424.4
3185.78926	28410
3188.10565	28362.3
3190.42065	28309.1
3192.73424	28285.9
3195.04645	28211.1
3197.35725	28223.9
3199.66667	28191.3
3201.97469	28194.6
3204.28132	28119.1
3206.58656	28124.3
3208.8904	28154.5
3211.19287	28132.6
3213.49394	28144.8
3215.79363	28116.9
3218.09193	28166
3220.38884	28178.8
3222.68438	28196.9
3224.97853	28104.7
3227.2713	28090.6
3229.56269	28020.7
3231.8527	28038.8
3234.14133	27976.5
3236.42858	27904
3238.71446	27867.2
3240.99896	27802.9
3243.28209	27785.2
3245.56384	27731
3247.84423	27691.2
3250.12324	27643
3252.40088	27637.9
3254.67715	27661.1
3256.95205	27610.2
3259.22558	27589.7
3261.49775	27534.7
3263.76855	27510.1
3266.03799	27429.3
3268.30606	27369.6
3270.57277	27305.1
3272.83812	27246.3
3275.10211	27212.6
3277.36474	27203.4
3279.62601	27177.9
3281.88593	27139
3284.14448	27161.1
3286.40168	27065.3
3288.65753	27090.1
3290.91202	27015.7
3293.16516	26981.5
3295.41695	26912.3
3297.66738	26755.9
3299.91647	26647.9
3302.16421	26480.8
3304.4106	26340
3306.65564	26137.1
3308.89933	25953.5
3311.14169	25854.8
3313.38269	25643.4
3315.62236	25511.4
3317.86068	25293.9
3320.09766	25029.8
3322.3333	24893.7
3324.5676	24802.2
3326.80056	24415.5
3329.03219	24260
3331.26248	6.5
3333.49143	0.9
3335.71905	-1.6
