Data from AgNPs_FTO_APTES_UA_10uM_CRN_50uM_R6G_10uM_NaF_0.1M_Addition_RamanShift__17__16-55-14-832.txt Node

Date: Thu Feb 17 16:55:14 GMT 2022
User: TCL
Spectrometer: QEP01345
Trigger mode: 4
Integration Time (sec): 1.000000E1
Scans to average: 7
Electric dark correction enabled: true
Nonlinearity correction enabled: false
Boxcar width: 0
XAxis mode: Raman Shifts
Number of Pixels in Spectrum: 1044
>>>>>Begin Spectral Data<<<<<
46.04893	-0.67857
50.45542	-1.10714
54.85868	0.32143
59.25871	-0.39286
63.6555	65.75
68.04907	69.17857
72.43941	72.75
76.82654	77.46429
81.21044	82.03571
85.59113	84.75
89.96862	84.32143
94.34289	85.03571
98.71396	91.32143
103.08183	89.60714
107.4465	98.46429
111.80798	96.75
116.16626	99.75
120.52136	103.32143
124.87327	107.32143
129.222	112.03571
133.56755	110.60714
137.90993	116.89286
142.24913	123.60714
146.58517	141.17857
150.91804	160.89286
155.24774	190.89286
159.57429	234.03571
163.89768	291.32143
168.21792	382.46429
172.53501	519.60714
176.84895	715.03571
181.15975	1013.89286
185.46741	1436.17857
189.77193	1981.46429
194.07331	2670.03571
198.37157	3450.17857
202.6667	4290.03571
206.9587	5107.75
211.24758	5940.17857
215.53334	6750.75
219.81599	7569.75
224.09553	8484.60714
228.37195	9482.03571
232.64527	10644.60714
236.91549	11819.46429
241.18261	13033.17857
245.44663	14206.75
249.70755	15265.89286
253.96539	16184.46429
258.22014	16955.17857
262.4718	17538.17857
266.72039	17910.03571
270.96589	18106.17857
275.20832	18105.17857
279.44768	17906.17857
283.68397	17673.46429
287.91719	17372.75
292.14735	17218.75
296.37445	17134.03571
300.59849	17124.60714
304.81948	17156.46429
309.03742	17161.89286
313.25231	17019.75
317.46415	16775.46429
321.67296	16506.89286
325.87872	16331.17857
330.08145	16246.75
334.28114	16311.60714
338.47781	16478.75
342.67145	16723.75
346.86207	17050.46429
351.04966	17373.60714
355.23424	17749.32143
359.4158	18037.32143
363.59435	18313.60714
367.76989	18553.32143
371.94243	18748.46429
376.11196	18881.75
380.27849	18983.46429
384.44203	19102.89286
388.60257	19198.60714
392.76012	19326.89286
396.91468	19415.17857
401.06626	19611.75
405.21485	19750.46429
409.36047	19730.89286
413.50311	19538.03571
417.64277	19359.03571
421.77947	19203.46429
425.9132	19150.17857
430.04396	19254.46429
434.17176	19335.32143
438.2966	19503.03571
442.41849	19736.32143
446.53742	20062.17857
450.6534	20353.75
454.76644	20637.32143
458.87653	20768.75
462.98368	20824.89286
467.08789	20741.46429
471.18916	20593.75
475.2875	20460.17857
479.38291	20339.46429
483.4754	20214.60714
487.56496	20113.32143
491.6516	20069.32143
495.73531	20099.17857
499.81612	20111.60714
503.89401	20211.46429
507.96899	20318.32143
512.04106	20386.17857
516.11023	20472.17857
520.1765	20574.32143
524.23987	20604.46429
528.30034	20566.32143
532.35792	20566.03571
536.41261	20513.60714
540.46441	20407.46429
544.51333	20328.03571
548.55936	20290.03571
552.60252	20357.03571
556.64279	20475.03571
560.6802	20463.46429
564.71473	20478.17857
568.7464	20488.32143
572.7752	20571.75
576.80114	20541.75
580.82422	20536.46429
584.84444	20661.03571
588.86181	20747.32143
592.87633	20984.75
596.888	21155.89286
600.89682	21408.60714
604.9028	22103.46429
608.90594	23942.32143
612.90624	26035.32143
616.90371	25251.46429
620.89834	22393.89286
624.89015	21203.32143
628.87913	21107.46429
632.86528	21135.46429
636.84862	21089.89286
640.82913	20959.17857
644.80683	20708.75
648.78172	20460.32143
652.75379	20435.17857
656.72306	20637.89286
660.68952	20898.60714
664.65319	20917.32143
668.61405	20785.89286
672.57211	20792.03571
676.52738	20995.60714
680.47986	21037.60714
684.42955	20971.03571
688.37646	20800.46429
692.32058	20824.46429
696.26192	20824.89286
700.20048	20824.32143
704.13626	20906.32143
708.06928	20798.17857
711.99952	20705.03571
715.927	20655.17857
719.85171	20648.03571
723.77365	20678.60714
727.69284	20662.17857
731.60928	20704.17857
735.52295	20683.60714
739.43388	20668.17857
743.34206	20729.89286
747.24749	20697.32143
751.15017	20669.89286
755.05012	20680.32143
758.94733	20868.17857
762.8418	21355.32143
766.73354	22280.46429
770.62254	23470.17857
774.50882	24190.46429
778.39237	23934.03571
782.27321	22762.89286
786.15132	21684.89286
790.02671	20953.46429
793.89938	20604.60714
797.76935	20455.89286
801.6366	20413.46429
805.50115	20374.46429
809.36299	20339.32143
813.22213	20224.32143
817.07857	20206.89286
820.93231	20153.89286
824.78336	20131.03571
828.63172	20176.75
832.47738	20180.03571
836.32036	20199.60714
840.16066	20253.32143
843.99827	20341.89286
847.8332	20316.32143
851.66546	20228.89286
855.49504	20261.60714
859.32195	20368.89286
863.1462	20359.46429
866.96777	20359.03571
870.78668	20373.03571
874.60293	20384.17857
878.41652	20429.17857
882.22745	20451.03571
886.03573	20452.03571
889.84136	20477.75
893.64433	20379.75
897.44466	20290.32143
901.24235	20213.03571
905.0374	20129.17857
908.8298	20004.03571
912.61957	19968.46429
916.40671	20034.75
920.19121	20100.17857
923.97308	20202.75
927.75233	20333.75
931.52895	20350.32143
935.30295	20340.46429
939.07433	20144.75
942.84309	19943.60714
946.60924	19880.17857
950.37278	19818.03571
954.13371	19718.46429
957.89203	19642.60714
961.64774	19536.60714
965.40086	19435.03571
969.15137	19396.60714
972.89929	19375.89286
976.64461	19362.03571
980.38733	19385.03571
984.12747	19476.17857
987.86502	19544.60714
991.59999	19721.60714
995.33237	19987.89286
999.06217	20311.46429
1002.78939	20647.03571
1006.51404	20812.46429
1010.23611	20745.46429
1013.95561	20840.03571
1017.67255	20877.17857
1021.38692	20823.03571
1025.09872	20783.60714
1028.80796	20941.32143
1032.51465	21361.17857
1036.21877	21826.03571
1039.92035	21899.46429
1043.61937	21658.89286
1047.31584	21305.60714
1051.00976	20956.03571
1054.70114	20733.75
1058.38998	20683.89286
1062.07627	20671.60714
1065.76003	20614.17857
1069.44126	20557.03571
1073.11995	20586.60714
1076.79611	20686.17857
1080.46974	20797.75
1084.14085	20922.03571
1087.80943	21001.75
1091.47549	21039.32143
1095.13903	20936.75
1098.80005	20821.46429
1102.45857	20693.17857
1106.11456	20626.32143
1109.76805	20667.89286
1113.41903	20734.89286
1117.06751	20880.60714
1120.71348	21006.32143
1124.35696	21222.75
1127.99793	21436.89286
1131.63641	21547.32143
1135.2724	21480.89286
1138.90589	21287.03571
1142.5369	20969.17857
1146.16542	20723.60714
1149.79145	20585.75
1153.415	20400.46429
1157.03607	20391.17857
1160.65467	20563.03571
1164.27079	20844.46429
1167.88443	21371.17857
1171.49561	22031.46429
1175.10432	22885.75
1178.71056	24061.46429
1182.31434	25239.60714
1185.91565	25875.32143
1189.51451	25802.32143
1193.11091	25075.03571
1196.70485	24163.03571
1200.29634	23363.60714
1203.88538	22841.46429
1207.47197	22289.17857
1211.05612	21824.60714
1214.63782	21553.32143
1218.21708	21535.60714
1221.79391	21608.32143
1225.36829	21754.32143
1228.94024	21711.89286
1232.50976	21506.17857
1236.07685	21279.89286
1239.6415	21195.32143
1243.20374	21291.32143
1246.76355	21401.75
1250.32093	21573.03571
1253.8759	21821.17857
1257.42845	22180.75
1260.97859	22487.46429
1264.52631	22794.32143
1268.07163	23169.17857
1271.61453	23609.46429
1275.15503	23994.46429
1278.69312	24446.89286
1282.22882	24675.60714
1285.76211	24840.03571
1289.29301	24964.32143
1292.82151	25131.60714
1296.34761	25521.46429
1299.87133	26226.17857
1303.39266	27251.17857
1306.9116	28632.75
1310.42815	30173.46429
1313.94233	30978.60714
1317.45412	30580.60714
1320.96354	29428.46429
1324.47058	28142.46429
1327.97525	26970.75
1331.47754	26155.17857
1334.97747	25734.89286
1338.47502	25633.17857
1341.97022	25854.03571
1345.46305	26351.46429
1348.95352	26974.75
1352.44163	27912.89286
1355.92738	29296.46429
1359.41078	30876.46429
1362.89183	32214.17857
1366.37053	31513.17857
1369.84688	28975.89286
1373.32088	26252.32143
1376.79254	24445.89286
1380.26186	23523.46429
1383.72883	23067.32143
1387.19347	22699.75
1390.65578	22234.46429
1394.11575	21879.17857
1397.57339	21717.32143
1401.0287	21755.75
1404.48168	21815.32143
1407.93234	21796.32143
1411.38068	21770.32143
1414.82669	21781.46429
1418.27039	21703.17857
1421.71177	21555.60714
1425.15083	21421.46429
1428.58758	21291.03571
1432.02203	21327.17857
1435.45416	21455.32143
1438.88399	21602.60714
1442.31151	21640.17857
1445.73673	21694.46429
1449.15965	21771.32143
1452.58027	21857.46429
1455.9986	21807.03571
1459.41463	21917.60714
1462.82837	22069.46429
1466.23982	22360.75
1469.64898	22654.46429
1473.05586	22881.17857
1476.46045	22965.17857
1479.86276	23069.32143
1483.26279	23070.03571
1486.66054	23124.17857
1490.05602	23279.17857
1493.44922	23511.46429
1496.84016	23933.46429
1500.22882	24590.89286
1503.61521	25607.75
1506.99934	26844.60714
1510.38121	27859.89286
1513.76081	28069.03571
1517.13816	27294.32143
1520.51324	25960.46429
1523.88607	24678.60714
1527.25665	23737.46429
1530.62498	23214.03571
1533.99105	22871.46429
1537.35488	22716.75
1540.71647	22573.75
1544.07581	22572.46429
1547.4329	22543.60714
1550.78776	22522.75
1554.14038	22547.17857
1557.49077	22541.17857
1560.83892	22608.89286
1564.18484	22736.32143
1567.52853	22925.03571
1570.86999	23047.60714
1574.20922	23104.75
1577.54624	23176.75
1580.88103	22811.60714
1584.2136	22398.89286
1587.54395	22269.89286
1590.87208	22582.75
1594.19801	23331.32143
1597.52172	24368.60714
1600.84321	24883.89286
1604.16251	24462.32143
1607.47959	23545.17857
1610.79447	22543.17857
1614.10715	21646.32143
1617.41763	20920.17857
1620.7259	20447.60714
1624.03199	20181.60714
1627.33587	20164.03571
1630.63757	20382.03571
1633.93707	20817.60714
1637.23439	21482.46429
1640.52951	22361.89286
1643.82246	23535.60714
1647.11321	24621.60714
1650.40179	25132.89286
1653.68819	24449.32143
1656.97241	22859.46429
1660.25446	21179.32143
1663.53433	20051.17857
1666.81203	19325.46429
1670.08756	18844.89286
1673.36092	18563.03571
1676.63211	18401.46429
1679.90115	18218.03571
1683.16801	18131.89286
1686.43272	18011.03571
1689.69527	17915.46429
1692.95567	17874.60714
1696.2139	17816.46429
1699.46999	17796.17857
1702.72392	17758.89286
1705.97571	17768.46429
1709.22535	17739.60714
1712.47284	17735.03571
1715.71819	17692.46429
1718.96139	17737.60714
1722.20246	17643.46429
1725.44139	17604.17857
1728.67818	17562.89286
1731.91284	17538.75
1735.14537	17457.46429
1738.37576	17441.75
1741.60403	17382.60714
1744.83017	17365.46429
1748.05418	17359.46429
1751.27607	17358.03571
1754.49584	17302.32143
1757.71349	17317.75
1760.92903	17364.17857
1764.14244	17263.46429
1767.35375	17277.75
1770.56294	17219.60714
1773.77002	17157.17857
1776.97499	17101.89286
1780.17785	17110.75
1783.37861	17100.75
1786.57727	17077.75
1789.77382	17020.03571
1792.96828	16991.17857
1796.16064	16991.03571
1799.3509	16931.17857
1802.53907	16890.32143
1805.72514	16884.17857
1808.90913	16853.32143
1812.09102	16860.60714
1815.27083	16830.89286
1818.44856	16802.89286
1821.6242	16783.03571
1824.79776	16760.89286
1827.96924	16725.89286
1831.13864	16664.75
1834.30597	16689.03571
1837.47122	16695.46429
1840.6344	16679.89286
1843.7955	16656.32143
1846.95454	16654.03571
1850.11151	16638.60714
1853.26642	16633.60714
1856.41926	16614.75
1859.57004	16598.75
1862.71876	16576.89286
1865.86542	16598.75
1869.01003	16606.32143
1872.15258	16563.75
1875.29308	16566.89286
1878.43152	16482.17857
1881.56792	16502.46429
1884.70227	16513.03571
1887.83457	16492.46429
1890.96482	16525.75
1894.09304	16462.75
1897.21921	16463.75
1900.34335	16463.46429
1903.46544	16442.89286
1906.58551	16431.17857
1909.70353	16391.46429
1912.81953	16379.17857
1915.93349	16362.60714
1919.04543	16344.03571
1922.15534	16323.89286
1925.26322	16323.89286
1928.36908	16242.32143
1931.47292	16229.75
1934.57473	16221.89286
1937.67453	16194.89286
1940.77232	16185.32143
1943.86808	16161.17857
1946.96184	16070.03571
1950.05358	16054.03571
1953.14331	16000.03571
1956.23103	15972.89286
1959.31675	15965.75
1962.40046	15905.17857
1965.48217	15851.32143
1968.56188	15806.75
1971.63959	15797.46429
1974.7153	15725.03571
1977.78901	15718.75
1980.86073	15658.03571
1983.93046	15615.32143
1986.99819	15560.75
1990.06394	15500.17857
1993.1277	15480.75
1996.18947	15415.60714
1999.24925	15389.32143
2002.30706	15337.32143
2005.36288	15281.03571
2008.41672	15254.60714
2011.46859	15231.89286
2014.51848	15234.32143
2017.56639	15128.32143
2020.61233	15101.46429
2023.6563	15097.75
2026.6983	15017.75
2029.73833	15023.03571
2032.7764	14980.89286
2035.8125	14961.32143
2038.84664	14908.03571
2041.87881	14921.32143
2044.90903	14874.75
2047.93729	14876.32143
2050.96359	14848.89286
2053.98794	14836.32143
2057.01034	14840.46429
2060.03078	14820.46429
2063.04927	14807.60714
2066.06582	14786.75
2069.08042	14806.75
2072.09307	14817.75
2075.10378	14811.75
2078.11255	14735.03571
2081.11938	14784.32143
2084.12426	14768.46429
2087.12722	14769.60714
2090.12824	14767.03571
2093.12732	14742.03571
2096.12447	14769.75
2099.11969	14752.60714
2102.11299	14749.03571
2105.10435	14782.46429
2108.09379	14797.03571
2111.08131	14815.60714
2114.0669	14791.32143
2117.05057	14820.03571
2120.03233	14841.60714
2123.01216	14874.89286
2125.99008	14879.32143
2128.96609	14914.60714
2131.94018	14932.75
2134.91236	14942.32143
2137.88263	14933.75
2140.851	14943.03571
2143.81746	14952.03571
2146.78201	14962.17857
2149.74466	14970.17857
2152.7054	14997.46429
2155.66425	15000.32143
2158.6212	14955.32143
2161.57625	14961.60714
2164.52941	14984.17857
2167.48067	14977.17857
2170.43004	14982.89286
2173.37752	14942.03571
2176.32311	14980.32143
2179.26681	14971.17857
2182.20863	14979.46429
2185.14856	14999.89286
2188.08661	14997.75
2191.02278	15000.89286
2193.95707	14964.03571
2196.88948	14966.60714
2199.82001	14939.60714
2202.74867	14928.60714
2205.67545	14922.46429
2208.60037	14940.03571
2211.52341	14921.89286
2214.44458	14900.17857
2217.36388	14902.32143
2220.28132	14900.17857
2223.1969	14861.75
2226.11061	14811.75
2229.02246	14798.60714
2231.93245	14755.75
2234.84058	14691.32143
2237.74686	14688.46429
2240.65128	14687.60714
2243.55385	14678.46429
2246.45456	14679.46429
2249.35343	14681.17857
2252.25044	14684.17857
2255.14561	14616.89286
2258.03893	14623.89286
2260.93041	14576.89286
2263.82004	14553.75
2266.70783	14524.75
2269.59378	14501.03571
2272.4779	14497.60714
2275.36017	14460.03571
2278.24061	14397.89286
2281.11922	14370.75
2283.996	14415.46429
2286.87094	14402.89286
2289.74405	14350.17857
2292.61534	14362.32143
2295.4848	14352.75
2298.35243	14320.32143
2301.21824	14332.03571
2304.08223	14347.46429
2306.94439	14309.75
2309.80474	14324.17857
2312.66327	14381.03571
2315.51999	14375.32143
2318.37489	14326.32143
2321.22797	14318.46429
2324.07925	14298.89286
2326.92871	14264.46429
2329.77637	14231.89286
2332.62222	14236.32143
2335.46626	14200.03571
2338.3085	14213.89286
2341.14893	14218.75
2343.98756	14224.60714
2346.8244	14195.32143
2349.65943	14204.46429
2352.49267	14179.89286
2355.32411	14197.17857
2358.15376	14152.89286
2360.98161	14150.89286
2363.80768	14142.75
2366.63195	14147.89286
2369.45444	14091.46429
2372.27514	14112.89286
2375.09405	14064.17857
2377.91118	14042.03571
2380.72652	14016.60714
2383.54009	13985.03571
2386.35187	14015.89286
2389.16188	13940.46429
2391.97011	13920.46429
2394.77657	13879.17857
2397.58125	13887.89286
2400.38416	13893.46429
2403.18529	13871.32143
2405.98466	13835.75
2408.78226	13821.60714
2411.57809	13784.46429
2414.37216	13780.03571
2417.16446	13755.60714
2419.955	13761.46429
2422.74378	13734.89286
2425.5308	13697.89286
2428.31606	13702.75
2431.09956	13674.89286
2433.88131	13654.46429
2436.6613	13691.89286
2439.43954	13664.17857
2442.21603	13649.46429
2444.99077	13645.32143
2447.76377	13639.32143
2450.53501	13637.17857
2453.30451	13656.89286
2456.07226	13619.75
2458.83827	13607.60714
2461.60254	13609.03571
2464.36507	13583.32143
2467.12586	13572.17857
2469.88492	13553.60714
2472.64224	13510.32143
2475.39782	13540.75
2478.15167	13570.46429
2480.90379	13550.03571
2483.65417	13587.32143
2486.40283	13617.32143
2489.14976	13640.32143
2491.89497	13584.17857
2494.63845	13581.03571
2497.3802	13587.60714
2500.12024	13629.75
2502.85855	13585.60714
2505.59514	13542.46429
2508.33002	13541.89286
2511.06318	13505.75
2513.79462	13505.89286
2516.52435	13474.17857
2519.25237	13485.75
2521.97867	13436.17857
2524.70327	13421.89286
2527.42616	13399.03571
2530.14734	13433.32143
2532.86681	13370.89286
2535.58458	13397.17857
2538.30065	13398.46429
2541.01501	13418.89286
2543.72768	13391.46429
2546.43864	13346.32143
2549.14791	13316.03571
2551.85548	13304.32143
2554.56136	13307.03571
2557.26554	13308.03571
2559.96803	13265.32143
2562.66883	13267.89286
2565.36794	13242.17857
2568.06536	13201.32143
2570.7611	13176.75
2573.45514	13147.03571
2576.14751	13168.03571
2578.83819	13118.46429
2581.52719	13161.46429
2584.21451	13142.17857
2586.90015	13115.75
2589.58411	13088.46429
2592.2664	13054.89286
2594.94701	13047.46429
2597.62594	13082.60714
2600.30321	13001.32143
2602.9788	13024.75
2605.65273	12997.89286
2608.32498	12985.46429
2610.99557	12945.17857
2613.66449	12989.32143
2616.33175	12954.75
2618.99734	12958.60714
2621.66128	12944.75
2624.32355	12915.32143
2626.98416	12935.46429
2629.64311	12891.75
2632.30041	12914.89286
2634.95605	12893.60714
2637.61004	12880.32143
2640.26238	12860.03571
2642.91306	12870.75
2645.56209	12839.89286
2648.20948	12826.75
2650.85521	12837.03571
2653.4993	12819.60714
2656.14175	12815.46429
2658.78255	12825.75
2661.42171	12827.89286
2664.05923	12837.32143
2666.6951	12824.32143
2669.32934	12820.46429
2671.96194	12828.03571
2674.59291	12829.75
2677.22224	12810.46429
2679.84993	12795.17857
2682.476	12782.75
2685.10043	12823.60714
2687.72324	12797.17857
2690.34441	12787.17857
2692.96396	12786.75
2695.58188	12792.32143
2698.19818	12759.89286
2700.81285	12794.17857
2703.4259	12759.17857
2706.03733	12788.46429
2708.64714	12788.17857
2711.25533	12802.03571
2713.86191	12764.75
2716.46687	12789.75
2719.07021	12803.03571
2721.67194	12805.46429
2724.27206	12810.89286
2726.87057	12814.89286
2729.46747	12802.89286
2732.06276	12766.89286
2734.65644	12801.75
2737.24852	12776.03571
2739.83899	12758.03571
2742.42786	12764.46429
2745.01513	12758.89286
2747.60079	12739.17857
2750.18486	12734.46429
2752.76733	12728.32143
2755.3482	12685.46429
2757.92747	12710.46429
2760.50515	12682.60714
2763.08123	12687.03571
2765.65573	12663.17857
2768.22863	12666.32143
2770.79994	12662.89286
2773.36967	12628.17857
2775.9378	12633.32143
2778.50435	12624.75
2781.06932	12616.46429
2783.6327	12599.75
2786.1945	12596.17857
2788.75471	12574.89286
2791.31335	12521.17857
2793.87041	12541.17857
2796.42589	12513.89286
2798.97979	12506.32143
2801.53212	12444.75
2804.08288	12468.46429
2806.63206	12470.46429
2809.17967	12392.17857
2811.72571	12401.89286
2814.27018	12407.03571
2816.81308	12377.32143
2819.35442	12379.17857
2821.89419	12326.32143
2824.43239	12287.46429
2826.96904	12314.75
2829.50412	12301.03571
2832.03763	12281.46429
2834.56959	12314.89286
2837.1	12280.89286
2839.62884	12295.32143
2842.15613	12247.32143
2844.68186	12270.32143
2847.20604	12259.03571
2849.72867	12248.17857
2852.24974	12260.89286
2854.76927	12246.89286
2857.28724	12216.17857
2859.80367	12208.03571
2862.31855	12177.03571
2864.83189	12185.89286
2867.34368	12168.32143
2869.85393	12168.60714
2872.36264	12168.17857
2874.8698	12117.17857
2877.37543	12151.46429
2879.87952	12139.32143
2882.38207	12145.60714
2884.88308	12120.46429
2887.38256	12120.89286
2889.88051	12154.03571
2892.37692	12150.17857
2894.8718	12178.03571
2897.36515	12164.32143
2899.85698	12215.89286
2902.34727	12214.32143
2904.83604	12247.03571
2907.32328	12247.32143
2909.809	12249.89286
2912.29319	12279.46429
2914.77587	12259.75
2917.25702	12269.75
2919.73665	12243.17857
2922.21476	12284.89286
2924.69136	12252.17857
2927.16644	12260.89286
2929.64	12247.89286
2932.11205	12267.46429
2934.58258	12217.32143
2937.05161	12224.32143
2939.51912	12242.17857
2941.98513	12213.17857
2944.44962	12235.17857
2946.91261	12203.75
2949.37409	12224.75
2951.83407	12228.89286
2954.29254	12187.75
2956.74951	12203.60714
2959.20498	12218.46429
2961.65895	12175.32143
2964.11142	12205.46429
2966.56239	12145.03571
2969.01186	12162.60714
