Data from AgNPs_FTO_APTES_UA_20uM_CRN_5uM_R6G_10uM_NaF_0.1M_Addition_RamanShift__27__14-03-22-170.txt Node

Date: Thu Feb 17 14:03:22 GMT 2022
User: TCL
Spectrometer: QEP01345
Trigger mode: 4
Integration Time (sec): 7.000000E0
Scans to average: 10
Electric dark correction enabled: true
Nonlinearity correction enabled: false
Boxcar width: 0
XAxis mode: Raman Shifts
Number of Pixels in Spectrum: 1044
>>>>>Begin Spectral Data<<<<<
46.04893	-1.4125
50.45542	-0.2125
54.85868	-3.6125
59.25871	-0.3125
63.6555	112.9875
68.04907	116.5875
72.43941	122.9875
76.82654	125.5875
81.21044	130.9875
85.59113	131.8875
89.96862	135.8875
94.34289	142.6875
98.71396	144.0875
103.08183	152.0875
107.4465	152.8875
111.80798	156.8875
116.16626	162.8875
120.52136	171.0875
124.87327	177.3875
129.222	190.9875
133.56755	205.8875
137.90993	218.0875
142.24913	242.2875
146.58517	274.9875
150.91804	321.2875
155.24774	387.8875
159.57429	480.1875
163.89768	627.6875
168.21792	838.7875
172.53501	1154.4875
176.84895	1607.8875
181.15975	2276.7875
185.46741	3188.5875
189.77193	4434.1875
194.07331	5939.7875
198.37157	7689.2875
202.6667	9511.2875
206.9587	11340.5875
211.24758	13140.4875
215.53334	14957.8875
219.81599	16907.5875
224.09553	19025.1875
228.37195	21441.0875
232.64527	24049.9875
236.91549	26859.0875
241.18261	29648.1875
245.44663	32206.7875
249.70755	34544.8875
253.96539	36610.4875
258.22014	38372.5875
262.4718	39812.5875
266.72039	40848.7875
270.96589	41554.0875
275.20832	41754.6875
279.44768	41581.8875
283.68397	41227.2875
287.91719	40912.8875
292.14735	40795.5875
296.37445	40920.6875
300.59849	41250.8875
304.81948	41682.6875
309.03742	41748.4875
313.25231	41424.5875
317.46415	40391.2875
321.67296	39080.9875
325.87872	38001.7875
330.08145	37549.9875
334.28114	37590.5875
338.47781	38006.5875
342.67145	38674.0875
346.86207	39558.7875
351.04966	40655.8875
355.23424	41889.7875
359.4158	42898.6875
363.59435	43565.3875
367.76989	43946.1875
371.94243	44269.6875
376.11196	44453.1875
380.27849	44676.5875
384.44203	44792.7875
388.60257	44890.3875
392.76012	45066.0875
396.91468	45411.3875
401.06626	46226.5875
405.21485	46842.0875
409.36047	46669.5875
413.50311	45862.1875
417.64277	45117.2875
421.77947	44718.8875
425.9132	44844.9875
430.04396	45156.2875
434.17176	45521.1875
438.2966	46103.0875
442.41849	46948.2875
446.53742	48153.5875
450.6534	49490.7875
454.76644	50575.8875
458.87653	51053.2875
462.98368	50848.9875
467.08789	50183.9875
471.18916	49416.9875
475.2875	48578.9875
479.38291	48065.3875
483.4754	47575.9875
487.56496	47001.9875
491.6516	46376.6875
495.73531	45879.3875
499.81612	45586.9875
503.89401	45796.7875
507.96899	45936.7875
512.04106	45938.3875
516.11023	46040.8875
520.1765	46067.0875
524.23987	46009.7875
528.30034	45678.7875
532.35792	45258.5875
536.41261	44850.2875
540.46441	44454.6875
544.51333	44454.3875
548.55936	44873.3875
552.60252	45739.8875
556.64279	46683.5875
560.6802	47284.6875
564.71473	47556.3875
568.7464	48341.3875
572.7752	49240.0875
576.80114	49281.3875
580.82422	49230.7875
584.84444	49367.6875
588.86181	49901.3875
592.87633	50587.9875
596.888	51091.7875
600.89682	51490.7875
604.9028	53953.4875
608.90594	60458.4875
612.90624	67661.4875
616.90371	64404.8875
620.89834	53289.8875
624.89015	48390.7875
628.87913	47619.8875
632.86528	47545.5875
636.84862	47261.0875
640.82913	46577.0875
644.80683	45391.1875
648.78172	44569.7875
652.75379	44584.6875
656.72306	45407.1875
660.68952	46507.1875
664.65319	46374.1875
668.61405	45440.2875
672.57211	45084.5875
676.52738	45008.6875
680.47986	45085.1875
684.42955	44952.7875
688.37646	45000.6875
692.32058	45260.6875
696.26192	45620.7875
700.20048	46116.9875
704.13626	46455.6875
708.06928	46375.4875
711.99952	46028.6875
715.927	45956.0875
719.85171	45997.5875
723.77365	45902.1875
727.69284	45605.7875
731.60928	45284.2875
735.52295	45302.5875
739.43388	45458.5875
743.34206	45690.2875
747.24749	46023.2875
751.15017	46408.8875
755.05012	47141.9875
758.94733	48477.0875
762.8418	51066.1875
766.73354	55196.8875
770.62254	59320.0875
774.50882	60699.8875
778.39237	58080.9875
782.27321	53338.2875
786.15132	49385.7875
790.02671	47166.0875
793.89938	46167.6875
797.76935	45778.5875
801.6366	45568.1875
805.50115	45461.7875
809.36299	45311.4875
813.22213	45179.6875
817.07857	45160.5875
820.93231	45180.4875
824.78336	45226.5875
828.63172	45308.1875
832.47738	45369.0875
836.32036	45495.0875
840.16066	45609.9875
843.99827	45735.0875
847.8332	45656.5875
851.66546	45518.1875
855.49504	45349.7875
859.32195	45338.5875
863.1462	45153.9875
866.96777	45114.5875
870.78668	45055.3875
874.60293	45018.0875
878.41652	45152.0875
882.22745	45267.5875
886.03573	45389.5875
889.84136	45309.6875
893.64433	45083.5875
897.44466	44977.4875
901.24235	44934.4875
905.0374	44888.6875
908.8298	44888.8875
912.61957	44960.1875
916.40671	45337.1875
920.19121	45842.0875
923.97308	46339.6875
927.75233	46587.3875
931.52895	46517.7875
935.30295	46053.2875
939.07433	45322.1875
942.84309	44811.4875
946.60924	44586.3875
950.37278	44404.7875
954.13371	44203.4875
957.89203	44001.4875
961.64774	43891.3875
965.40086	43755.1875
969.15137	43569.4875
972.89929	43435.7875
976.64461	43412.9875
980.38733	43386.0875
984.12747	43589.8875
987.86502	43946.2875
991.59999	44422.4875
995.33237	45297.2875
999.06217	46719.9875
1002.78939	48446.8875
1006.51404	49629.6875
1010.23611	50250.6875
1013.95561	50584.3875
1017.67255	50713.4875
1021.38692	50280.9875
1025.09872	50048.3875
1028.80796	50662.1875
1032.51465	52222.6875
1036.21877	53480.2875
1039.92035	53555.1875
1043.61937	52723.1875
1047.31584	51243.4875
1051.00976	49680.4875
1054.70114	48775.0875
1058.38998	48547.1875
1062.07627	48593.8875
1065.76003	48697.7875
1069.44126	48892.1875
1073.11995	49159.9875
1076.79611	49478.0875
1080.46974	49824.4875
1084.14085	50340.6875
1087.80943	50905.3875
1091.47549	51102.2875
1095.13903	50689.8875
1098.80005	49942.7875
1102.45857	49211.5875
1106.11456	48826.3875
1109.76805	48960.0875
1113.41903	49439.4875
1117.06751	50118.2875
1120.71348	50828.7875
1124.35696	51502.4875
1127.99793	52001.3875
1131.63641	51906.1875
1135.2724	51284.0875
1138.90589	50523.9875
1142.5369	50156.9875
1146.16542	49852.5875
1149.79145	49912.9875
1153.415	50257.4875
1157.03607	50854.8875
1160.65467	51719.4875
1164.27079	53024.8875
1167.88443	55158.0875
1171.49561	58181.2875
1175.10432	62460.5875
1178.71056	68039.7875
1182.31434	73147.5875
1185.91565	75586.2875
1189.51451	75061.7875
1193.11091	72100.9875
1196.70485	68590.3875
1200.29634	65674.4875
1203.88538	63440.8875
1207.47197	61580.4875
1211.05612	60004.5875
1214.63782	59093.1875
1218.21708	58968.0875
1221.79391	59253.3875
1225.36829	59329.1875
1228.94024	58720.5875
1232.50976	57776.8875
1236.07685	57153.8875
1239.6415	57082.6875
1243.20374	57314.1875
1246.76355	57789.6875
1250.32093	58643.4875
1253.8759	59974.0875
1257.42845	61503.4875
1260.97859	62813.9875
1264.52631	63897.5875
1268.07163	65018.6875
1271.61453	66426.0875
1275.15503	67956.4875
1278.69312	69652.8875
1282.22882	70954.9875
1285.76211	72255.0875
1289.29301	73703.7875
1292.82151	75415.4875
1296.34761	77870.4875
1299.87133	81139.9875
1303.39266	85942.1875
1306.9116	92017.6875
1310.42815	98294.7875
1313.94233	102013.2875
1317.45412	101567.5875
1320.96354	98566.8875
1324.47058	95026.8875
1327.97525	91777.6875
1331.47754	89709.6875
1334.97747	89434.0875
1338.47502	90576.3875
1341.97022	91852.5875
1345.46305	92480.0875
1348.95352	92285.3875
1352.44163	92267.0875
1355.92738	94515.6875
1359.41078	100009.5875
1362.89183	105206.1875
1366.37053	102847.8875
1369.84688	92949.6875
1373.32088	82612.1875
1376.79254	75830.7875
1380.26186	72573.2875
1383.72883	71252.8875
1387.19347	70590.8875
1390.65578	70083.7875
1394.11575	69954.6875
1397.57339	70684.1875
1401.0287	72074.6875
1404.48168	73694.8875
1407.93234	75124.6875
1411.38068	76127.9875
1414.82669	75836.9875
1418.27039	73969.8875
1421.71177	71212.4875
1425.15083	68642.1875
1428.58758	67195.4875
1432.02203	67080.9875
1435.45416	67731.7875
1438.88399	68427.9875
1442.31151	69262.0875
1445.73673	70067.7875
1449.15965	70863.8875
1452.58027	71291.6875
1455.9986	71179.3875
1459.41463	71229.2875
1462.82837	71886.5875
1466.23982	73067.7875
1469.64898	74520.9875
1473.05586	75506.3875
1476.46045	76102.3875
1479.86276	76422.2875
1483.26279	76839.0875
1486.66054	77359.4875
1490.05602	78332.7875
1493.44922	79504.3875
1496.84016	80576.7875
1500.22882	82208.7875
1503.61521	85024.5875
1506.99934	88944.6875
1510.38121	92430.7875
1513.76081	93331.5875
1517.13816	90528.1875
1520.51324	85529.2875
1523.88607	80904.2875
1527.25665	77859.1875
1530.62498	76372.3875
1533.99105	75471.0875
1537.35488	74824.2875
1540.71647	74462.7875
1544.07581	73964.9875
1547.4329	73180.2875
1550.78776	72367.0875
1554.14038	71720.5875
1557.49077	71389.7875
1560.83892	71370.7875
1564.18484	71419.1875
1567.52853	71477.9875
1570.86999	71509.2875
1574.20922	71677.6875
1577.54624	71688.2875
1580.88103	70847.2875
1584.2136	70240.3875
1587.54395	71236.5875
1590.87208	74496.2875
1594.19801	79423.6875
1597.52172	84860.2875
1600.84321	87192.6875
1604.16251	84619.6875
1607.47959	79167.9875
1610.79447	72873.8875
1614.10715	67263.4875
1617.41763	62855.4875
1620.7259	59950.8875
1624.03199	58571.7875
1627.33587	58582.9875
1630.63757	59968.6875
1633.93707	62737.0875
1637.23439	66740.5875
1640.52951	71998.5875
1643.82246	77700.8875
1647.11321	82690.0875
1650.40179	84055.1875
1653.68819	80005.6875
1656.97241	71704.4875
1660.25446	63113.5875
1663.53433	56978.1875
1666.81203	53044.9875
1670.08756	50612.1875
1673.36092	49074.7875
1676.63211	47992.7875
1679.90115	47232.6875
1683.16801	46616.5875
1686.43272	46270.7875
1689.69527	45937.8875
1692.95567	45713.0875
1696.2139	45583.1875
1699.46999	45530.9875
1702.72392	45433.0875
1705.97571	45417.0875
1709.22535	45242.4875
1712.47284	45307.0875
1715.71819	45313.5875
1718.96139	45275.8875
1722.20246	45104.7875
1725.44139	44956.8875
1728.67818	44819.2875
1731.91284	44561.3875
1735.14537	44377.0875
1738.37576	44235.4875
1741.60403	44165.9875
1744.83017	44002.2875
1748.05418	43848.8875
1751.27607	43807.8875
1754.49584	43766.7875
1757.71349	43786.6875
1760.92903	43827.5875
1764.14244	43721.8875
1767.35375	43706.9875
1770.56294	43663.2875
1773.77002	43631.2875
1776.97499	43628.5875
1780.17785	43508.9875
1783.37861	43448.4875
1786.57727	43443.7875
1789.77382	43407.4875
1792.96828	43412.8875
1796.16064	43364.6875
1799.3509	43338.8875
1802.53907	43271.1875
1805.72514	43198.2875
1808.90913	43089.6875
1812.09102	43025.1875
1815.27083	43018.1875
1818.44856	42900.1875
1821.6242	42796.8875
1824.79776	42801.2875
1827.96924	42789.1875
1831.13864	42762.0875
1834.30597	42779.5875
1837.47122	42815.0875
1840.6344	42691.7875
1843.7955	42678.6875
1846.95454	42730.1875
1850.11151	42748.1875
1853.26642	42724.5875
1856.41926	42689.7875
1859.57004	42689.1875
1862.71876	42669.3875
1865.86542	42686.0875
1869.01003	42635.4875
1872.15258	42653.7875
1875.29308	42618.9875
1878.43152	42652.7875
1881.56792	42654.3875
1884.70227	42710.9875
1887.83457	42669.3875
1890.96482	42679.0875
1894.09304	42563.0875
1897.21921	42631.8875
1900.34335	42529.0875
1903.46544	42518.5875
1906.58551	42575.5875
1909.70353	42565.1875
1912.81953	42525.4875
1915.93349	42518.5875
1919.04543	42416.3875
1922.15534	42415.4875
1925.26322	42355.7875
1928.36908	42248.9875
1931.47292	42231.3875
1934.57473	42124.7875
1937.67453	41963.9875
1940.77232	41906.1875
1943.86808	41782.4875
1946.96184	41690.4875
1950.05358	41553.8875
1953.14331	41426.0875
1956.23103	41299.0875
1959.31675	41197.9875
1962.40046	41138.4875
1965.48217	40901.4875
1968.56188	40807.1875
1971.63959	40729.8875
1974.7153	40594.4875
1977.78901	40500.7875
1980.86073	40391.3875
1983.93046	40317.6875
1986.99819	40138.5875
1990.06394	40055.9875
1993.1277	40013.5875
1996.18947	39858.4875
1999.24925	39791.1875
2002.30706	39700.1875
2005.36288	39559.4875
2008.41672	39497.9875
2011.46859	39320.1875
2014.51848	39317.7875
2017.56639	39139.1875
2020.61233	39057.3875
2023.6563	38997.0875
2026.6983	38876.4875
2029.73833	38806.1875
2032.7764	38789.2875
2035.8125	38702.5875
2038.84664	38663.5875
2041.87881	38656.2875
2044.90903	38568.3875
2047.93729	38550.9875
2050.96359	38524.2875
2053.98794	38416.5875
2057.01034	38452.5875
2060.03078	38418.5875
2063.04927	38413.6875
2066.06582	38361.4875
2069.08042	38375.6875
2072.09307	38281.7875
2075.10378	38213.5875
2078.11255	38164.2875
2081.11938	38204.8875
2084.12426	38146.5875
2087.12722	38152.7875
2090.12824	38091.3875
2093.12732	38132.2875
2096.12447	38081.6875
2099.11969	38059.8875
2102.11299	38041.2875
2105.10435	38106.2875
2108.09379	38107.9875
2111.08131	38179.6875
2114.0669	38133.2875
2117.05057	38193.5875
2120.03233	38180.5875
2123.01216	38226.6875
2125.99008	38319.7875
2128.96609	38367.7875
2131.94018	38396.2875
2134.91236	38406.1875
2137.88263	38407.9875
2140.851	38407.2875
2143.81746	38499.4875
2146.78201	38518.2875
2149.74466	38559.8875
2152.7054	38554.8875
2155.66425	38535.3875
2158.6212	38503.8875
2161.57625	38478.3875
2164.52941	38480.2875
2167.48067	38431.5875
2170.43004	38421.5875
2173.37752	38446.1875
2176.32311	38507.8875
2179.26681	38501.8875
2182.20863	38470.0875
2185.14856	38547.3875
2188.08661	38500.0875
2191.02278	38495.9875
2193.95707	38505.4875
2196.88948	38472.6875
2199.82001	38471.4875
2202.74867	38458.2875
2205.67545	38501.9875
2208.60037	38410.8875
2211.52341	38433.7875
2214.44458	38462.4875
2217.36388	38371.0875
2220.28132	38344.9875
2223.1969	38260.2875
2226.11061	38154.9875
2229.02246	38062.9875
2231.93245	37979.0875
2234.84058	37917.0875
2237.74686	37875.5875
2240.65128	37859.1875
2243.55385	37787.4875
2246.45456	37804.2875
2249.35343	37766.2875
2252.25044	37750.2875
2255.14561	37684.3875
2258.03893	37636.4875
2260.93041	37555.7875
2263.82004	37481.1875
2266.70783	37387.6875
2269.59378	37281.7875
2272.4779	37263.2875
2275.36017	37144.8875
2278.24061	37102.9875
2281.11922	37047.0875
2283.996	36915.5875
2286.87094	36943.1875
2289.74405	36957.9875
2292.61534	36900.1875
2295.4848	36869.4875
2298.35243	36900.4875
2301.21824	36864.5875
2304.08223	36887.2875
2306.94439	36982.9875
2309.80474	37014.0875
2312.66327	37041.1875
2315.51999	36992.1875
2318.37489	36958.0875
2321.22797	36981.3875
2324.07925	36929.7875
2326.92871	36886.4875
2329.77637	36846.2875
2332.62222	36844.2875
2335.46626	36824.2875
2338.3085	36850.2875
2341.14893	36903.4875
2343.98756	36921.1875
2346.8244	36897.8875
2349.65943	36923.6875
2352.49267	36898.6875
2355.32411	36884.7875
2358.15376	36880.4875
2360.98161	36836.7875
2363.80768	36783.0875
2366.63195	36736.8875
2369.45444	36744.5875
2372.27514	36671.7875
2375.09405	36594.3875
2377.91118	36522.9875
2380.72652	36391.2875
2383.54009	36314.0875
2386.35187	36224.9875
2389.16188	36104.3875
2391.97011	36087.5875
2394.77657	36020.4875
2397.58125	35995.5875
2400.38416	35972.6875
2403.18529	35829.5875
2405.98466	35848.7875
2408.78226	35729.3875
2411.57809	35664.7875
2414.37216	35630.6875
2417.16446	35592.5875
2419.955	35524.7875
2422.74378	35513.9875
2425.5308	35464.9875
2428.31606	35440.9875
2431.09956	35506.7875
2433.88131	35450.9875
2436.6613	35466.7875
2439.43954	35422.4875
2442.21603	35387.6875
2444.99077	35368.8875
2447.76377	35334.1875
2450.53501	35296.2875
2453.30451	35342.6875
2456.07226	35284.5875
2458.83827	35291.5875
2461.60254	35268.2875
2464.36507	35265.8875
2467.12586	35269.4875
2469.88492	35300.0875
2472.64224	35309.7875
2475.39782	35253.5875
2478.15167	35339.9875
2480.90379	35394.4875
2483.65417	35423.2875
2486.40283	35449.2875
2489.14976	35475.2875
2491.89497	35410.9875
2494.63845	35504.5875
2497.3802	35451.0875
2500.12024	35450.8875
2502.85855	35449.2875
2505.59514	35389.2875
2508.33002	35327.9875
2511.06318	35286.2875
2513.79462	35258.1875
2516.52435	35210.5875
2519.25237	35184.4875
2521.97867	35182.2875
2524.70327	35163.7875
2527.42616	35098.7875
2530.14734	35109.0875
2532.86681	35073.7875
2535.58458	35109.2875
2538.30065	35038.4875
2541.01501	35048.2875
2543.72768	35061.3875
2546.43864	35027.4875
2549.14791	35020.6875
2551.85548	34913.0875
2554.56136	34875.3875
2557.26554	34814.2875
2559.96803	34776.3875
2562.66883	34725.3875
2565.36794	34721.9875
2568.06536	34677.7875
2570.7611	34638.6875
2573.45514	34607.2875
2576.14751	34606.0875
2578.83819	34580.4875
2581.52719	34609.4875
2584.21451	34538.6875
2586.90015	34530.7875
2589.58411	34472.8875
2592.2664	34501.2875
2594.94701	34508.3875
2597.62594	34535.2875
2600.30321	34495.8875
2602.9788	34547.8875
2605.65273	34474.8875
2608.32498	34527.3875
2610.99557	34469.3875
2613.66449	34535.6875
2616.33175	34516.5875
2618.99734	34441.1875
2621.66128	34453.2875
2624.32355	34531.7875
2626.98416	34537.8875
2629.64311	34496.9875
2632.30041	34507.6875
2634.95605	34531.6875
2637.61004	34411.4875
2640.26238	34420.5875
2642.91306	34343.4875
2645.56209	34240.8875
2648.20948	34236.9875
2650.85521	34211.3875
2653.4993	34187.4875
2656.14175	34155.6875
2658.78255	34236.0875
2661.42171	34256.7875
2664.05923	34353.8875
2666.6951	34333.8875
2669.32934	34342.7875
2671.96194	34374.6875
2674.59291	34408.6875
2677.22224	34456.6875
2679.84993	34524.0875
2682.476	34422.4875
2685.10043	34364.2875
2687.72324	34333.0875
2690.34441	34311.2875
2692.96396	34276.4875
2695.58188	34315.1875
2698.19818	34233.1875
2700.81285	34212.6875
2703.4259	34198.9875
2706.03733	34262.8875
2708.64714	34204.1875
2711.25533	34240.9875
2713.86191	34269.4875
2716.46687	34345.8875
2719.07021	34335.9875
2721.67194	34374.6875
2724.27206	34311.4875
2726.87057	34333.8875
2729.46747	34334.0875
2732.06276	34331.6875
2734.65644	34321.1875
2737.24852	34328.4875
2739.83899	34337.8875
2742.42786	34365.5875
2745.01513	34369.2875
2747.60079	34328.9875
2750.18486	34324.7875
2752.76733	34324.2875
2755.3482	34270.9875
2757.92747	34257.5875
2760.50515	34227.3875
2763.08123	34175.4875
2765.65573	34224.3875
2768.22863	34248.5875
2770.79994	34132.2875
2773.36967	34229.7875
2775.9378	34216.3875
2778.50435	34226.9875
2781.06932	34175.7875
2783.6327	34146.0875
2786.1945	34148.9875
2788.75471	34131.9875
2791.31335	34070.9875
2793.87041	34027.8875
2796.42589	33955.3875
2798.97979	33947.4875
2801.53212	33817.1875
2804.08288	33818.8875
2806.63206	33724.7875
2809.17967	33730.9875
2811.72571	33630.7875
2814.27018	33532.4875
2816.81308	33498.4875
2819.35442	33446.5875
2821.89419	33423.0875
2824.43239	33485.6875
2826.96904	33464.5875
2829.50412	33501.1875
2832.03763	33400.1875
2834.56959	33365.8875
2837.1	33295.6875
2839.62884	33297.6875
2842.15613	33226.9875
2844.68186	33271.7875
2847.20604	33177.2875
2849.72867	33172.6875
2852.24974	33106.2875
2854.76927	33079.6875
2857.28724	33092.0875
2859.80367	33122.6875
2862.31855	33043.3875
2864.83189	32976.2875
2867.34368	32926.4875
2869.85393	33025.6875
2872.36264	32942.3875
2874.8698	32888.5875
2877.37543	32929.2875
2879.87952	32895.5875
2882.38207	32870.9875
2884.88308	32907.7875
2887.38256	32893.0875
2889.88051	32892.4875
2892.37692	32917.6875
2894.8718	32924.0875
2897.36515	32967.9875
2899.85698	32995.6875
2902.34727	33031.9875
2904.83604	33013.5875
2907.32328	33095.8875
2909.809	33069.9875
2912.29319	33119.3875
2914.77587	33126.8875
2917.25702	33087.3875
2919.73665	33080.0875
2922.21476	33042.6875
2924.69136	32990.2875
2927.16644	32988.6875
2929.64	32892.6875
2932.11205	32848.3875
2934.58258	32810.5875
2937.05161	32888.3875
2939.51912	32901.4875
2941.98513	32858.2875
2944.44962	32821.1875
2946.91261	32721.0875
2949.37409	32825.2875
2951.83407	32798.9875
2954.29254	32750.4875
2956.74951	32736.4875
2959.20498	32750.8875
2961.65895	32710.8875
2964.11142	32722.0875
2966.56239	32703.1875
2969.01186	32640.5875
2971.45984	32527.5875
2973.90632	32494.1875
2976.35131	32408.7875
2978.7948	32422.6875
2981.23681	32369.3875
2983.67732	32208.5875
2986.11635	32197.7875
2988.55388	32170.6875
2990.98993	32083.4875
2993.4245	32035.8875
2995.85758	31983.1875
2998.28917	31911.8875
3000.71928	31908.0875
3003.14791	31765.3875
3005.57506	31753.2875
3008.00073	31671.6875
3010.42493	31674.7875
3012.84764	31549.7875
3015.26888	31521.3875
3017.68865	31469.9875
3020.10694	31445.7875
3022.52376	31337.2875
