Data from AgNPs_FTO_APTES_UA_20uM_CRN_20uM_R6G_10uM_NaF_0.1M_Addition_RamanShift__23__15-16-52-266.txt Node

Date: Thu Feb 17 15:16:52 GMT 2022
User: TCL
Spectrometer: QEP01345
Trigger mode: 4
Integration Time (sec): 7.000000E0
Scans to average: 10
Electric dark correction enabled: true
Nonlinearity correction enabled: false
Boxcar width: 0
XAxis mode: Raman Shifts
Number of Pixels in Spectrum: 1044
>>>>>Begin Spectral Data<<<<<
46.04893	-0.65
50.45542	-0.95
54.85868	-2.55
59.25871	-1.65
63.6555	98.75
68.04907	101.75
72.43941	107.65
76.82654	110.35
81.21044	112.95
85.59113	117.75
89.96862	116.65
94.34289	122.45
98.71396	128.65
103.08183	130.95
107.4465	136.15
111.80798	139.95
116.16626	140.15
120.52136	146.55
124.87327	155.85
129.222	163.05
133.56755	174.55
137.90993	182.35
142.24913	201.85
146.58517	226.45
150.91804	266.35
155.24774	315.25
159.57429	391.75
163.89768	500.85
168.21792	670.65
172.53501	919.85
176.84895	1289.65
181.15975	1834.15
185.46741	2586.75
189.77193	3570.45
194.07331	4809.55
198.37157	6222.25
202.6667	7699.95
206.9587	9192.25
211.24758	10643.95
215.53334	12084.65
219.81599	13556.95
224.09553	15177.75
228.37195	16997.25
232.64527	19045.15
236.91549	21244.05
241.18261	23505.75
245.44663	25688.85
249.70755	27646.45
253.96539	29428.35
258.22014	30932.85
262.4718	32108.65
266.72039	32930.35
270.96589	33396.05
275.20832	33492.15
279.44768	33269.85
283.68397	32872.15
287.91719	32510.45
292.14735	32191.65
296.37445	32002.05
300.59849	32085.25
304.81948	32138.85
309.03742	32176.45
313.25231	32021.45
317.46415	31600.65
321.67296	31142.25
325.87872	30787.95
330.08145	30614.65
334.28114	30713.75
338.47781	31055.75
342.67145	31455.45
346.86207	31945.95
351.04966	32528.55
355.23424	33204.75
359.4158	33845.45
363.59435	34365.25
367.76989	34787.45
371.94243	35063.15
376.11196	35332.25
380.27849	35602.15
384.44203	35840.35
388.60257	36010.05
392.76012	36231.35
396.91468	36520.45
401.06626	37000.25
405.21485	37361.55
409.36047	37417.45
413.50311	37151.85
417.64277	36788.65
421.77947	36663.55
425.9132	36676.65
430.04396	36922.45
434.17176	37159.85
438.2966	37511.85
442.41849	38078.25
446.53742	38725.25
450.6534	39488.85
454.76644	40105.05
458.87653	40408.15
462.98368	40362.35
467.08789	40061.95
471.18916	39612.85
475.2875	39135.35
479.38291	38789.05
483.4754	38474.15
487.56496	38276.75
491.6516	38070.45
495.73531	37951.05
499.81612	37938.55
503.89401	38127.65
507.96899	38207.85
512.04106	38266.15
516.11023	38363.75
520.1765	38501.45
524.23987	38550.05
528.30034	38467.25
532.35792	38353.15
536.41261	38153.25
540.46441	37910.55
544.51333	37937.15
548.55936	38089.15
552.60252	38379.55
556.64279	38732.65
560.6802	38850.05
564.71473	38796.95
568.7464	39006.05
572.7752	39320.85
576.80114	39457.55
580.82422	39583.85
584.84444	39865.55
588.86181	40185.05
592.87633	40711.55
596.888	41147.25
600.89682	41591.85
604.9028	42962.15
608.90594	46105.75
612.90624	49575.15
616.90371	48108.45
620.89834	42984.75
624.89015	40789.75
628.87913	40487.15
632.86528	40341.35
636.84862	40013.65
640.82913	39645.05
644.80683	39106.55
648.78172	38712.85
652.75379	38669.55
656.72306	39090.85
660.68952	39716.25
664.65319	39625.45
668.61405	39274.95
672.57211	39250.75
676.52738	39224.15
680.47986	39254.55
684.42955	39172.05
688.37646	39209.95
692.32058	39392.45
696.26192	39650.25
700.20048	39917.45
704.13626	40002.15
708.06928	39870.75
711.99952	39686.05
715.927	39647.55
719.85171	39650.05
723.77365	39652.05
727.69284	39535.25
731.60928	39360.55
735.52295	39398.55
739.43388	39380.75
743.34206	39534.75
747.24749	39671.65
751.15017	39791.25
755.05012	40099.35
758.94733	40694.45
762.8418	41725.65
766.73354	43501.55
770.62254	45458.75
774.50882	46405.15
778.39237	45438.15
782.27321	43240.35
786.15132	41353.85
790.02671	40309.35
793.89938	39795.05
797.76935	39685.45
801.6366	39628.65
805.50115	39542.65
809.36299	39408.25
813.22213	39325.95
817.07857	39269.55
820.93231	39312.85
824.78336	39349.25
828.63172	39484.75
832.47738	39544.45
836.32036	39658.45
840.16066	39784.55
843.99827	39985.15
847.8332	39976.85
851.66546	39879.55
855.49504	39855.05
859.32195	39951.05
863.1462	39863.55
866.96777	39743.65
870.78668	39690.35
874.60293	39692.05
878.41652	39768.45
882.22745	39792.75
886.03573	39904.85
889.84136	39835.55
893.64433	39664.25
897.44466	39596.15
901.24235	39456.15
905.0374	39453.35
908.8298	39454.25
912.61957	39454.15
916.40671	39682.85
920.19121	39919.95
923.97308	40218.95
927.75233	40407.55
931.52895	40465.25
935.30295	40295.45
939.07433	39886.95
942.84309	39604.85
946.60924	39507.75
950.37278	39380.85
954.13371	39213.25
957.89203	39001.25
961.64774	38881.45
965.40086	38750.85
969.15137	38655.45
972.89929	38580.25
976.64461	38617.05
980.38733	38697.45
984.12747	38823.95
987.86502	39113.55
991.59999	39573.05
995.33237	40150.45
999.06217	41163.75
1002.78939	42142.05
1006.51404	42687.65
1010.23611	42772.05
1013.95561	42932.45
1017.67255	43022.15
1021.38692	42954.75
1025.09872	43046.65
1028.80796	43707.25
1032.51465	44911.45
1036.21877	45951.35
1039.92035	45977.35
1043.61937	45315.75
1047.31584	44152.95
1051.00976	42928.35
1054.70114	42230.45
1058.38998	41969.05
1062.07627	41887.15
1065.76003	41920.25
1069.44126	41824.55
1073.11995	41977.05
1076.79611	42142.85
1080.46974	42409.05
1084.14085	42651.95
1087.80943	42893.85
1091.47549	43007.15
1095.13903	42733.15
1098.80005	42368.45
1102.45857	42045.35
1106.11456	41977.75
1109.76805	42201.95
1113.41903	42559.35
1117.06751	42828.05
1120.71348	43113.65
1124.35696	43360.65
1127.99793	43531.05
1131.63641	43495.85
1135.2724	43142.15
1138.90589	42751.65
1142.5369	42461.75
1146.16542	42217.45
1149.79145	42061.35
1153.415	42179.55
1157.03607	42286.95
1160.65467	42665.25
1164.27079	43399.35
1167.88443	44419.25
1171.49561	45912.35
1175.10432	47945.05
1178.71056	50673.15
1182.31434	53326.75
1185.91565	54781.45
1189.51451	54564.75
1193.11091	52972.65
1196.70485	51022.25
1200.29634	49401.35
1203.88538	48290.85
1207.47197	47463.25
1211.05612	46639.05
1214.63782	46122.75
1218.21708	46191.85
1221.79391	46477.45
1225.36829	46707.25
1228.94024	46558.45
1232.50976	46007.85
1236.07685	45486.55
1239.6415	45326.05
1243.20374	45453.95
1246.76355	45780.55
1250.32093	46266.45
1253.8759	46950.55
1257.42845	47865.35
1260.97859	48564.95
1264.52631	49033.35
1268.07163	49684.75
1271.61453	50496.05
1275.15503	51505.15
1278.69312	52579.15
1282.22882	53353.35
1285.76211	53855.15
1289.29301	54191.95
1292.82151	54667.25
1296.34761	55555.65
1299.87133	57208.35
1303.39266	59628.85
1306.9116	62806.15
1310.42815	65920.95
1313.94233	67666.25
1317.45412	67170.25
1320.96354	65397.35
1324.47058	63108.55
1327.97525	61031.35
1331.47754	59611.65
1334.97747	59115.55
1338.47502	59475.25
1341.97022	60263.45
1345.46305	60851.45
1348.95352	61192.35
1352.44163	61712.65
1355.92738	63118.85
1359.41078	66086.25
1362.89183	68777.15
1366.37053	67673.05
1369.84688	62756.55
1373.32088	57392.45
1376.79254	53635.25
1380.26186	51742.85
1383.72883	50849.45
1387.19347	50289.05
1390.65578	49641.55
1394.11575	49135.35
1397.57339	49056.65
1401.0287	49435.15
1404.48168	50036.85
1407.93234	50584.35
1411.38068	51087.15
1414.82669	51247.55
1418.27039	50776.55
1421.71177	50011.35
1425.15083	49186.65
1428.58758	48705.55
1432.02203	48672.95
1435.45416	48957.55
1438.88399	49240.25
1442.31151	49509.55
1445.73673	49723.75
1449.15965	49912.45
1452.58027	49900.45
1455.9986	49671.85
1459.41463	49606.75
1462.82837	49932.75
1466.23982	50627.95
1469.64898	51484.35
1473.05586	52304.35
1476.46045	52775.65
1479.86276	53139.15
1483.26279	53363.75
1486.66054	53618.25
1490.05602	54038.35
1493.44922	54537.75
1496.84016	55062.65
1500.22882	55914.25
1503.61521	57270.45
1506.99934	59058.55
1510.38121	60554.35
1513.76081	60763.45
1517.13816	59351.75
1520.51324	57019.85
1523.88607	54911.55
1527.25665	53508.65
1530.62498	52733.95
1533.99105	52299.35
1537.35488	52160.05
1540.71647	52020.35
1544.07581	51891.15
1547.4329	51768.05
1550.78776	51501.55
1554.14038	51248.65
1557.49077	51053.65
1560.83892	50918.15
1564.18484	50863.45
1567.52853	50843.75
1570.86999	50941.15
1574.20922	51132.45
1577.54624	51015.75
1580.88103	50634.45
1584.2136	50308.15
1587.54395	50736.75
1590.87208	52168.55
1594.19801	54733.15
1597.52172	57617.45
1600.84321	59049.55
1604.16251	57962.65
1607.47959	55346.75
1610.79447	52430.95
1614.10715	49726.35
1617.41763	47573.85
1620.7259	46129.05
1624.03199	45357.25
1627.33587	45457.45
1630.63757	46103.65
1633.93707	47389.45
1637.23439	49336.75
1640.52951	51449.15
1643.82246	53826.05
1647.11321	55635.55
1650.40179	56073.95
1653.68819	53994.45
1656.97241	50268.45
1660.25446	46588.65
1663.53433	43894.65
1666.81203	42226.35
1670.08756	41178.65
1673.36092	40509.45
1676.63211	39987.85
1679.90115	39579.85
1683.16801	39275.05
1686.43272	39027.35
1689.69527	38870.25
1692.95567	38767.35
1696.2139	38756.85
1699.46999	38694.25
1702.72392	38682.65
1705.97571	38653.35
1709.22535	38578.75
1712.47284	38598.95
1715.71819	38658.05
1718.96139	38608.85
1722.20246	38528.25
1725.44139	38415.85
1728.67818	38244.45
1731.91284	38196.65
1735.14537	38065.35
1738.37576	37945.75
1741.60403	37921.95
1744.83017	37893.55
1748.05418	37796.55
1751.27607	37753.75
1754.49584	37693.35
1757.71349	37750.85
1760.92903	37758.85
1764.14244	37731.65
1767.35375	37730.05
1770.56294	37625.45
1773.77002	37623.05
1776.97499	37622.05
1780.17785	37532.15
1783.37861	37506.95
1786.57727	37511.65
1789.77382	37513.85
1792.96828	37440.45
1796.16064	37442.05
1799.3509	37330.75
1802.53907	37289.15
1805.72514	37212.55
1808.90913	37142.75
1812.09102	37177.95
1815.27083	37113.45
1818.44856	37027.35
1821.6242	37059.45
1824.79776	37010.35
1827.96924	36957.75
1831.13864	36954.45
1834.30597	36940.85
1837.47122	36937.65
1840.6344	36889.15
1843.7955	36958.25
1846.95454	36918.85
1850.11151	36898.35
1853.26642	36841.05
1856.41926	36850.75
1859.57004	36851.75
1862.71876	36809.25
1865.86542	36764.15
1869.01003	36768.25
1872.15258	36824.75
1875.29308	36817.95
1878.43152	36786.05
1881.56792	36775.15
1884.70227	36731.15
1887.83457	36656.25
1890.96482	36638.75
1894.09304	36664.95
1897.21921	36648.25
1900.34335	36597.35
1903.46544	36500.05
1906.58551	36546.05
1909.70353	36539.85
1912.81953	36520.25
1915.93349	36450.95
1919.04543	36351.95
1922.15534	36361.55
1925.26322	36284.45
1928.36908	36249.95
1931.47292	36260.15
1934.57473	36184.35
1937.67453	36158.05
1940.77232	36061.05
1943.86808	36015.85
1946.96184	35971.15
1950.05358	35908.45
1953.14331	35809.25
1956.23103	35717.75
1959.31675	35606.95
1962.40046	35491.95
1965.48217	35411.85
1968.56188	35357.15
1971.63959	35261.45
1974.7153	35124.15
1977.78901	35015.45
1980.86073	34927.55
1983.93046	34850.45
1986.99819	34771.75
1990.06394	34708.65
1993.1277	34645.15
1996.18947	34511.35
1999.24925	34469.65
2002.30706	34363.65
2005.36288	34289.05
2008.41672	34177.35
2011.46859	34050.15
2014.51848	34047.85
2017.56639	33972.35
2020.61233	33874.95
2023.6563	33792.75
2026.6983	33731.05
2029.73833	33710.15
2032.7764	33653.65
2035.8125	33578.45
2038.84664	33519.15
2041.87881	33513.55
2044.90903	33397.25
2047.93729	33359.75
2050.96359	33359.75
2053.98794	33357.95
2057.01034	33357.05
2060.03078	33312.35
2063.04927	33321.35
2066.06582	33297.35
2069.08042	33296.75
2072.09307	33262.25
2075.10378	33239.65
2078.11255	33170.65
2081.11938	33211.65
2084.12426	33162.25
2087.12722	33179.15
2090.12824	33167.85
2093.12732	33148.45
2096.12447	33177.55
2099.11969	33199.55
2102.11299	33219.75
2105.10435	33260.15
2108.09379	33259.95
2111.08131	33275.55
2114.0669	33300.25
2117.05057	33338.65
2120.03233	33412.75
2123.01216	33487.35
2125.99008	33475.45
2128.96609	33450.35
2131.94018	33500.65
2134.91236	33522.95
2137.88263	33593.65
2140.851	33568.85
2143.81746	33619.65
2146.78201	33646.45
2149.74466	33685.75
2152.7054	33732.65
2155.66425	33672.45
2158.6212	33672.95
2161.57625	33628.75
2164.52941	33666.65
2167.48067	33612.05
2170.43004	33619.25
2173.37752	33680.15
2176.32311	33779.35
2179.26681	33796.75
2182.20863	33722.55
2185.14856	33770.05
2188.08661	33760.65
2191.02278	33787.75
2193.95707	33791.85
2196.88948	33805.45
2199.82001	33723.05
2202.74867	33723.35
2205.67545	33719.05
2208.60037	33739.05
2211.52341	33724.25
2214.44458	33681.75
2217.36388	33629.05
2220.28132	33602.95
2223.1969	33563.95
2226.11061	33510.45
2229.02246	33447.15
2231.93245	33358.65
2234.84058	33274.95
2237.74686	33253.55
2240.65128	33242.85
2243.55385	33206.15
2246.45456	33211.75
2249.35343	33139.85
2252.25044	33112.65
2255.14561	33047.65
2258.03893	33127.55
2260.93041	33017.95
2263.82004	32960.45
2266.70783	32936.45
2269.59378	32805.65
2272.4779	32759.65
2275.36017	32686.05
2278.24061	32587.75
2281.11922	32563.05
2283.996	32553.95
2286.87094	32474.25
2289.74405	32470.05
2292.61534	32528.25
2295.4848	32507.85
2298.35243	32524.25
2301.21824	32482.65
2304.08223	32517.95
2306.94439	32493.15
2309.80474	32532.85
2312.66327	32497.65
2315.51999	32521.55
2318.37489	32521.75
2321.22797	32531.15
2324.07925	32487.85
2326.92871	32458.65
2329.77637	32427.85
2332.62222	32368.55
2335.46626	32409.45
2338.3085	32408.95
2341.14893	32396.45
2343.98756	32363.45
2346.8244	32377.15
2349.65943	32360.85
2352.49267	32398.55
2355.32411	32382.35
2358.15376	32382.95
2360.98161	32297.45
2363.80768	32263.35
2366.63195	32228.25
2369.45444	32181.05
2372.27514	32068.95
2375.09405	32023.45
2377.91118	32009.35
2380.72652	31897.85
2383.54009	31853.65
2386.35187	31865.45
2389.16188	31758.05
2391.97011	31720.75
2394.77657	31699.25
2397.58125	31699.95
2400.38416	31622.55
2403.18529	31555.75
2405.98466	31511.75
2408.78226	31429.05
2411.57809	31376.95
2414.37216	31318.95
2417.16446	31290.65
2419.955	31259.45
2422.74378	31308.65
2425.5308	31243.95
2428.31606	31237.35
2431.09956	31210.95
2433.88131	31194.35
2436.6613	31234.55
2439.43954	31226.45
2442.21603	31208.55
2444.99077	31174.65
2447.76377	31096.65
2450.53501	31149.35
2453.30451	31129.35
2456.07226	31058.75
2458.83827	31037.15
2461.60254	31028.05
2464.36507	30982.05
2467.12586	30981.85
2469.88492	30993.55
2472.64224	30964.25
2475.39782	30982.95
2478.15167	31051.05
2480.90379	31032.75
2483.65417	31074.85
2486.40283	31067.05
2489.14976	31053.05
2491.89497	31089.25
2494.63845	31070.65
2497.3802	31055.55
2500.12024	31034.15
2502.85855	30991.85
2505.59514	30995.65
2508.33002	30962.65
2511.06318	30921.15
2513.79462	30878.75
2516.52435	30838.95
2519.25237	30795.85
2521.97867	30758.55
2524.70327	30766.25
2527.42616	30759.05
2530.14734	30698.05
2532.86681	30691.15
2535.58458	30690.95
2538.30065	30688.95
2541.01501	30691.25
2543.72768	30639.25
2546.43864	30644.45
2549.14791	30593.35
2551.85548	30542.95
2554.56136	30491.45
2557.26554	30359.15
2559.96803	30409.85
2562.66883	30402.85
2565.36794	30349.05
2568.06536	30331.15
2570.7611	30342.15
2573.45514	30279.65
2576.14751	30268.45
2578.83819	30192.95
2581.52719	30240.95
2584.21451	30181.55
2586.90015	30205.05
2589.58411	30117.65
2592.2664	30045.05
2594.94701	30025.55
2597.62594	30042.45
2600.30321	30017.95
2602.9788	30034.75
2605.65273	29977.35
2608.32498	29946.25
2610.99557	29936.35
2613.66449	29980.05
2616.33175	29967.35
2618.99734	29961.65
2621.66128	29976.95
2624.32355	29947.65
2626.98416	29938.05
2629.64311	29909.45
2632.30041	29895.15
2634.95605	29861.45
2637.61004	29840.15
2640.26238	29875.35
2642.91306	29792.25
2645.56209	29764.25
2648.20948	29762.85
2650.85521	29710.55
2653.4993	29683.55
2656.14175	29682.15
2658.78255	29722.25
2661.42171	29646.95
2664.05923	29696.15
2666.6951	29715.05
2669.32934	29719.05
2671.96194	29685.25
2674.59291	29706.45
2677.22224	29751.15
2679.84993	29751.65
2682.476	29709.25
2685.10043	29735.65
2687.72324	29656.75
2690.34441	29657.65
2692.96396	29636.75
2695.58188	29614.85
2698.19818	29573.35
2700.81285	29619.75
2703.4259	29543.55
2706.03733	29634.35
2708.64714	29561.85
2711.25533	29610.25
2713.86191	29575.75
2716.46687	29676.35
2719.07021	29686.45
2721.67194	29744.95
2724.27206	29729.55
2726.87057	29755.45
2729.46747	29738.65
2732.06276	29778.75
2734.65644	29735.85
2737.24852	29710.85
2739.83899	29635.55
2742.42786	29663.65
2745.01513	29664.05
2747.60079	29608.65
2750.18486	29551.05
2752.76733	29531.05
2755.3482	29514.75
2757.92747	29544.55
2760.50515	29472.95
2763.08123	29499.05
2765.65573	29446.15
2768.22863	29399.05
2770.79994	29332.75
2773.36967	29402.55
2775.9378	29367.45
2778.50435	29390.85
2781.06932	29391.95
2783.6327	29319.55
2786.1945	29230.55
2788.75471	29278.55
2791.31335	29216.75
2793.87041	29187.55
2796.42589	29128.85
2798.97979	29086.75
2801.53212	28946.95
2804.08288	28987.25
2806.63206	28846.15
2809.17967	28821.55
2811.72571	28758.55
2814.27018	28715.95
2816.81308	28678.95
2819.35442	28681.95
2821.89419	28674.25
2824.43239	28657.35
2826.96904	28620.85
2829.50412	28593.65
2832.03763	28564.55
2834.56959	28512.05
2837.1	28472.75
2839.62884	28504.95
2842.15613	28458.35
2844.68186	28481.95
2847.20604	28415.45
2849.72867	28427.65
2852.24974	28356.75
2854.76927	28316.55
2857.28724	28307.95
2859.80367	28268.35
2862.31855	28196.95
2864.83189	28191.75
2867.34368	28177.75
2869.85393	28193.55
2872.36264	28122.25
2874.8698	28138.65
2877.37543	28103.85
2879.87952	28110.55
2882.38207	28125.35
2884.88308	28099.95
2887.38256	28107.45
2889.88051	28098.15
2892.37692	28133.35
2894.8718	28181.75
2897.36515	28176.95
2899.85698	28167.85
2902.34727	28199.35
2904.83604	28210.45
2907.32328	28254.55
2909.809	28327.85
2912.29319	28352.75
2914.77587	28330.75
2917.25702	28324.15
2919.73665	28274.95
2922.21476	28303.35
2924.69136	28213.55
2927.16644	28203.85
2929.64	28174.65
2932.11205	28155.05
2934.58258	28079.25
2937.05161	28139.85
2939.51912	28138.85
2941.98513	28153.75
2944.44962	28163.55
2946.91261	28130.55
2949.37409	28150.15
2951.83407	28118.85
2954.29254	28109.25
2956.74951	28091.15
2959.20498	28151.55
2961.65895	28072.45
2964.11142	28103.45
2966.56239	28056.65
2969.01186	28066.05
2971.45984	28036.35
2973.90632	28026.85
2976.35131	27921.85
2978.7948	27877.45
2981.23681	27869.75
2983.67732	27821.05
2986.11635	27776.55
2988.55388	27743.55
2990.98993	27664.65
2993.4245	27628.25
2995.85758	27556.55
2998.28917	27494.35
3000.71928	27430.05
3003.14791	27447.15
3005.57506	27384.95
3008.00073	27320.25
3010.42493	27322.85
3012.84764	27237.45
3015.26888	27279.95
3017.68865	27202.95
3020.10694	27199.05
3022.52376	27167.25
3024.9391	27150.45
3027.35298	27099.25
3029.76539	27079.25
3032.17632	27049.15
3034.5858	27043.55
3036.9938	27066.65
3039.40034	27030.75
3041.80542	27014.55
3044.20903	26986.25
3046.61118	26945.25
3049.01187	26869.95
3051.4111	26831.65
3053.80888	26798.05
3056.20519	26773.45
3058.60005	26702.45
3060.99345	26687.45
3063.3854	26616.95
3065.7759	26577.05
3068.16494	26506.15
3070.55254	26388.25
3072.93868	26356.25
3075.32338	26329.25
3077.70662	26277.45
3080.08842	26214.45
3082.46878	26222.65
3084.84769	26173.55
3087.22515	26177.75
3089.60118	26161.25
3091.97576	26182.65
3094.3489	26154.85
3096.72061	26177.55
3099.09087	26219.55
3101.4597	26171.25
3103.82709	26198.45
3106.19305	26160.25
3108.55757	26156.75
3110.92066	26075.45
3113.28232	26077.95
3115.64255	25975.35
3118.00134	25947.85
3120.35871	25943.95
3122.71466	25907.05
3125.06917	25849.95
3127.42226	25804.35
3129.77393	25803.75
3132.12417	25693.55
3134.47299	25709.55
3136.82039	25683.35
3139.16636	25703.65
3141.51092	25624.25
3143.85406	25647.15
3146.19579	25661.15
3148.53609	25658.85
3150.87499	25695.75
3153.21246	25713.15
3155.54853	25794.85
3157.88318	25786.05
3160.21642	25783.15
3162.54826	25783.65
3164.87868	25714.85
3167.2077	25783.95
3169.5353	25820.65
3171.86151	25758.95
3174.18631	25743.05
3176.5097	25716.85
3178.83169	25662.75
3181.15228	25626.55
3183.47147	25555.25
3185.78926	25620.75
3188.10565	25543.15
3190.42065	25556.55
3192.73424	25512.25
3195.04645	25528.35
3197.35725	25500.25
3199.66667	25493.65
3201.97469	25575.75
3204.28132	25538.65
3206.58656	25551.95
3208.8904	25578.55
3211.19287	25586.35
3213.49394	25564.85
3215.79363	25558.15
3218.09193	25642.45
3220.38884	25611.95
3222.68438	25651.35
3224.97853	25637.05
3227.2713	25638.95
3229.56269	25588.65
3231.8527	25583.75
3234.14133	25501.65
3236.42858	25451.65
