Data from AgNPs_FTO_APTES_UA_20uM_CRN_0uM_R6G_10uM_NaF_0.1M_Addition_RamanShift__48__11-45-41-991.txt Node

Date: Thu Feb 17 11:45:41 GMT 2022
User: TCL
Spectrometer: QEP01345
Trigger mode: 4
Integration Time (sec): 7.000000E0
Scans to average: 10
Electric dark correction enabled: true
Nonlinearity correction enabled: false
Boxcar width: 0
XAxis mode: Raman Shifts
Number of Pixels in Spectrum: 1044
>>>>>Begin Spectral Data<<<<<
46.04893	0.3375
50.45542	-0.8625
54.85868	-2.5625
59.25871	-1.4625
63.6555	100.7375
68.04907	101.6375
72.43941	104.2375
76.82654	107.5375
81.21044	109.3375
85.59113	116.9375
89.96862	119.3375
94.34289	122.0375
98.71396	121.3375
103.08183	127.9375
107.4465	131.1375
111.80798	136.1375
116.16626	138.7375
120.52136	145.8375
124.87327	146.6375
129.222	158.3375
133.56755	168.5375
137.90993	183.1375
142.24913	202.1375
146.58517	231.6375
150.91804	271.2375
155.24774	326.0375
159.57429	405.8375
163.89768	530.4375
168.21792	705.0375
172.53501	979.1375
176.84895	1374.1375
181.15975	1933.8375
185.46741	2711.8375
189.77193	3749.5375
194.07331	5019.9375
198.37157	6460.4375
202.6667	7999.3375
206.9587	9527.4375
211.24758	11014.4375
215.53334	12507.9375
219.81599	14132.4375
224.09553	15943.3375
228.37195	17915.6375
232.64527	20080.6375
236.91549	22354.6375
241.18261	24649.5375
245.44663	26748.6375
249.70755	28633.1375
253.96539	30291.9375
258.22014	31690.3375
262.4718	32833.2375
266.72039	33665.7375
270.96589	34124.4375
275.20832	34155.5375
279.44768	33950.3375
283.68397	33620.4375
287.91719	33347.0375
292.14735	33242.4375
296.37445	33198.2375
300.59849	33273.7375
304.81948	33551.1375
309.03742	33674.9375
313.25231	33485.8375
317.46415	32913.5375
321.67296	32113.1375
325.87872	31449.4375
330.08145	31112.5375
334.28114	31096.8375
338.47781	31398.2375
342.67145	31836.4375
346.86207	32411.2375
351.04966	33142.4375
355.23424	33941.5375
359.4158	34553.6375
363.59435	35013.6375
367.76989	35312.5375
371.94243	35563.3375
376.11196	35748.1375
380.27849	35930.6375
384.44203	36130.9375
388.60257	36298.3375
392.76012	36519.4375
396.91468	36945.7375
401.06626	37442.1375
405.21485	37922.5375
409.36047	37855.8375
413.50311	37386.1375
417.64277	37077.2375
421.77947	37045.0375
425.9132	37272.8375
430.04396	37586.0375
434.17176	37754.7375
438.2966	38104.9375
442.41849	38762.9375
446.53742	39779.1375
450.6534	41041.7375
454.76644	41877.8375
458.87653	42172.3375
462.98368	41802.4375
467.08789	41185.3375
471.18916	40380.0375
475.2875	39696.9375
479.38291	39208.9375
483.4754	38942.6375
487.56496	38567.5375
491.6516	38175.8375
495.73531	37855.6375
499.81612	37791.7375
503.89401	38069.8375
507.96899	38243.6375
512.04106	38177.8375
516.11023	37973.3375
520.1765	37674.2375
524.23987	37521.8375
528.30034	37286.8375
532.35792	36980.3375
536.41261	36575.6375
540.46441	36176.9375
544.51333	36076.0375
548.55936	36427.1375
552.60252	37108.5375
556.64279	38003.2375
560.6802	38676.9375
564.71473	39037.8375
568.7464	39714.8375
572.7752	40739.5375
576.80114	41526.5375
580.82422	42201.3375
584.84444	42985.5375
588.86181	43836.4375
592.87633	44721.9375
596.888	44639.7375
600.89682	43813.4375
604.9028	44557.4375
608.90594	48386.0375
612.90624	52513.9375
616.90371	49792.0375
620.89834	42200.6375
624.89015	38851.8375
628.87913	38335.0375
632.86528	38257.4375
636.84862	37994.2375
640.82913	37379.0375
644.80683	36507.6375
648.78172	35916.2375
652.75379	35915.5375
656.72306	36450.4375
660.68952	37138.8375
664.65319	37112.7375
668.61405	36487.0375
672.57211	36296.7375
676.52738	36384.3375
680.47986	36352.5375
684.42955	36220.9375
688.37646	36131.3375
692.32058	36342.9375
696.26192	36840.1375
700.20048	37324.7375
704.13626	37580.1375
708.06928	37481.4375
711.99952	37143.7375
715.927	37118.6375
719.85171	37277.5375
723.77365	37251.5375
727.69284	36870.3375
731.60928	36461.1375
735.52295	36408.3375
739.43388	36475.9375
743.34206	36589.7375
747.24749	36795.8375
751.15017	37085.8375
755.05012	37712.2375
758.94733	38671.1375
762.8418	40416.2375
766.73354	43289.2375
770.62254	45983.6375
774.50882	46598.3375
778.39237	44774.6375
782.27321	41803.1375
786.15132	39309.1375
790.02671	37825.6375
793.89938	37071.4375
797.76935	36796.0375
801.6366	36763.4375
805.50115	36693.0375
809.36299	36489.9375
813.22213	36220.0375
817.07857	36053.7375
820.93231	35931.1375
824.78336	35779.7375
828.63172	35793.1375
832.47738	35827.2375
836.32036	35858.4375
840.16066	36032.1375
843.99827	36202.3375
847.8332	36165.0375
851.66546	36044.1375
855.49504	36025.2375
859.32195	36009.6375
863.1462	35880.4375
866.96777	35819.4375
870.78668	35748.7375
874.60293	35796.7375
878.41652	35880.5375
882.22745	35966.4375
886.03573	36133.5375
889.84136	36062.1375
893.64433	35917.4375
897.44466	35788.2375
901.24235	35631.7375
905.0374	35477.4375
908.8298	35425.6375
912.61957	35452.4375
916.40671	35694.9375
920.19121	36150.4375
923.97308	36610.2375
927.75233	36851.2375
931.52895	36650.8375
935.30295	36203.3375
939.07433	35620.5375
942.84309	35257.4375
946.60924	35140.2375
950.37278	35150.1375
954.13371	35004.9375
957.89203	34832.2375
961.64774	34711.6375
965.40086	34640.6375
969.15137	34602.3375
972.89929	34462.7375
976.64461	34423.3375
980.38733	34442.5375
984.12747	34607.0375
987.86502	34967.3375
991.59999	35457.1375
995.33237	36194.8375
999.06217	37346.1375
1002.78939	38610.0375
1006.51404	39494.4375
1010.23611	39987.3375
1013.95561	40288.2375
1017.67255	40301.4375
1021.38692	39821.9375
1025.09872	39309.4375
1028.80796	39536.4375
1032.51465	40468.2375
1036.21877	41432.6375
1039.92035	41551.9375
1043.61937	40990.3375
1047.31584	39965.5375
1051.00976	38870.9375
1054.70114	38251.8375
1058.38998	38129.1375
1062.07627	38255.2375
1065.76003	38472.2375
1069.44126	38809.2375
1073.11995	39235.6375
1076.79611	39784.8375
1080.46974	40111.3375
1084.14085	40552.7375
1087.80943	41135.7375
1091.47549	41382.4375
1095.13903	41159.4375
1098.80005	40520.3375
1102.45857	39872.0375
1106.11456	39381.1375
1109.76805	39304.4375
1113.41903	39522.6375
1117.06751	39772.3375
1120.71348	40206.4375
1124.35696	40559.5375
1127.99793	40904.3375
1131.63641	41008.8375
1135.2724	40696.2375
1138.90589	40324.2375
1142.5369	40127.4375
1146.16542	40113.5375
1149.79145	40175.1375
1153.415	40389.7375
1157.03607	40860.5375
1160.65467	41753.0375
1164.27079	43277.4375
1167.88443	45335.4375
1171.49561	47984.8375
1175.10432	51532.5375
1178.71056	55957.1375
1182.31434	60077.9375
1185.91565	62146.3375
1189.51451	61827.7375
1193.11091	59868.6375
1196.70485	57150.6375
1200.29634	54735.7375
1203.88538	52920.4375
1207.47197	51665.8375
1211.05612	50605.5375
1214.63782	49808.0375
1218.21708	49443.1375
1221.79391	49359.6375
1225.36829	49324.2375
1228.94024	48669.1375
1232.50976	47425.9375
1236.07685	46357.3375
1239.6415	45861.4375
1243.20374	45772.5375
1246.76355	46079.8375
1250.32093	46735.0375
1253.8759	47813.7375
1257.42845	49112.7375
1260.97859	50466.7375
1264.52631	51841.2375
1268.07163	53408.4375
1271.61453	55120.5375
1275.15503	56828.1375
1278.69312	58444.9375
1282.22882	59681.2375
1285.76211	60871.8375
1289.29301	62152.9375
1292.82151	63991.0375
1296.34761	66418.4375
1299.87133	69891.9375
1303.39266	74252.7375
1306.9116	79404.1375
1310.42815	84539.8375
1313.94233	87827.0375
1317.45412	87871.3375
1320.96354	85770.8375
1324.47058	83349.4375
1327.97525	81139.3375
1331.47754	79585.7375
1334.97747	78825.0375
1338.47502	78714.2375
1341.97022	78518.2375
1345.46305	77695.3375
1348.95352	76500.7375
1352.44163	75886.5375
1355.92738	77267.6375
1359.41078	80718.1375
1362.89183	84121.6375
1366.37053	82626.6375
1369.84688	75740.9375
1373.32088	67743.0375
1376.79254	62235.1375
1380.26186	59740.3375
1383.72883	59161.3375
1387.19347	58874.1375
1390.65578	58367.7375
1394.11575	58340.3375
1397.57339	59048.8375
1401.0287	60272.9375
1404.48168	61671.9375
1407.93234	62425.4375
1411.38068	62271.9375
1414.82669	61065.5375
1418.27039	59006.7375
1421.71177	56777.3375
1425.15083	54839.4375
1428.58758	53950.9375
1432.02203	54263.6375
1435.45416	55372.1375
1438.88399	56763.0375
1442.31151	57869.6375
1445.73673	58580.3375
1449.15965	59127.5375
1452.58027	59397.8375
1455.9986	59274.2375
1459.41463	59553.3375
1462.82837	60554.6375
1466.23982	61845.0375
1469.64898	63177.6375
1473.05586	63926.3375
1476.46045	64000.3375
1479.86276	63648.9375
1483.26279	63004.3375
1486.66054	62640.3375
1490.05602	62785.7375
1493.44922	63161.4375
1496.84016	63361.6375
1500.22882	64091.7375
1503.61521	65616.5375
1506.99934	67674.0375
1510.38121	69453.1375
1513.76081	69856.3375
1517.13816	68059.1375
1520.51324	65042.5375
1523.88607	62440.6375
1527.25665	61060.0375
1530.62498	60641.4375
1533.99105	60517.6375
1537.35488	60357.3375
1540.71647	59893.7375
1544.07581	59279.7375
1547.4329	58268.1375
1550.78776	57245.5375
1554.14038	56449.2375
1557.49077	55868.0375
1560.83892	55594.8375
1564.18484	55517.3375
1567.52853	55562.5375
1570.86999	55748.6375
1574.20922	56195.9375
1577.54624	56541.0375
1580.88103	56324.1375
1584.2136	56424.9375
1587.54395	57961.5375
1590.87208	61259.8375
1594.19801	66013.8375
1597.52172	71012.5375
1600.84321	73136.3375
1604.16251	70421.7375
1607.47959	64912.3375
1610.79447	58897.5375
1614.10715	53585.0375
1617.41763	49385.5375
1620.7259	46610.7375
1624.03199	45221.8375
1627.33587	45205.6375
1630.63757	46465.9375
1633.93707	49254.5375
1637.23439	53729.2375
1640.52951	60123.0375
1643.82246	67200.8375
1647.11321	72505.2375
1650.40179	73030.6375
1653.68819	67630.7375
1656.97241	58921.4375
1660.25446	50733.2375
1663.53433	44859.6375
1666.81203	41212.4375
1670.08756	38950.2375
1673.36092	37532.5375
1676.63211	36557.5375
1679.90115	35882.0375
1683.16801	35366.3375
1686.43272	34989.7375
1689.69527	34756.9375
1692.95567	34518.4375
1696.2139	34375.4375
1699.46999	34311.9375
1702.72392	34264.9375
1705.97571	34186.9375
1709.22535	34097.1375
1712.47284	34046.8375
1715.71819	34061.6375
1718.96139	34031.9375
1722.20246	33935.0375
1725.44139	33735.9375
1728.67818	33605.8375
1731.91284	33400.4375
1735.14537	33247.6375
1738.37576	33075.7375
1741.60403	32966.5375
1744.83017	32847.7375
1748.05418	32770.7375
1751.27607	32729.7375
1754.49584	32686.4375
1757.71349	32659.0375
1760.92903	32694.2375
1764.14244	32629.8375
1767.35375	32607.9375
1770.56294	32583.1375
1773.77002	32522.6375
1776.97499	32544.1375
1780.17785	32485.7375
1783.37861	32415.3375
1786.57727	32339.9375
1789.77382	32265.7375
1792.96828	32305.3375
1796.16064	32263.0375
1799.3509	32215.3375
1802.53907	32141.9375
1805.72514	32117.6375
1808.90913	32029.3375
1812.09102	31978.4375
1815.27083	31906.3375
1818.44856	31894.5375
1821.6242	31846.3375
1824.79776	31770.1375
1827.96924	31808.8375
1831.13864	31783.3375
1834.30597	31766.1375
1837.47122	31764.4375
1840.6344	31746.6375
1843.7955	31714.2375
1846.95454	31742.3375
1850.11151	31760.5375
1853.26642	31775.8375
1856.41926	31794.5375
1859.57004	31803.9375
1862.71876	31715.6375
1865.86542	31695.5375
1869.01003	31660.0375
1872.15258	31619.2375
1875.29308	31640.0375
1878.43152	31637.1375
1881.56792	31585.1375
1884.70227	31593.0375
1887.83457	31586.6375
1890.96482	31622.6375
1894.09304	31567.6375
1897.21921	31494.6375
1900.34335	31472.7375
1903.46544	31387.2375
1906.58551	31417.2375
1909.70353	31414.3375
1912.81953	31411.4375
1915.93349	31347.3375
1919.04543	31252.4375
1922.15534	31223.8375
1925.26322	31173.9375
1928.36908	31126.9375
1931.47292	31045.7375
1934.57473	30929.5375
1937.67453	30876.0375
1940.77232	30843.1375
1943.86808	30765.6375
1946.96184	30663.9375
1950.05358	30577.8375
1953.14331	30469.1375
1956.23103	30372.6375
1959.31675	30293.7375
1962.40046	30198.9375
1965.48217	30123.9375
1968.56188	30065.9375
1971.63959	29969.9375
1974.7153	29902.2375
1977.78901	29796.8375
1980.86073	29716.4375
1983.93046	29636.4375
1986.99819	29540.0375
1990.06394	29515.6375
1993.1277	29465.8375
1996.18947	29341.1375
1999.24925	29261.0375
2002.30706	29188.2375
2005.36288	29124.1375
2008.41672	29023.3375
2011.46859	28916.7375
2014.51848	28930.6375
2017.56639	28825.7375
2020.61233	28759.2375
2023.6563	28670.3375
2026.6983	28614.4375
2029.73833	28561.3375
2032.7764	28578.5375
2035.8125	28503.9375
2038.84664	28481.6375
2041.87881	28451.3375
2044.90903	28425.0375
2047.93729	28298.4375
2050.96359	28333.6375
2053.98794	28321.6375
2057.01034	28347.4375
2060.03078	28339.6375
2063.04927	28312.9375
2066.06582	28298.0375
2069.08042	28268.6375
2072.09307	28203.8375
2075.10378	28152.3375
2078.11255	28078.3375
2081.11938	28125.1375
2084.12426	28058.4375
2087.12722	28063.9375
2090.12824	28062.1375
2093.12732	28085.2375
2096.12447	28078.6375
2099.11969	28057.5375
2102.11299	28033.2375
2105.10435	28159.7375
2108.09379	28114.0375
2111.08131	28176.8375
2114.0669	28130.8375
2117.05057	28087.8375
2120.03233	28156.1375
2123.01216	28145.4375
2125.99008	28169.0375
2128.96609	28245.2375
2131.94018	28280.0375
2134.91236	28351.0375
2137.88263	28361.3375
2140.851	28369.7375
2143.81746	28408.8375
2146.78201	28371.0375
2149.74466	28412.8375
2152.7054	28442.5375
2155.66425	28460.7375
2158.6212	28405.4375
2161.57625	28471.3375
2164.52941	28384.0375
2167.48067	28394.6375
2170.43004	28358.8375
2173.37752	28440.2375
2176.32311	28427.9375
2179.26681	28430.6375
2182.20863	28416.4375
2185.14856	28474.6375
2188.08661	28477.7375
2191.02278	28459.6375
2193.95707	28434.7375
2196.88948	28431.1375
2199.82001	28442.5375
2202.74867	28421.1375
2205.67545	28424.8375
2208.60037	28401.3375
2211.52341	28380.7375
2214.44458	28372.7375
2217.36388	28342.2375
2220.28132	28334.3375
2223.1969	28273.1375
2226.11061	28253.1375
2229.02246	28068.1375
2231.93245	28121.3375
2234.84058	28075.8375
2237.74686	27973.3375
2240.65128	27941.0375
2243.55385	27936.7375
2246.45456	27894.9375
2249.35343	27817.8375
2252.25044	27797.7375
2255.14561	27768.0375
2258.03893	27784.3375
2260.93041	27704.4375
2263.82004	27663.1375
2266.70783	27572.2375
2269.59378	27519.3375
2272.4779	27438.9375
2275.36017	27419.3375
2278.24061	27368.3375
2281.11922	27331.4375
2283.996	27307.0375
2286.87094	27287.2375
2289.74405	27241.6375
2292.61534	27231.3375
2295.4848	27231.9375
2298.35243	27271.0375
2301.21824	27258.5375
2304.08223	27277.6375
2306.94439	27297.6375
2309.80474	27288.1375
2312.66327	27318.9375
2315.51999	27285.8375
2318.37489	27298.2375
2321.22797	27276.2375
2324.07925	27297.3375
2326.92871	27210.9375
2329.77637	27175.6375
2332.62222	27187.0375
2335.46626	27240.7375
2338.3085	27204.9375
2341.14893	27240.8375
2343.98756	27231.6375
2346.8244	27276.1375
2349.65943	27244.5375
2352.49267	27261.6375
2355.32411	27263.2375
2358.15376	27240.5375
2360.98161	27211.7375
2363.80768	27183.1375
2366.63195	27135.0375
2369.45444	27110.2375
2372.27514	27084.6375
2375.09405	27022.2375
2377.91118	26938.7375
2380.72652	26856.3375
2383.54009	26779.9375
2386.35187	26730.3375
2389.16188	26683.8375
2391.97011	26653.1375
2394.77657	26646.8375
2397.58125	26625.4375
2400.38416	26597.8375
2403.18529	26509.3375
2405.98466	26517.4375
2408.78226	26429.5375
2411.57809	26384.5375
2414.37216	26325.3375
2417.16446	26348.2375
2419.955	26300.4375
2422.74378	26307.7375
2425.5308	26225.5375
2428.31606	26292.2375
2431.09956	26308.0375
2433.88131	26298.4375
2436.6613	26311.0375
2439.43954	26290.2375
2442.21603	26258.6375
2444.99077	26210.9375
2447.76377	26234.9375
2450.53501	26194.1375
2453.30451	26247.7375
2456.07226	26195.6375
2458.83827	26171.3375
2461.60254	26202.2375
2464.36507	26220.2375
2467.12586	26220.0375
2469.88492	26172.7375
2472.64224	26240.3375
2475.39782	26223.4375
2478.15167	26237.2375
2480.90379	26265.3375
2483.65417	26314.8375
2486.40283	26315.0375
2489.14976	26361.4375
2491.89497	26337.4375
2494.63845	26364.3375
2497.3802	26363.8375
2500.12024	26348.4375
2502.85855	26309.2375
2505.59514	26350.2375
2508.33002	26282.4375
2511.06318	26226.8375
2513.79462	26197.5375
2516.52435	26193.9375
2519.25237	26172.7375
2521.97867	26150.3375
2524.70327	26139.8375
2527.42616	26107.5375
2530.14734	26126.7375
2532.86681	26046.3375
2535.58458	26087.7375
2538.30065	26068.1375
2541.01501	26099.9375
2543.72768	26103.4375
2546.43864	26065.8375
2549.14791	25997.7375
2551.85548	26023.5375
2554.56136	25978.6375
2557.26554	25896.4375
2559.96803	25915.0375
2562.66883	25920.5375
2565.36794	25882.5375
2568.06536	25886.1375
2570.7611	25866.0375
2573.45514	25809.3375
2576.14751	25818.8375
2578.83819	25803.6375
2581.52719	25824.4375
2584.21451	25792.4375
2586.90015	25798.8375
2589.58411	25731.3375
2592.2664	25735.0375
2594.94701	25788.7375
2597.62594	25760.2375
2600.30321	25734.3375
2602.9788	25740.4375
2605.65273	25743.5375
2608.32498	25721.0375
2610.99557	25724.8375
2613.66449	25794.9375
2616.33175	25749.9375
2618.99734	25777.4375
2621.66128	25714.7375
2624.32355	25745.1375
2626.98416	25738.7375
2629.64311	25689.4375
2632.30041	25712.2375
2634.95605	25668.8375
2637.61004	25666.7375
2640.26238	25663.2375
2642.91306	25613.5375
2645.56209	25589.3375
2648.20948	25617.3375
2650.85521	25548.8375
2653.4993	25594.4375
2656.14175	25575.0375
2658.78255	25644.7375
2661.42171	25636.8375
2664.05923	25668.5375
2666.6951	25672.1375
2669.32934	25687.8375
2671.96194	25676.4375
2674.59291	25695.7375
2677.22224	25691.6375
2679.84993	25700.8375
2682.476	25641.4375
2685.10043	25648.4375
2687.72324	25590.9375
2690.34441	25593.1375
2692.96396	25591.1375
2695.58188	25617.1375
2698.19818	25584.2375
2700.81285	25571.7375
2703.4259	25543.7375
2706.03733	25561.9375
2708.64714	25561.9375
2711.25533	25607.8375
2713.86191	25604.5375
2716.46687	25672.9375
2719.07021	25671.3375
2721.67194	25710.4375
2724.27206	25656.0375
2726.87057	25713.5375
2729.46747	25718.6375
2732.06276	25691.9375
2734.65644	25681.8375
2737.24852	25720.5375
2739.83899	25681.7375
2742.42786	25703.7375
2745.01513	25699.8375
2747.60079	25649.3375
2750.18486	25655.4375
2752.76733	25638.6375
2755.3482	25665.9375
2757.92747	25635.2375
2760.50515	25587.9375
2763.08123	25591.6375
2765.65573	25561.9375
2768.22863	25540.4375
2770.79994	25534.1375
2773.36967	25530.7375
2775.9378	25541.8375
2778.50435	25603.3375
2781.06932	25606.5375
2783.6327	25585.2375
2786.1945	25578.2375
2788.75471	25545.4375
2791.31335	25447.6375
2793.87041	25444.2375
2796.42589	25395.0375
2798.97979	25365.9375
2801.53212	25293.5375
2804.08288	25259.4375
2806.63206	25236.5375
2809.17967	25217.2375
2811.72571	25144.8375
2814.27018	25092.2375
2816.81308	25004.3375
2819.35442	24997.8375
2821.89419	24965.3375
2824.43239	24968.5375
2826.96904	24959.6375
2829.50412	24972.8375
2832.03763	24883.0375
2834.56959	24912.5375
2837.1	24871.1375
2839.62884	24857.2375
2842.15613	24809.5375
2844.68186	24856.3375
2847.20604	24826.3375
2849.72867	24864.2375
2852.24974	24815.5375
2854.76927	24780.2375
2857.28724	24759.8375
2859.80367	24741.9375
2862.31855	24750.9375
2864.83189	24709.3375
2867.34368	24645.9375
2869.85393	24691.2375
2872.36264	24631.3375
2874.8698	24627.9375
2877.37543	24589.6375
2879.87952	24612.0375
2882.38207	24617.5375
2884.88308	24615.0375
2887.38256	24662.8375
2889.88051	24620.2375
2892.37692	24671.6375
2894.8718	24650.1375
2897.36515	24755.0375
2899.85698	24737.0375
2902.34727	24756.9375
2904.83604	24744.6375
2907.32328	24837.7375
2909.809	24835.0375
2912.29319	24866.9375
2914.77587	24866.6375
2917.25702	24842.2375
2919.73665	24817.2375
2922.21476	24807.8375
2924.69136	24797.8375
2927.16644	24764.2375
2929.64	24761.0375
2932.11205	24714.4375
2934.58258	24656.0375
2937.05161	24654.1375
2939.51912	24663.2375
2941.98513	24612.3375
2944.44962	24587.7375
2946.91261	24551.9375
2949.37409	24587.6375
2951.83407	24578.4375
2954.29254	24534.8375
2956.74951	24553.9375
2959.20498	24572.1375
2961.65895	24520.2375
2964.11142	24514.7375
2966.56239	24483.9375
2969.01186	24437.4375
2971.45984	24370.8375
2973.90632	24373.5375
2976.35131	24291.8375
2978.7948	24270.5375
2981.23681	24170.3375
2983.67732	24170.9375
2986.11635	24091.4375
2988.55388	24039.1375
2990.98993	24008.6375
2993.4245	23974.9375
2995.85758	23913.7375
2998.28917	23835.5375
3000.71928	23796.2375
3003.14791	23742.5375
3005.57506	23733.1375
3008.00073	23652.4375
3010.42493	23675.1375
3012.84764	23635.0375
3015.26888	23626.0375
3017.68865	23584.3375
3020.10694	23533.9375
3022.52376	23450.7375
