Data from AgNPs_FTO_APTES_UA_20uM_CRN_5uM_R6G_10uM_NaF_0.1M_Addition_RamanShift__8__13-41-12-141.txt Node

Date: Thu Feb 17 13:41:12 GMT 2022
User: TCL
Spectrometer: QEP01345
Trigger mode: 4
Integration Time (sec): 7.000000E0
Scans to average: 10
Electric dark correction enabled: true
Nonlinearity correction enabled: false
Boxcar width: 0
XAxis mode: Raman Shifts
Number of Pixels in Spectrum: 1044
>>>>>Begin Spectral Data<<<<<
46.04893	-0.125
50.45542	-1.225
54.85868	-3.225
59.25871	-1.025
63.6555	127.575
68.04907	126.775
72.43941	132.475
76.82654	133.775
81.21044	140.575
85.59113	141.275
89.96862	149.075
94.34289	152.775
98.71396	154.775
103.08183	161.475
107.4465	168.275
111.80798	169.375
116.16626	177.575
120.52136	184.875
124.87327	198.675
129.222	209.175
133.56755	221.875
137.90993	240.375
142.24913	268.875
146.58517	300.875
150.91804	353.675
155.24774	428.175
159.57429	536.775
163.89768	692.675
168.21792	932.475
172.53501	1286.775
176.84895	1804.875
181.15975	2548.975
185.46741	3593.075
189.77193	5001.275
194.07331	6718.975
198.37157	8682.275
202.6667	10739.875
206.9587	12845.675
211.24758	14856.875
215.53334	16843.075
219.81599	18944.775
224.09553	21245.575
228.37195	23795.575
232.64527	26567.875
236.91549	29568.775
241.18261	32607.275
245.44663	35538.075
249.70755	38250.075
253.96539	40632.175
258.22014	42608.675
262.4718	44214.375
266.72039	45348.875
270.96589	46057.075
275.20832	46151.475
279.44768	45942.275
283.68397	45628.375
287.91719	45238.375
292.14735	45116.375
296.37445	45010.975
300.59849	45083.775
304.81948	45232.275
309.03742	45302.775
313.25231	45116.875
317.46415	44633.575
321.67296	43981.675
325.87872	43460.075
330.08145	43243.775
334.28114	43326.575
338.47781	43631.075
342.67145	44101.675
346.86207	44745.575
351.04966	45427.675
355.23424	46080.275
359.4158	46685.775
363.59435	47129.675
367.76989	47445.275
371.94243	47783.275
376.11196	48042.075
380.27849	48303.775
384.44203	48626.975
388.60257	48996.375
392.76012	49431.475
396.91468	49963.875
401.06626	50676.275
405.21485	51089.975
409.36047	51060.075
413.50311	50742.175
417.64277	50505.575
421.77947	50601.075
425.9132	50817.075
430.04396	51161.875
434.17176	51484.975
438.2966	51776.175
442.41849	52323.675
446.53742	53269.875
450.6534	54356.375
454.76644	55148.175
458.87653	55655.875
462.98368	55606.275
467.08789	55335.475
471.18916	54943.175
475.2875	54490.375
479.38291	54254.075
483.4754	54039.575
487.56496	53700.875
491.6516	53286.375
495.73531	52867.375
499.81612	52548.275
503.89401	52739.075
507.96899	52948.775
512.04106	52976.875
516.11023	52925.475
520.1765	52736.975
524.23987	52570.775
528.30034	52358.975
532.35792	52139.075
536.41261	51851.475
540.46441	51571.875
544.51333	51642.275
548.55936	52067.475
552.60252	52838.375
556.64279	53743.175
560.6802	54378.975
564.71473	54860.175
568.7464	55502.175
572.7752	56770.575
576.80114	58202.375
580.82422	59640.275
584.84444	60833.575
588.86181	62083.075
592.87633	63111.275
596.888	62864.875
600.89682	61427.975
604.9028	61254.175
608.90594	63634.175
612.90624	65985.775
616.90371	63051.275
620.89834	56884.375
624.89015	54283.075
628.87913	54118.675
632.86528	54595.675
636.84862	54720.675
640.82913	54233.775
644.80683	53451.575
648.78172	52798.875
652.75379	52713.875
656.72306	53213.975
660.68952	53800.575
664.65319	53811.775
668.61405	53213.875
672.57211	53274.575
676.52738	53549.375
680.47986	53530.575
684.42955	53287.975
688.37646	53209.375
692.32058	53484.075
696.26192	53970.975
700.20048	54626.175
704.13626	55012.975
708.06928	55141.975
711.99952	55051.875
715.927	54956.275
719.85171	54922.875
723.77365	54813.275
727.69284	54415.175
731.60928	53982.975
735.52295	53750.475
739.43388	53825.275
743.34206	53970.275
747.24749	54258.575
751.15017	54552.375
755.05012	55199.775
758.94733	56250.575
762.8418	57917.275
766.73354	60630.775
770.62254	63102.875
774.50882	63305.975
778.39237	61373.275
782.27321	58798.075
786.15132	56671.475
790.02671	55325.375
793.89938	54651.475
797.76935	54235.975
801.6366	54083.775
805.50115	53948.775
809.36299	53876.075
813.22213	53719.575
817.07857	53708.075
820.93231	53729.775
824.78336	53630.875
828.63172	53533.175
832.47738	53451.775
836.32036	53482.575
840.16066	53455.875
843.99827	53574.475
847.8332	53657.675
851.66546	53722.575
855.49504	53889.875
859.32195	53874.275
863.1462	53861.475
866.96777	53901.675
870.78668	53949.375
874.60293	53952.975
878.41652	54009.475
882.22745	54088.875
886.03573	54210.975
889.84136	54253.775
893.64433	54060.275
897.44466	53947.775
901.24235	53868.075
905.0374	53851.175
908.8298	53715.275
912.61957	53878.475
916.40671	54141.875
920.19121	54672.575
923.97308	55060.975
927.75233	54879.375
931.52895	54490.575
935.30295	54041.975
939.07433	53458.975
942.84309	53076.375
946.60924	52868.175
950.37278	52830.775
954.13371	53027.075
957.89203	53051.375
961.64774	52938.075
965.40086	52930.475
969.15137	52868.975
972.89929	52793.175
976.64461	52708.175
980.38733	52662.375
984.12747	52720.075
987.86502	52928.775
991.59999	53177.675
995.33237	53514.975
999.06217	54034.475
1002.78939	54726.375
1006.51404	55499.875
1010.23611	56248.575
1013.95561	56697.475
1017.67255	56837.575
1021.38692	56518.275
1025.09872	55993.475
1028.80796	55419.575
1032.51465	55311.175
1036.21877	55386.375
1039.92035	55452.675
1043.61937	55541.975
1047.31584	55623.575
1051.00976	55640.875
1054.70114	55892.575
1058.38998	56116.375
1062.07627	56497.775
1065.76003	57155.775
1069.44126	57811.975
1073.11995	58498.775
1076.79611	59112.475
1080.46974	59522.375
1084.14085	59716.475
1087.80943	60079.575
1091.47549	60392.475
1095.13903	60544.575
1098.80005	60032.175
1102.45857	59242.475
1106.11456	58516.575
1109.76805	58041.375
1113.41903	57950.175
1117.06751	58049.575
1120.71348	58397.675
1124.35696	58737.375
1127.99793	59064.475
1131.63641	59190.075
1135.2724	59086.875
1138.90589	58988.875
1142.5369	59056.775
1146.16542	59311.175
1149.79145	59638.775
1153.415	59972.075
1157.03607	60451.075
1160.65467	61238.275
1164.27079	62743.075
1167.88443	64704.875
1171.49561	66903.275
1175.10432	69603.375
1178.71056	72980.675
1182.31434	76099.475
1185.91565	77936.075
1189.51451	78165.775
1193.11091	77357.375
1196.70485	75955.775
1200.29634	74176.475
1203.88538	72780.675
1207.47197	72002.275
1211.05612	71289.075
1214.63782	70346.275
1218.21708	69096.575
1221.79391	67751.675
1225.36829	66792.675
1228.94024	66242.975
1232.50976	65738.575
1236.07685	65174.075
1239.6415	64840.875
1243.20374	64875.775
1246.76355	65226.175
1250.32093	65849.675
1253.8759	66736.675
1257.42845	67959.275
1260.97859	69277.175
1264.52631	70656.175
1268.07163	72004.375
1271.61453	73212.875
1275.15503	74263.875
1278.69312	75447.775
1282.22882	76804.075
1285.76211	78406.875
1289.29301	80408.775
1292.82151	82773.375
1296.34761	85686.775
1299.87133	88997.175
1303.39266	92345.575
1306.9116	95624.175
1310.42815	98020.275
1313.94233	99255.175
1317.45412	98914.675
1320.96354	97722.175
1324.47058	96833.275
1327.97525	96254.775
1331.47754	95703.775
1334.97747	95382.375
1338.47502	95393.775
1341.97022	95551.475
1345.46305	95867.975
1348.95352	95961.775
1352.44163	95625.575
1355.92738	95944.375
1359.41078	97005.975
1362.89183	98073.275
1366.37053	96706.575
1369.84688	91491.475
1373.32088	84933.775
1376.79254	80200.675
1380.26186	78270.575
1383.72883	78097.975
1387.19347	78137.875
1390.65578	77799.275
1394.11575	77295.875
1397.57339	77197.675
1401.0287	77413.975
1404.48168	77635.075
1407.93234	77210.275
1411.38068	76292.475
1414.82669	74724.475
1418.27039	72908.575
1421.71177	71105.575
1425.15083	69623.175
1428.58758	69048.875
1432.02203	69456.375
1435.45416	70532.775
1438.88399	71960.875
1442.31151	73046.775
1445.73673	73763.775
1449.15965	74129.075
1452.58027	74385.975
1455.9986	74473.075
1459.41463	74925.675
1462.82837	75753.775
1466.23982	76813.975
1469.64898	77738.675
1473.05586	78411.275
1476.46045	78621.175
1479.86276	78313.875
1483.26279	78000.275
1486.66054	77758.575
1490.05602	78106.475
1493.44922	78785.675
1496.84016	79792.875
1500.22882	81290.275
1503.61521	83386.175
1506.99934	85708.875
1510.38121	87135.075
1513.76081	86949.375
1517.13816	85451.375
1520.51324	83664.275
1523.88607	82429.575
1527.25665	82156.775
1530.62498	82355.375
1533.99105	82263.975
1537.35488	81517.075
1540.71647	80191.275
1544.07581	78688.375
1547.4329	77196.875
1550.78776	75787.875
1554.14038	74941.175
1557.49077	74281.175
1560.83892	73965.175
1564.18484	73820.275
1567.52853	73918.575
1570.86999	74355.575
1574.20922	75127.775
1577.54624	75785.175
1580.88103	75692.175
1584.2136	75694.275
1587.54395	76872.675
1590.87208	79150.775
1594.19801	82140.875
1597.52172	84991.075
1600.84321	85747.175
1604.16251	83338.775
1607.47959	79604.275
1610.79447	75511.375
1614.10715	71460.975
1617.41763	67936.875
1620.7259	65218.875
1624.03199	63700.575
1627.33587	63374.275
1630.63757	64348.175
1633.93707	66665.175
1637.23439	70954.675
1640.52951	77520.375
1643.82246	85116.775
1647.11321	91132.875
1650.40179	92307.875
1653.68819	87624.275
1656.97241	79437.975
1660.25446	71115.275
1663.53433	64942.975
1666.81203	60910.575
1670.08756	58229.075
1673.36092	56619.075
1676.63211	55522.475
1679.90115	54696.875
1683.16801	53990.275
1686.43272	53629.075
1689.69527	53287.875
1692.95567	53031.175
1696.2139	52895.875
1699.46999	52737.275
1702.72392	52645.975
1705.97571	52596.075
1709.22535	52493.475
1712.47284	52463.175
1715.71819	52486.675
1718.96139	52428.575
1722.20246	52260.375
1725.44139	52117.175
1728.67818	51888.275
1731.91284	51690.075
1735.14537	51449.575
1738.37576	51281.675
1741.60403	51245.975
1744.83017	50945.975
1748.05418	50888.675
1751.27607	50786.175
1754.49584	50728.075
1757.71349	50741.775
1760.92903	50758.575
1764.14244	50676.075
1767.35375	50571.975
1770.56294	50575.475
1773.77002	50540.775
1776.97499	50489.275
1780.17785	50422.375
1783.37861	50317.875
1786.57727	50257.175
1789.77382	50173.375
1792.96828	50203.775
1796.16064	50091.175
1799.3509	49973.675
1802.53907	49947.475
1805.72514	49819.275
1808.90913	49693.975
1812.09102	49628.275
1815.27083	49524.075
1818.44856	49432.975
1821.6242	49391.275
1824.79776	49360.275
1827.96924	49358.975
1831.13864	49305.575
1834.30597	49307.975
1837.47122	49279.675
1840.6344	49205.875
1843.7955	49193.075
1846.95454	49242.375
1850.11151	49171.675
1853.26642	49148.475
1856.41926	49046.675
1859.57004	49093.175
1862.71876	48981.075
1865.86542	48955.175
1869.01003	48857.475
1872.15258	48859.575
1875.29308	48759.875
1878.43152	48642.875
1881.56792	48655.175
1884.70227	48704.075
1887.83457	48665.175
1890.96482	48642.375
1894.09304	48547.275
1897.21921	48550.075
1900.34335	48422.175
1903.46544	48359.475
1906.58551	48317.575
1909.70353	48296.775
1912.81953	48215.575
1915.93349	48124.375
1919.04543	48047.275
1922.15534	48015.575
1925.26322	47904.175
1928.36908	47844.875
1931.47292	47801.675
1934.57473	47707.675
1937.67453	47575.175
1940.77232	47446.075
1943.86808	47367.075
1946.96184	47215.475
1950.05358	47130.775
1953.14331	46974.475
1956.23103	46907.575
1959.31675	46768.075
1962.40046	46636.975
1965.48217	46470.975
1968.56188	46327.275
1971.63959	46151.075
1974.7153	46058.875
1977.78901	45922.575
1980.86073	45785.075
1983.93046	45725.675
1986.99819	45607.575
1990.06394	45530.675
1993.1277	45413.575
1996.18947	45288.675
1999.24925	45149.075
2002.30706	45002.475
2005.36288	44883.875
2008.41672	44721.375
2011.46859	44616.675
2014.51848	44533.875
2017.56639	44341.575
2020.61233	44267.775
2023.6563	44148.775
2026.6983	43990.275
2029.73833	43916.975
2032.7764	43891.575
2035.8125	43836.875
2038.84664	43698.175
2041.87881	43615.975
2044.90903	43630.775
2047.93729	43511.875
2050.96359	43480.975
2053.98794	43396.875
2057.01034	43366.475
2060.03078	43420.475
2063.04927	43356.775
2066.06582	43333.575
2069.08042	43308.075
2072.09307	43223.275
2075.10378	43203.275
2078.11255	43172.275
2081.11938	43164.675
2084.12426	43170.975
2087.12722	43142.375
2090.12824	43135.175
2093.12732	43208.675
2096.12447	43162.275
2099.11969	43103.275
2102.11299	43135.375
2105.10435	43146.275
2108.09379	43162.875
2111.08131	43225.875
2114.0669	43206.775
2117.05057	43186.975
2120.03233	43260.475
2123.01216	43351.475
2125.99008	43422.775
2128.96609	43498.075
2131.94018	43508.075
2134.91236	43470.675
2137.88263	43543.175
2140.851	43540.975
2143.81746	43586.375
2146.78201	43572.275
2149.74466	43653.275
2152.7054	43610.975
2155.66425	43542.175
2158.6212	43603.975
2161.57625	43614.575
2164.52941	43585.375
2167.48067	43521.375
2170.43004	43508.775
2173.37752	43474.875
2176.32311	43535.075
2179.26681	43526.875
2182.20863	43515.075
2185.14856	43561.775
2188.08661	43542.075
2191.02278	43517.375
2193.95707	43403.775
2196.88948	43404.675
2199.82001	43415.675
2202.74867	43294.775
2205.67545	43292.475
2208.60037	43224.675
2211.52341	43175.775
2214.44458	43169.775
2217.36388	43052.375
2220.28132	43009.975
2223.1969	42880.675
2226.11061	42807.575
2229.02246	42643.875
2231.93245	42615.475
2234.84058	42591.375
2237.74686	42564.375
2240.65128	42514.975
2243.55385	42437.475
2246.45456	42438.475
2249.35343	42405.075
2252.25044	42359.075
2255.14561	42254.075
2258.03893	42175.475
2260.93041	42097.975
2263.82004	41996.975
2266.70783	41941.975
2269.59378	41837.375
2272.4779	41728.275
2275.36017	41675.975
2278.24061	41595.675
2281.11922	41549.575
2283.996	41427.275
2286.87094	41462.975
2289.74405	41424.675
2292.61534	41304.575
2295.4848	41279.775
2298.35243	41249.975
2301.21824	41234.475
2304.08223	41203.575
2306.94439	41147.075
2309.80474	41160.475
2312.66327	41203.375
2315.51999	41089.775
2318.37489	40996.575
2321.22797	40956.775
2324.07925	40936.175
2326.92871	40855.075
2329.77637	40801.475
2332.62222	40699.175
2335.46626	40699.575
2338.3085	40621.675
2341.14893	40563.675
2343.98756	40608.675
2346.8244	40541.975
2349.65943	40521.075
2352.49267	40492.775
2355.32411	40495.375
2358.15376	40471.175
2360.98161	40471.575
2363.80768	40411.975
2366.63195	40421.275
2369.45444	40352.275
2372.27514	40347.275
2375.09405	40326.475
2377.91118	40212.875
2380.72652	40135.275
2383.54009	40048.275
2386.35187	40004.075
2389.16188	39845.475
2391.97011	39731.775
2394.77657	39642.975
2397.58125	39613.275
2400.38416	39561.675
2403.18529	39522.575
2405.98466	39494.975
2408.78226	39436.275
2411.57809	39386.275
2414.37216	39373.475
2417.16446	39381.775
2419.955	39294.875
2422.74378	39265.675
2425.5308	39186.375
2428.31606	39204.275
2431.09956	39186.275
2433.88131	39109.675
2436.6613	39174.275
2439.43954	39124.575
2442.21603	39056.775
2444.99077	39019.975
2447.76377	39013.275
2450.53501	38986.475
2453.30451	38967.475
2456.07226	38967.875
2458.83827	38863.975
2461.60254	38832.675
2464.36507	38808.275
2467.12586	38812.375
2469.88492	38779.475
2472.64224	38770.175
2475.39782	38747.175
2478.15167	38755.975
2480.90379	38767.075
2483.65417	38802.275
2486.40283	38805.175
2489.14976	38727.775
2491.89497	38663.875
2494.63845	38735.975
2497.3802	38653.075
2500.12024	38572.775
2502.85855	38543.375
2505.59514	38484.975
2508.33002	38435.575
2511.06318	38360.175
2513.79462	38374.775
2516.52435	38389.275
2519.25237	38338.375
2521.97867	38300.775
2524.70327	38299.575
2527.42616	38257.275
2530.14734	38197.475
2532.86681	38118.475
2535.58458	38099.875
2538.30065	38046.975
2541.01501	38050.775
2543.72768	38017.375
2546.43864	38030.375
2549.14791	37924.575
2551.85548	37877.675
2554.56136	37804.875
2557.26554	37703.175
2559.96803	37616.675
2562.66883	37610.375
2565.36794	37575.375
2568.06536	37456.675
2570.7611	37434.375
2573.45514	37373.275
2576.14751	37318.275
2578.83819	37258.175
2581.52719	37219.675
2584.21451	37146.375
2586.90015	37081.475
2589.58411	37040.075
2592.2664	37005.275
2594.94701	36934.775
2597.62594	36974.075
2600.30321	36920.675
2602.9788	36924.375
2605.65273	36809.175
2608.32498	36825.375
2610.99557	36820.075
2613.66449	36793.075
2616.33175	36711.175
2618.99734	36635.975
2621.66128	36546.375
2624.32355	36529.775
2626.98416	36481.775
2629.64311	36445.075
2632.30041	36408.575
2634.95605	36345.975
2637.61004	36379.375
2640.26238	36330.675
2642.91306	36220.975
2645.56209	36188.075
2648.20948	36266.075
2650.85521	36191.275
2653.4993	36197.375
2656.14175	36201.975
2658.78255	36215.975
2661.42171	36282.275
2664.05923	36295.175
2666.6951	36308.875
2669.32934	36267.075
2671.96194	36180.675
2674.59291	36290.675
2677.22224	36300.275
2679.84993	36302.875
2682.476	36196.575
2685.10043	36168.975
2687.72324	36124.575
2690.34441	36126.575
2692.96396	36195.375
2695.58188	36247.175
2698.19818	36165.075
2700.81285	36131.675
2703.4259	36106.875
2706.03733	36197.375
2708.64714	36123.475
2711.25533	36205.875
2713.86191	36166.175
2716.46687	36189.475
2719.07021	36203.675
2721.67194	36157.475
2724.27206	36141.875
2726.87057	36225.275
2729.46747	36183.075
2732.06276	36119.775
2734.65644	36139.475
2737.24852	36170.275
2739.83899	36127.875
2742.42786	36164.575
2745.01513	36106.475
2747.60079	36088.475
2750.18486	36015.975
2752.76733	36005.775
2755.3482	35892.075
2757.92747	35836.275
2760.50515	35814.275
2763.08123	35813.775
2765.65573	35768.175
2768.22863	35814.375
2770.79994	35705.975
2773.36967	35752.375
2775.9378	35746.575
2778.50435	35729.275
2781.06932	35620.775
2783.6327	35584.775
2786.1945	35527.575
2788.75471	35472.275
2791.31335	35414.175
2793.87041	35361.975
2796.42589	35268.875
2798.97979	35216.475
2801.53212	35155.575
2804.08288	35094.075
2806.63206	35017.375
2809.17967	34953.675
2811.72571	34845.975
2814.27018	34716.375
2816.81308	34602.275
2819.35442	34555.175
2821.89419	34499.275
2824.43239	34482.475
2826.96904	34471.375
2829.50412	34473.975
2832.03763	34318.175
2834.56959	34314.175
2837.1	34245.975
2839.62884	34234.575
2842.15613	34130.375
2844.68186	34178.275
2847.20604	34108.375
2849.72867	34078.775
2852.24974	34023.775
2854.76927	33964.175
2857.28724	33921.575
2859.80367	33980.975
2862.31855	33909.075
2864.83189	33772.375
2867.34368	33729.275
2869.85393	33740.375
2872.36264	33705.175
2874.8698	33639.475
2877.37543	33645.575
2879.87952	33573.475
2882.38207	33574.975
2884.88308	33542.275
2887.38256	33555.275
2889.88051	33546.375
2892.37692	33571.275
2894.8718	33567.075
2897.36515	33609.875
2899.85698	33539.175
2902.34727	33629.675
2904.83604	33609.575
2907.32328	33648.375
2909.809	33601.475
2912.29319	33662.275
2914.77587	33652.875
2917.25702	33646.075
2919.73665	33582.175
2922.21476	33584.875
2924.69136	33519.075
2927.16644	33558.975
2929.64	33468.175
2932.11205	33466.175
2934.58258	33353.675
2937.05161	33427.375
2939.51912	33466.075
2941.98513	33452.275
2944.44962	33367.475
2946.91261	33303.575
2949.37409	33343.575
2951.83407	33284.075
2954.29254	33272.575
2956.74951	33272.675
2959.20498	33214.875
2961.65895	33226.375
2964.11142	33247.675
2966.56239	33227.875
2969.01186	33177.275
2971.45984	33072.675
2973.90632	33057.775
2976.35131	33023.875
2978.7948	32980.475
2981.23681	32915.175
2983.67732	32854.175
2986.11635	32763.875
2988.55388	32684.375
2990.98993	32673.775
2993.4245	32608.375
2995.85758	32547.875
2998.28917	32437.875
3000.71928	32371.975
3003.14791	32295.875
3005.57506	32285.775
3008.00073	32164.875
3010.42493	32138.375
3012.84764	32056.275
3015.26888	32068.675
3017.68865	32007.975
3020.10694	31907.275
3022.52376	31871.375
3024.9391	31811.375
3027.35298	31800.775
3029.76539	31777.675
3032.17632	31745.775
3034.5858	31678.675
3036.9938	31634.275
3039.40034	31638.375
3041.80542	31606.875
3044.20903	31513.875
3046.61118	31451.875
3049.01187	31357.075
3051.4111	31256.875
3053.80888	31255.575
3056.20519	31232.375
3058.60005	31101.675
3060.99345	31081.175
3063.3854	31005.775
3065.7759	30885.675
3068.16494	30771.575
3070.55254	30737.475
3072.93868	30598.675
3075.32338	30511.575
3077.70662	30492.575
3080.08842	30412.075
3082.46878	30380.475
3084.84769	30323.375
3087.22515	30322.075
3089.60118	30278.075
3091.97576	30232.975
3094.3489	30193.875
3096.72061	30173.375
3099.09087	30217.375
3101.4597	30184.875
3103.82709	30187.675
3106.19305	30115.175
3108.55757	30138.975
3110.92066	30053.975
3113.28232	30034.775
3115.64255	29944.075
3118.00134	29824.975
3120.35871	29722.675
3122.71466	29664.275
3125.06917	29617.175
