Data from AgNPs_FTO_APTES_UA_20uM_CRN_1uM_R6G_10uM_NaF_0.1M_Addition_RamanShift__27__12-33-32-052.txt Node

Date: Thu Feb 17 12:33:32 GMT 2022
User: TCL
Spectrometer: QEP01345
Trigger mode: 4
Integration Time (sec): 7.000000E0
Scans to average: 10
Electric dark correction enabled: true
Nonlinearity correction enabled: false
Boxcar width: 0
XAxis mode: Raman Shifts
Number of Pixels in Spectrum: 1044
>>>>>Begin Spectral Data<<<<<
46.04893	-0.75
50.45542	-0.25
54.85868	-3.05
59.25871	-1.35
63.6555	109.65
68.04907	112.05
72.43941	117.05
76.82654	119.85
81.21044	125.95
85.59113	128.85
89.96862	133.25
94.34289	133.95
98.71396	138.35
103.08183	140.95
107.4465	149.85
111.80798	147.35
116.16626	153.75
120.52136	165.55
124.87327	167.85
129.222	177.15
133.56755	191.95
137.90993	206.75
142.24913	224.25
146.58517	251.95
150.91804	295.45
155.24774	353.25
159.57429	442.25
163.89768	571.15
168.21792	765.65
172.53501	1050.55
176.84895	1470.05
181.15975	2064.55
185.46741	2895.45
189.77193	3997.55
194.07331	5382.35
198.37157	6939.35
202.6667	8576.95
206.9587	10231.25
211.24758	11867.45
215.53334	13509.85
219.81599	15270.55
224.09553	17227.35
228.37195	19469.05
232.64527	21899.95
236.91549	24411.05
241.18261	26938.65
245.44663	29197.85
249.70755	31195.05
253.96539	33013.85
258.22014	34550.55
262.4718	35807.75
266.72039	36721.15
270.96589	37357.15
275.20832	37382.45
279.44768	37186.35
283.68397	36848.55
287.91719	36583.65
292.14735	36487.95
296.37445	36645.35
300.59849	37073.05
304.81948	37544.05
309.03742	37864.45
313.25231	37623.75
317.46415	36634.65
321.67296	35232.25
325.87872	34127.25
330.08145	33678.65
334.28114	33773.65
338.47781	34188.05
342.67145	34819.45
346.86207	35728.65
351.04966	36919.15
355.23424	38228.85
359.4158	39265.65
363.59435	40027.75
367.76989	40375.65
371.94243	40640.05
376.11196	40782.45
380.27849	40942.25
384.44203	41021.25
388.60257	41014.25
392.76012	41146.95
396.91468	41631.15
401.06626	42401.45
405.21485	43096.55
409.36047	42936.85
413.50311	42161.35
417.64277	41429.35
421.77947	41231.05
425.9132	41322.55
430.04396	41616.75
434.17176	41941.15
438.2966	42533.85
442.41849	43462.35
446.53742	44775.55
450.6534	46254.45
454.76644	47404.55
458.87653	47870.55
462.98368	47547.75
467.08789	46799.25
471.18916	45732.45
475.2875	44726.95
479.38291	44072.85
483.4754	43597.25
487.56496	43036.45
491.6516	42511.25
495.73531	41974.55
499.81612	41749.15
503.89401	41930.45
507.96899	42084.45
512.04106	42189.55
516.11023	42260.45
520.1765	42300.15
524.23987	42242.35
528.30034	41914.35
532.35792	41459.65
536.41261	40958.25
540.46441	40539.75
544.51333	40395.25
548.55936	40807.95
552.60252	41583.75
556.64279	42601.55
560.6802	43115.35
564.71473	43595.05
568.7464	44617.45
572.7752	45607.15
576.80114	45746.15
580.82422	45644.15
584.84444	45820.55
588.86181	46398.85
592.87633	47156.25
596.888	47663.95
600.89682	47996.35
604.9028	50466.65
608.90594	57290.95
612.90624	64999.25
616.90371	61695.95
620.89834	50105.05
624.89015	45072.05
628.87913	44382.85
632.86528	44109.75
636.84862	43698.55
640.82913	42833.95
644.80683	41613.25
648.78172	40796.35
652.75379	40801.85
656.72306	41747.45
660.68952	42905.85
664.65319	42827.25
668.61405	41872.65
672.57211	41439.25
676.52738	41428.55
680.47986	41434.25
684.42955	41352.25
688.37646	41356.25
692.32058	41634.65
696.26192	42048.15
700.20048	42531.25
704.13626	42862.75
708.06928	42678.85
711.99952	42334.85
715.927	42285.15
719.85171	42380.95
723.77365	42293.55
727.69284	41930.75
731.60928	41610.55
735.52295	41648.85
739.43388	41810.05
743.34206	42144.05
747.24749	42467.35
751.15017	42934.25
755.05012	43755.35
758.94733	45192.85
762.8418	47812.85
766.73354	52059.85
770.62254	56089.65
774.50882	57385.25
778.39237	54895.05
782.27321	50221.55
786.15132	46206.15
790.02671	43916.75
793.89938	42922.45
797.76935	42516.05
801.6366	42380.95
805.50115	42274.45
809.36299	42052.75
813.22213	41904.85
817.07857	41841.85
820.93231	41919.35
824.78336	41970.45
828.63172	42085.75
832.47738	42152.55
836.32036	42325.15
840.16066	42531.05
843.99827	42693.65
847.8332	42613.15
851.66546	42387.35
855.49504	42203.65
859.32195	42202.85
863.1462	42016.65
866.96777	41879.45
870.78668	41750.85
874.60293	41816.95
878.41652	41902.15
882.22745	42074.95
886.03573	42251.95
889.84136	42176.05
893.64433	41982.45
897.44466	41886.55
901.24235	41794.95
905.0374	41803.35
908.8298	41760.05
912.61957	41826.05
916.40671	42266.35
920.19121	42821.45
923.97308	43471.15
927.75233	43817.05
931.52895	43748.25
935.30295	43279.95
939.07433	42479.35
942.84309	42019.05
946.60924	41749.75
950.37278	41610.75
954.13371	41327.15
957.89203	41045.15
961.64774	40855.55
965.40086	40706.75
969.15137	40610.95
972.89929	40470.55
976.64461	40425.15
980.38733	40491.95
984.12747	40687.25
987.86502	41043.35
991.59999	41705.95
995.33237	42729.95
999.06217	44508.35
1002.78939	46566.65
1006.51404	47939.15
1010.23611	48546.05
1013.95561	49042.15
1017.67255	49023.95
1021.38692	48504.45
1025.09872	48246.05
1028.80796	49174.55
1032.51465	51144.45
1036.21877	52751.85
1039.92035	52927.95
1043.61937	51766.55
1047.31584	49854.55
1051.00976	47760.35
1054.70114	46539.25
1058.38998	46116.25
1062.07627	46117.55
1065.76003	46213.95
1069.44126	46344.35
1073.11995	46704.55
1076.79611	47027.65
1080.46974	47418.95
1084.14085	47985.25
1087.80943	48620.35
1091.47549	48788.35
1095.13903	48283.75
1098.80005	47417.65
1102.45857	46671.65
1106.11456	46273.35
1109.76805	46439.85
1113.41903	46927.65
1117.06751	47630.85
1120.71348	48407.45
1124.35696	49106.55
1127.99793	49657.55
1131.63641	49572.35
1135.2724	48873.15
1138.90589	48098.35
1142.5369	47675.45
1146.16542	47391.15
1149.79145	47416.15
1153.415	47732.25
1157.03607	48316.55
1160.65467	49179.15
1164.27079	50588.25
1167.88443	52777.25
1171.49561	55999.55
1175.10432	60686.25
1178.71056	66621.95
1182.31434	72133.05
1185.91565	74659.05
1189.51451	74204.45
1193.11091	71178.95
1196.70485	67319.15
1200.29634	64110.75
1203.88538	61729.85
1207.47197	59770.05
1211.05612	58110.15
1214.63782	57327.75
1218.21708	57472.05
1221.79391	57979.95
1225.36829	58050.95
1228.94024	57319.85
1232.50976	56313.65
1236.07685	55522.75
1239.6415	55382.05
1243.20374	55489.95
1246.76355	55964.05
1250.32093	56919.05
1253.8759	58413.35
1257.42845	60188.35
1260.97859	61689.65
1264.52631	62879.65
1268.07163	64139.55
1271.61453	65770.95
1275.15503	67551.85
1278.69312	69554.25
1282.22882	71190.05
1285.76211	72655.05
1289.29301	73992.65
1292.82151	75838.75
1296.34761	78280.65
1299.87133	81971.35
1303.39266	87131.65
1306.9116	94001.85
1310.42815	100992.65
1313.94233	105394.35
1317.45412	104790.35
1320.96354	101125.05
1324.47058	96839.35
1327.97525	93087.95
1331.47754	90807.85
1334.97747	90406.45
1338.47502	91562.05
1341.97022	93018.65
1345.46305	93497.45
1348.95352	93102.85
1352.44163	93031.15
1355.92738	95443.55
1359.41078	101397.35
1362.89183	106959.95
1366.37053	104236.25
1369.84688	93605.15
1373.32088	82761.95
1376.79254	75692.55
1380.26186	72180.75
1383.72883	70669.05
1387.19347	69865.55
1390.65578	69161.85
1394.11575	69188.85
1397.57339	70201.85
1401.0287	71829.95
1404.48168	73790.85
1407.93234	75681.55
1411.38068	76932.05
1414.82669	76809.05
1418.27039	74713.75
1421.71177	71772.15
1425.15083	69010.55
1428.58758	67639.25
1432.02203	67589.75
1435.45416	68162.05
1438.88399	68903.35
1442.31151	69567.85
1445.73673	70398.45
1449.15965	71090.35
1452.58027	71372.25
1455.9986	71085.75
1459.41463	71096.95
1462.82837	71820.55
1466.23982	73048.65
1469.64898	74466.35
1473.05586	75519.35
1476.46045	76139.85
1479.86276	76746.35
1483.26279	77346.15
1486.66054	77991.85
1490.05602	79262.85
1493.44922	80471.95
1496.84016	81660.85
1500.22882	83293.95
1503.61521	85946.55
1506.99934	89466.45
1510.38121	92898.85
1513.76081	93861.65
1517.13816	90997.35
1520.51324	85830.45
1523.88607	81010.55
1527.25665	77724.05
1530.62498	75980.65
1533.99105	75047.45
1537.35488	74374.95
1540.71647	74013.25
1544.07581	73703.15
1547.4329	73073.25
1550.78776	72158.05
1554.14038	71373.55
1557.49077	70969.25
1560.83892	70928.35
1564.18484	70858.75
1567.52853	70721.15
1570.86999	70560.95
1574.20922	70608.45
1577.54624	70639.05
1580.88103	69915.75
1584.2136	69424.05
1587.54395	70898.55
1590.87208	74663.85
1594.19801	80626.15
1597.52172	87029.65
1600.84321	90001.35
1604.16251	87225.55
1607.47959	80645.25
1610.79447	73325.25
1614.10715	66877.75
1617.41763	62067.35
1620.7259	58864.25
1624.03199	57462.85
1627.33587	57731.65
1630.63757	59441.65
1633.93707	62597.45
1637.23439	67092.15
1640.52951	72517.15
1643.82246	78515.75
1647.11321	83376.35
1650.40179	84596.25
1653.68819	79941.95
1656.97241	70989.85
1660.25446	62075.25
1663.53433	55608.35
1666.81203	51571.45
1670.08756	49051.65
1673.36092	47506.55
1676.63211	46430.65
1679.90115	45685.25
1683.16801	45132.35
1686.43272	44711.85
1689.69527	44445.45
1692.95567	44186.55
1696.2139	44087.45
1699.46999	44052.65
1702.72392	44050.35
1705.97571	43988.25
1709.22535	43874.05
1712.47284	43848.65
1715.71819	43865.45
1718.96139	43845.55
1722.20246	43759.05
1725.44139	43624.15
1728.67818	43407.35
1731.91284	43209.25
1735.14537	42990.95
1738.37576	42847.25
1741.60403	42772.25
1744.83017	42616.55
1748.05418	42501.75
1751.27607	42464.45
1754.49584	42431.85
1757.71349	42475.55
1760.92903	42463.65
1764.14244	42344.25
1767.35375	42413.15
1770.56294	42389.25
1773.77002	42401.75
1776.97499	42379.85
1780.17785	42326.65
1783.37861	42273.35
1786.57727	42222.45
1789.77382	42181.75
1792.96828	42170.85
1796.16064	42160.85
1799.3509	42115.35
1802.53907	42127.05
1805.72514	42088.95
1808.90913	42000.65
1812.09102	41908.25
1815.27083	41838.65
1818.44856	41791.45
1821.6242	41702.75
1824.79776	41696.15
1827.96924	41653.05
1831.13864	41714.35
1834.30597	41665.75
1837.47122	41594.15
1840.6344	41551.55
1843.7955	41592.25
1846.95454	41655.25
1850.11151	41636.85
1853.26642	41644.75
1856.41926	41705.85
1859.57004	41678.85
1862.71876	41674.95
1865.86542	41719.15
1869.01003	41677.75
1872.15258	41712.15
1875.29308	41704.65
1878.43152	41729.15
1881.56792	41767.35
1884.70227	41804.65
1887.83457	41802.05
1890.96482	41837.65
1894.09304	41783.45
1897.21921	41757.15
1900.34335	41726.05
1903.46544	41724.75
1906.58551	41826.05
1909.70353	41770.95
1912.81953	41797.85
1915.93349	41811.05
1919.04543	41679.25
1922.15534	41675.85
1925.26322	41626.25
1928.36908	41510.95
1931.47292	41523.35
1934.57473	41382.85
1937.67453	41295.45
1940.77232	41158.55
1943.86808	41021.75
1946.96184	40842.75
1950.05358	40774.05
1953.14331	40606.55
1956.23103	40495.75
1959.31675	40394.95
1962.40046	40344.15
1965.48217	40110.85
1968.56188	40055.45
1971.63959	40017.95
1974.7153	39900.55
1977.78901	39800.65
1980.86073	39660.15
1983.93046	39566.75
1986.99819	39465.25
1990.06394	39357.35
1993.1277	39282.75
1996.18947	39147.45
1999.24925	39080.45
2002.30706	38961.35
2005.36288	38853.75
2008.41672	38745.25
2011.46859	38685.75
2014.51848	38551.25
2017.56639	38485.15
2020.61233	38411.15
2023.6563	38285.15
2026.6983	38249.35
2029.73833	38163.85
2032.7764	38133.25
2035.8125	38112.45
2038.84664	38074.75
2041.87881	38009.55
2044.90903	37993.15
2047.93729	37877.85
2050.96359	37892.35
2053.98794	37821.65
2057.01034	37812.65
2060.03078	37836.35
2063.04927	37777.45
2066.06582	37794.95
2069.08042	37775.55
2072.09307	37671.65
2075.10378	37589.15
2078.11255	37512.85
2081.11938	37540.75
2084.12426	37542.05
2087.12722	37487.45
2090.12824	37512.15
2093.12732	37465.85
2096.12447	37507.25
2099.11969	37443.85
2102.11299	37426.75
2105.10435	37519.55
2108.09379	37464.65
2111.08131	37555.55
2114.0669	37482.85
2117.05057	37551.25
2120.03233	37589.15
2123.01216	37649.35
2125.99008	37659.15
2128.96609	37702.75
2131.94018	37754.55
2134.91236	37829.25
2137.88263	37858.85
2140.851	37847.95
2143.81746	37915.75
2146.78201	37864.35
2149.74466	37907.05
2152.7054	37962.55
2155.66425	37958.55
2158.6212	37953.45
2161.57625	37915.65
2164.52941	37910.25
2167.48067	37897.55
2170.43004	37894.95
2173.37752	37875.25
2176.32311	37941.75
2179.26681	38010.05
2182.20863	37989.35
2185.14856	38041.45
2188.08661	37983.35
2191.02278	38042.75
2193.95707	38004.95
2196.88948	37985.65
2199.82001	38022.95
2202.74867	37956.05
2205.67545	37963.35
2208.60037	37938.45
2211.52341	37969.15
2214.44458	37952.85
2217.36388	37969.55
2220.28132	37888.55
2223.1969	37882.55
2226.11061	37765.65
2229.02246	37629.45
2231.93245	37599.15
2234.84058	37493.45
2237.74686	37486.85
2240.65128	37432.65
2243.55385	37407.55
2246.45456	37375.85
2249.35343	37338.85
2252.25044	37256.65
2255.14561	37215.65
2258.03893	37251.15
2260.93041	37175.95
2263.82004	37103.95
2266.70783	37007.65
2269.59378	36885.65
2272.4779	36799.15
2275.36017	36737.85
2278.24061	36687.25
2281.11922	36609.35
2283.996	36571.95
2286.87094	36593.65
2289.74405	36550.95
2292.61534	36543.65
2295.4848	36544.45
2298.35243	36550.15
2301.21824	36536.95
2304.08223	36599.65
2306.94439	36601.55
2309.80474	36662.75
2312.66327	36695.15
2315.51999	36699.65
2318.37489	36705.65
2321.22797	36660.65
2324.07925	36697.65
2326.92871	36639.15
2329.77637	36585.05
2332.62222	36537.75
2335.46626	36579.85
2338.3085	36608.45
2341.14893	36644.05
2343.98756	36663.45
2346.8244	36729.85
2349.65943	36744.05
2352.49267	36731.95
2355.32411	36770.15
2358.15376	36687.85
2360.98161	36696.25
2363.80768	36566.55
2366.63195	36523.25
2369.45444	36497.35
2372.27514	36450.55
2375.09405	36384.75
2377.91118	36266.15
2380.72652	36119.15
2383.54009	36044.65
2386.35187	35993.05
2389.16188	35876.65
2391.97011	35858.25
2394.77657	35788.05
2397.58125	35819.35
2400.38416	35757.35
2403.18529	35663.75
2405.98466	35625.15
2408.78226	35494.05
2411.57809	35426.85
2414.37216	35326.05
2417.16446	35344.05
2419.955	35256.15
2422.74378	35249.65
2425.5308	35239.45
2428.31606	35209.95
2431.09956	35277.55
2433.88131	35228.55
2436.6613	35223.85
2439.43954	35196.95
2442.21603	35151.25
2444.99077	35135.55
2447.76377	35183.75
2450.53501	35094.05
2453.30451	35131.75
2456.07226	35101.85
2458.83827	35055.35
2461.60254	35069.95
2464.36507	35088.05
2467.12586	35053.15
2469.88492	35065.85
2472.64224	35136.55
2475.39782	35119.45
2478.15167	35194.05
2480.90379	35185.35
2483.65417	35234.75
2486.40283	35265.05
2489.14976	35326.85
2491.89497	35318.55
2494.63845	35386.75
2497.3802	35347.35
2500.12024	35384.25
2502.85855	35357.65
2505.59514	35284.65
2508.33002	35262.95
2511.06318	35216.15
2513.79462	35151.65
2516.52435	35189.85
2519.25237	35058.25
2521.97867	35074.65
2524.70327	35066.15
2527.42616	35034.05
2530.14734	35022.95
2532.86681	34940.75
2535.58458	34939.75
2538.30065	34955.55
2541.01501	35024.95
2543.72768	35028.85
2546.43864	35000.95
2549.14791	34915.45
2551.85548	34877.85
2554.56136	34846.75
2557.26554	34728.15
2559.96803	34716.25
2562.66883	34728.95
2565.36794	34649.45
2568.06536	34661.65
2570.7611	34577.95
2573.45514	34563.65
2576.14751	34587.85
2578.83819	34586.85
2581.52719	34614.65
2584.21451	34602.55
2586.90015	34620.05
2589.58411	34592.65
2592.2664	34602.65
2594.94701	34633.95
2597.62594	34636.55
2600.30321	34565.45
2602.9788	34678.15
2605.65273	34613.65
2608.32498	34635.05
2610.99557	34612.25
2613.66449	34704.85
2616.33175	34645.25
2618.99734	34676.65
2621.66128	34680.45
2624.32355	34633.55
2626.98416	34669.75
2629.64311	34683.05
2632.30041	34680.85
2634.95605	34641.25
2637.61004	34606.45
2640.26238	34581.25
2642.91306	34542.15
2645.56209	34448.75
2648.20948	34398.65
2650.85521	34343.65
2653.4993	34338.25
2656.14175	34387.15
2658.78255	34454.25
2661.42171	34481.45
2664.05923	34550.35
2666.6951	34515.45
2669.32934	34565.05
2671.96194	34572.85
2674.59291	34644.25
2677.22224	34637.85
2679.84993	34654.75
2682.476	34592.35
2685.10043	34553.35
2687.72324	34534.65
2690.34441	34535.75
2692.96396	34466.25
2695.58188	34522.45
2698.19818	34394.25
2700.81285	34427.85
2703.4259	34418.35
2706.03733	34441.45
2708.64714	34431.85
2711.25533	34436.35
2713.86191	34484.15
2716.46687	34494.05
2719.07021	34475.65
2721.67194	34536.85
2724.27206	34513.15
2726.87057	34536.85
2729.46747	34564.45
2732.06276	34572.55
2734.65644	34554.85
2737.24852	34589.35
2739.83899	34499.65
2742.42786	34552.05
2745.01513	34554.95
2747.60079	34536.95
2750.18486	34509.25
2752.76733	34562.75
2755.3482	34494.65
2757.92747	34531.55
2760.50515	34485.15
2763.08123	34484.25
2765.65573	34430.95
2768.22863	34439.75
2770.79994	34441.55
2773.36967	34433.85
2775.9378	34430.55
2778.50435	34452.15
2781.06932	34410.35
2783.6327	34422.25
2786.1945	34403.65
2788.75471	34391.15
2791.31335	34327.35
2793.87041	34275.05
2796.42589	34211.45
2798.97979	34153.35
2801.53212	34055.95
2804.08288	34079.45
2806.63206	34001.95
2809.17967	33972.85
2811.72571	33900.65
2814.27018	33805.75
2816.81308	33796.25
2819.35442	33773.95
2821.89419	33735.15
2824.43239	33770.45
2826.96904	33758.45
2829.50412	33800.95
2832.03763	33716.25
2834.56959	33721.85
2837.1	33621.65
2839.62884	33656.15
2842.15613	33620.55
2844.68186	33673.35
2847.20604	33585.45
2849.72867	33602.75
2852.24974	33528.95
2854.76927	33481.95
2857.28724	33469.15
2859.80367	33459.35
2862.31855	33402.65
2864.83189	33382.15
2867.34368	33326.25
2869.85393	33363.45
2872.36264	33259.45
2874.8698	33269.85
2877.37543	33265.55
2879.87952	33224.75
2882.38207	33277.05
2884.88308	33285.65
2887.38256	33289.55
2889.88051	33261.95
2892.37692	33313.55
2894.8718	33323.65
2897.36515	33387.35
2899.85698	33364.25
2902.34727	33446.15
2904.83604	33440.35
2907.32328	33508.95
2909.809	33482.85
2912.29319	33537.15
2914.77587	33542.45
2917.25702	33478.25
2919.73665	33420.75
2922.21476	33452.95
2924.69136	33340.05
2927.16644	33386.85
2929.64	33270.75
2932.11205	33301.25
2934.58258	33172.05
2937.05161	33265.65
2939.51912	33291.55
2941.98513	33175.75
2944.44962	33156.65
2946.91261	33106.45
2949.37409	33153.35
2951.83407	33124.25
2954.29254	33096.95
2956.74951	33086.85
2959.20498	33105.25
2961.65895	33029.95
2964.11142	33024.05
2966.56239	32973.65
2969.01186	32986.15
2971.45984	32883.15
2973.90632	32794.35
2976.35131	32707.55
2978.7948	32663.85
2981.23681	32607.65
2983.67732	32614.35
2986.11635	32478.65
2988.55388	32412.25
2990.98993	32362.15
2993.4245	32329.05
2995.85758	32235.45
2998.28917	32152.35
3000.71928	32037.15
3003.14791	31992.75
3005.57506	32015.45
3008.00073	31888.45
3010.42493	31863.75
3012.84764	31782.35
3015.26888	31842.95
3017.68865	31695.55
3020.10694	31682.65
3022.52376	31569.45
3024.9391	31554.55
3027.35298	31500.45
3029.76539	31475.25
3032.17632	31459.55
3034.5858	31416.25
3036.9938	31386.25
3039.40034	31351.65
3041.80542	31397.75
3044.20903	31319.65
3046.61118	31330.75
3049.01187	31217.35
3051.4111	31166.55
3053.80888	31055.35
3056.20519	31050.25
3058.60005	30917.65
3060.99345	30857.15
3063.3854	30787.05
3065.7759	30666.85
3068.16494	30581.85
3070.55254	30492.35
3072.93868	30374.35
3075.32338	30253.05
3077.70662	30206.05
3080.08842	30105.25
3082.46878	30061.45
3084.84769	29971.35
3087.22515	29955.35
3089.60118	29948.55
3091.97576	29988.15
3094.3489	29912.55
3096.72061	29946.55
3099.09087	29934.65
3101.4597	29896.35
3103.82709	29920.55
3106.19305	29808.05
3108.55757	29864.45
3110.92066	29758.85
3113.28232	29746.65
3115.64255	29662.45
3118.00134	29563.45
3120.35871	29462.05
3122.71466	29361.65
3125.06917	29357.45
3127.42226	29294.35
3129.77393	29296.85
3132.12417	29255.65
3134.47299	29272.55
3136.82039	29217.95
3139.16636	29179.45
3141.51092	29176.25
3143.85406	29123.35
3146.19579	29137.75
3148.53609	29121.05
3150.87499	29127.35
3153.21246	29144.25
3155.54853	29197.85
3157.88318	29137.95
3160.21642	29115.35
3162.54826	29063.45
3164.87868	29038.35
3167.2077	29020.75
3169.5353	28963.15
3171.86151	28967.85
3174.18631	28985.45
3176.5097	28983.35
3178.83169	28936.55
3181.15228	28876.45
3183.47147	28811.75
3185.78926	28787.45
3188.10565	28754.25
3190.42065	28734.75
3192.73424	28692.95
3195.04645	28668.05
3197.35725	28683.75
3199.66667	28679.95
3201.97469	28686.75
3204.28132	28664.45
3206.58656	28648.65
3208.8904	28652.55
3211.19287	28661.75
3213.49394	28671.45
3215.79363	28686.75
3218.09193	28707.95
3220.38884	28715.15
3222.68438	28758.95
3224.97853	28636.25
3227.2713	28582.95
3229.56269	28620.05
3231.8527	28611.45
3234.14133	28591.95
3236.42858	28502.35
