Data from AgNPs_FTO_APTES_UA_20uM_CRN_10uM_R6G_10uM_NaF_0.1M_Addition_RamanShift__11__14-23-12-196.txt Node

Date: Thu Feb 17 14:23:12 GMT 2022
User: TCL
Spectrometer: QEP01345
Trigger mode: 4
Integration Time (sec): 7.000000E0
Scans to average: 10
Electric dark correction enabled: true
Nonlinearity correction enabled: false
Boxcar width: 0
XAxis mode: Raman Shifts
Number of Pixels in Spectrum: 1044
>>>>>Begin Spectral Data<<<<<
46.04893	-0.625
50.45542	-1.025
54.85868	-3.325
59.25871	-1.125
63.6555	125.075
68.04907	126.075
72.43941	131.575
76.82654	132.775
81.21044	139.875
85.59113	145.775
89.96862	150.775
94.34289	149.975
98.71396	155.775
103.08183	162.075
107.4465	165.475
111.80798	166.375
116.16626	175.375
120.52136	187.375
124.87327	192.275
129.222	206.375
133.56755	220.975
137.90993	237.475
142.24913	259.375
146.58517	300.375
150.91804	349.375
155.24774	420.475
159.57429	526.875
163.89768	681.775
168.21792	905.175
172.53501	1250.175
176.84895	1757.875
181.15975	2476.475
185.46741	3510.975
189.77193	4854.775
194.07331	6544.075
198.37157	8449.175
202.6667	10494.075
206.9587	12575.775
211.24758	14497.775
215.53334	16410.075
219.81599	18466.475
224.09553	20677.775
228.37195	23118.575
232.64527	25837.975
236.91549	28686.775
241.18261	31759.775
245.44663	34642.875
249.70755	37360.175
253.96539	39749.975
258.22014	41786.275
262.4718	43423.975
266.72039	44530.675
270.96589	45177.375
275.20832	45264.975
279.44768	45125.775
283.68397	44851.875
287.91719	44460.675
292.14735	44236.875
296.37445	44142.275
300.59849	44082.475
304.81948	44132.875
309.03742	44110.475
313.25231	43889.475
317.46415	43504.475
321.67296	42970.775
325.87872	42549.175
330.08145	42403.675
334.28114	42484.075
338.47781	42802.075
342.67145	43325.675
346.86207	43834.975
351.04966	44470.275
355.23424	45025.475
359.4158	45496.475
363.59435	45997.575
367.76989	46369.275
371.94243	46691.375
376.11196	46921.275
380.27849	47214.875
384.44203	47476.775
388.60257	47842.775
392.76012	48315.475
396.91468	48847.975
401.06626	49488.275
405.21485	49995.775
409.36047	50051.275
413.50311	49777.175
417.64277	49563.575
421.77947	49611.575
425.9132	49905.775
430.04396	50208.375
434.17176	50477.975
438.2966	50786.875
442.41849	51324.775
446.53742	52015.975
450.6534	52859.375
454.76644	53572.275
458.87653	53925.175
462.98368	54055.175
467.08789	53932.575
471.18916	53717.875
475.2875	53411.275
479.38291	53090.275
483.4754	52915.275
487.56496	52656.875
491.6516	52429.875
495.73531	52178.475
499.81612	51978.775
503.89401	52171.075
507.96899	52390.675
512.04106	52457.675
516.11023	52477.475
520.1765	52357.975
524.23987	52209.775
528.30034	52075.275
532.35792	51887.075
536.41261	51645.975
540.46441	51531.275
544.51333	51543.975
548.55936	51916.175
552.60252	52584.575
556.64279	53258.175
560.6802	53712.475
564.71473	54032.475
568.7464	54471.575
572.7752	55342.975
576.80114	56451.175
580.82422	57727.375
584.84444	58625.975
588.86181	59275.475
592.87633	59847.375
596.888	59892.875
600.89682	59363.075
604.9028	59732.375
608.90594	61757.675
612.90624	63737.475
616.90371	61333.275
620.89834	56358.375
624.89015	54297.575
628.87913	54104.475
632.86528	54492.575
636.84862	54643.075
640.82913	54371.275
644.80683	53735.275
648.78172	53241.075
652.75379	53179.575
656.72306	53480.175
660.68952	54042.775
664.65319	54029.475
668.61405	53740.775
672.57211	53772.975
676.52738	54004.675
680.47986	53940.175
684.42955	53779.975
688.37646	53750.975
692.32058	53933.375
696.26192	54318.175
700.20048	54813.275
704.13626	55203.175
708.06928	55363.875
711.99952	55269.375
715.927	55168.575
719.85171	55101.875
723.77365	55027.075
727.69284	54757.175
731.60928	54352.675
735.52295	54123.775
739.43388	54136.575
743.34206	54348.675
747.24749	54530.875
751.15017	54820.375
755.05012	55296.175
758.94733	56054.575
762.8418	57496.975
766.73354	59754.275
770.62254	61873.075
774.50882	62206.575
778.39237	60733.375
782.27321	58551.675
786.15132	56813.175
790.02671	55631.375
793.89938	54997.675
797.76935	54598.675
801.6366	54483.475
805.50115	54366.475
809.36299	54292.675
813.22213	54135.575
817.07857	54166.175
820.93231	54186.675
824.78336	54198.075
828.63172	54137.975
832.47738	54101.475
836.32036	54119.675
840.16066	54214.075
843.99827	54199.975
847.8332	54349.875
851.66546	54458.975
855.49504	54528.375
859.32195	54601.475
863.1462	54580.775
866.96777	54707.175
870.78668	54686.975
874.60293	54783.375
878.41652	54829.875
882.22745	54916.875
886.03573	55059.075
889.84136	55047.575
893.64433	54922.875
897.44466	54759.875
901.24235	54777.075
905.0374	54776.975
908.8298	54708.275
912.61957	54764.775
916.40671	55036.575
920.19121	55379.475
923.97308	55641.675
927.75233	55577.275
931.52895	55182.975
935.30295	54853.875
939.07433	54461.575
942.84309	54123.375
946.60924	53931.675
950.37278	53843.875
954.13371	53895.275
957.89203	54041.975
961.64774	53981.975
965.40086	53921.475
969.15137	53889.075
972.89929	53711.875
976.64461	53776.875
980.38733	53676.775
984.12747	53679.675
987.86502	53860.475
991.59999	54088.875
995.33237	54342.475
999.06217	54738.875
1002.78939	55282.775
1006.51404	55951.375
1010.23611	56603.275
1013.95561	57015.475
1017.67255	57100.975
1021.38692	56899.675
1025.09872	56449.175
1028.80796	56044.675
1032.51465	55814.775
1036.21877	55775.675
1039.92035	55826.775
1043.61937	56016.275
1047.31584	56171.975
1051.00976	56276.275
1054.70114	56517.275
1058.38998	56890.275
1062.07627	57231.675
1065.76003	57813.275
1069.44126	58345.075
1073.11995	58987.175
1076.79611	59543.175
1080.46974	59847.575
1084.14085	60085.575
1087.80943	60247.575
1091.47549	60568.275
1095.13903	60716.075
1098.80005	60457.875
1102.45857	59844.675
1106.11456	59174.675
1109.76805	58733.675
1113.41903	58635.175
1117.06751	58607.575
1120.71348	58810.175
1124.35696	59167.875
1127.99793	59478.175
1131.63641	59553.875
1135.2724	59477.475
1138.90589	59399.875
1142.5369	59477.875
1146.16542	59606.375
1149.79145	59823.375
1153.415	59989.275
1157.03607	60267.575
1160.65467	60792.175
1164.27079	61815.175
1167.88443	63195.475
1171.49561	64882.475
1175.10432	66878.175
1178.71056	69310.675
1182.31434	71803.875
1185.91565	73459.475
1189.51451	74050.375
1193.11091	73919.575
1196.70485	73050.175
1200.29634	71585.575
1203.88538	70310.275
1207.47197	69469.775
1211.05612	68705.875
1214.63782	67895.975
1218.21708	66967.575
1221.79391	65899.275
1225.36829	65242.675
1228.94024	64829.275
1232.50976	64486.875
1236.07685	64212.875
1239.6415	64138.675
1243.20374	64221.975
1246.76355	64503.275
1250.32093	64988.875
1253.8759	65774.975
1257.42845	66811.575
1260.97859	67922.975
1264.52631	68988.175
1268.07163	69929.275
1271.61453	70699.575
1275.15503	71482.875
1278.69312	72298.475
1282.22882	73160.475
1285.76211	74063.675
1289.29301	75281.275
1292.82151	76632.975
1296.34761	78345.275
1299.87133	80262.375
1303.39266	82402.175
1306.9116	84611.075
1310.42815	86341.175
1313.94233	87438.575
1317.45412	87230.175
1320.96354	86659.575
1324.47058	86229.475
1327.97525	85864.375
1331.47754	85714.375
1334.97747	85859.775
1338.47502	86557.675
1341.97022	87543.375
1345.46305	88647.075
1348.95352	89308.775
1352.44163	89289.575
1355.92738	89021.975
1359.41078	89137.675
1362.89183	89145.175
1366.37053	87526.575
1369.84688	83571.775
1373.32088	78881.075
1376.79254	75367.675
1380.26186	73583.375
1383.72883	73073.875
1387.19347	72778.075
1390.65578	72332.775
1394.11575	71764.975
1397.57339	71449.075
1401.0287	71437.775
1404.48168	71516.675
1407.93234	71338.675
1411.38068	70923.175
1414.82669	69998.775
1418.27039	68835.675
1421.71177	67574.875
1425.15083	66641.175
1428.58758	66037.875
1432.02203	66180.475
1435.45416	66813.475
1438.88399	67659.675
1442.31151	68457.975
1445.73673	68914.375
1449.15965	69313.875
1452.58027	69721.275
1455.9986	70007.875
1459.41463	70431.575
1462.82837	71298.075
1466.23982	72180.975
1469.64898	73156.175
1473.05586	73894.775
1476.46045	74307.275
1479.86276	74430.875
1483.26279	74296.475
1486.66054	74204.175
1490.05602	74421.575
1493.44922	75114.375
1496.84016	76096.275
1500.22882	77435.875
1503.61521	79317.875
1506.99934	81224.175
1510.38121	82287.075
1513.76081	82033.775
1517.13816	80608.575
1520.51324	78959.975
1523.88607	77819.675
1527.25665	77302.575
1530.62498	77165.675
1533.99105	76815.475
1537.35488	76266.875
1540.71647	75354.875
1544.07581	74387.675
1547.4329	73523.075
1550.78776	72608.075
1554.14038	71910.075
1557.49077	71558.175
1560.83892	71394.475
1564.18484	71236.475
1567.52853	71375.275
1570.86999	71682.875
1574.20922	72062.775
1577.54624	72296.075
1580.88103	71844.575
1584.2136	71545.075
1587.54395	71937.875
1590.87208	73302.775
1594.19801	75301.275
1597.52172	77398.975
1600.84321	78237.675
1604.16251	77004.175
1607.47959	74792.675
1610.79447	72153.975
1614.10715	69323.175
1617.41763	66529.775
1620.7259	64403.175
1624.03199	63061.475
1627.33587	62573.875
1630.63757	62970.975
1633.93707	64616.575
1637.23439	67305.275
1640.52951	71665.275
1643.82246	76844.875
1647.11321	81227.475
1650.40179	82656.375
1653.68819	80024.075
1656.97241	74631.475
1660.25446	68740.075
1663.53433	64113.175
1666.81203	60826.675
1670.08756	58813.775
1673.36092	57376.775
1676.63211	56484.675
1679.90115	55755.575
1683.16801	55239.675
1686.43272	54870.975
1689.69527	54586.775
1692.95567	54407.775
1696.2139	54275.475
1699.46999	54191.875
1702.72392	54060.875
1705.97571	54051.775
1709.22535	53910.175
1712.47284	53942.375
1715.71819	53914.575
1718.96139	53876.175
1722.20246	53726.675
1725.44139	53576.175
1728.67818	53426.375
1731.91284	53279.275
1735.14537	53086.375
1738.37576	52890.375
1741.60403	52843.475
1744.83017	52614.775
1748.05418	52574.975
1751.27607	52447.175
1754.49584	52458.775
1757.71349	52483.375
1760.92903	52457.775
1764.14244	52411.275
1767.35375	52310.575
1770.56294	52230.675
1773.77002	52192.875
1776.97499	52200.375
1780.17785	52122.275
1783.37861	52024.975
1786.57727	51954.875
1789.77382	51913.275
1792.96828	51842.875
1796.16064	51772.575
1799.3509	51704.775
1802.53907	51653.175
1805.72514	51566.375
1808.90913	51432.075
1812.09102	51395.375
1815.27083	51345.075
1818.44856	51219.075
1821.6242	51220.375
1824.79776	51138.875
1827.96924	51091.875
1831.13864	51066.975
1834.30597	51062.575
1837.47122	51006.875
1840.6344	50899.175
1843.7955	50957.075
1846.95454	50939.575
1850.11151	50933.975
1853.26642	50865.575
1856.41926	50873.675
1859.57004	50841.175
1862.71876	50805.575
1865.86542	50770.175
1869.01003	50706.975
1872.15258	50560.075
1875.29308	50601.175
1878.43152	50448.575
1881.56792	50444.575
1884.70227	50491.375
1887.83457	50395.375
1890.96482	50369.975
1894.09304	50262.575
1897.21921	50241.475
1900.34335	50103.475
1903.46544	50099.475
1906.58551	50059.375
1909.70353	50044.075
1912.81953	49930.175
1915.93349	49906.475
1919.04543	49756.375
1922.15534	49746.575
1925.26322	49695.075
1928.36908	49604.975
1931.47292	49561.975
1934.57473	49409.375
1937.67453	49356.475
1940.77232	49286.075
1943.86808	49125.775
1946.96184	48981.175
1950.05358	48841.475
1953.14331	48782.475
1956.23103	48643.375
1959.31675	48523.175
1962.40046	48381.475
1965.48217	48209.475
1968.56188	48069.675
1971.63959	47905.575
1974.7153	47858.875
1977.78901	47642.175
1980.86073	47574.075
1983.93046	47456.575
1986.99819	47307.175
1990.06394	47166.675
1993.1277	47101.275
1996.18947	46975.775
1999.24925	46845.675
2002.30706	46734.975
2005.36288	46622.375
2008.41672	46418.875
2011.46859	46306.875
2014.51848	46249.675
2017.56639	46086.775
2020.61233	45946.775
2023.6563	45852.875
2026.6983	45740.575
2029.73833	45582.475
2032.7764	45494.075
2035.8125	45403.875
2038.84664	45279.875
2041.87881	45268.375
2044.90903	45184.975
2047.93729	45171.475
2050.96359	45085.975
2053.98794	45088.275
2057.01034	45054.975
2060.03078	44993.475
2063.04927	44944.575
2066.06582	44930.875
2069.08042	44912.575
2072.09307	44823.575
2075.10378	44799.175
2078.11255	44774.575
2081.11938	44819.675
2084.12426	44765.975
2087.12722	44804.975
2090.12824	44737.575
2093.12732	44811.175
2096.12447	44840.675
2099.11969	44782.775
2102.11299	44760.875
2105.10435	44804.675
2108.09379	44861.475
2111.08131	44909.075
2114.0669	44858.875
2117.05057	44860.375
2120.03233	44993.375
2123.01216	45068.475
2125.99008	45094.075
2128.96609	45134.075
2131.94018	45118.075
2134.91236	45199.275
2137.88263	45231.675
2140.851	45173.675
2143.81746	45295.575
2146.78201	45310.975
2149.74466	45397.875
2152.7054	45354.475
2155.66425	45334.175
2158.6212	45364.975
2161.57625	45275.475
2164.52941	45300.875
2167.48067	45251.275
2170.43004	45211.875
2173.37752	45239.175
2176.32311	45261.575
2179.26681	45202.875
2182.20863	45241.575
2185.14856	45315.875
2188.08661	45278.375
2191.02278	45275.775
2193.95707	45133.975
2196.88948	45146.275
2199.82001	45139.475
2202.74867	45058.775
2205.67545	45004.575
2208.60037	44926.575
2211.52341	44893.775
2214.44458	44827.375
2217.36388	44756.075
2220.28132	44695.975
2223.1969	44560.975
2226.11061	44503.775
2229.02246	44386.875
2231.93245	44297.075
2234.84058	44206.775
2237.74686	44131.175
2240.65128	44138.675
2243.55385	44094.475
2246.45456	44102.975
2249.35343	44122.875
2252.25044	44026.975
2255.14561	43951.275
2258.03893	43847.875
2260.93041	43802.875
2263.82004	43705.875
2266.70783	43603.975
2269.59378	43509.675
2272.4779	43464.075
2275.36017	43366.875
2278.24061	43313.975
2281.11922	43187.175
2283.996	43074.875
2286.87094	43118.675
2289.74405	43091.575
2292.61534	42970.275
2295.4848	42884.875
2298.35243	42917.375
2301.21824	42854.075
2304.08223	42820.475
2306.94439	42780.675
2309.80474	42833.675
2312.66327	42753.875
2315.51999	42678.475
2318.37489	42620.575
2321.22797	42597.275
2324.07925	42573.075
2326.92871	42472.875
2329.77637	42373.175
2332.62222	42291.675
2335.46626	42304.775
2338.3085	42183.075
2341.14893	42123.575
2343.98756	42085.275
2346.8244	42093.375
2349.65943	42056.975
2352.49267	42035.875
2355.32411	42051.775
2358.15376	42028.875
2360.98161	41987.675
2363.80768	41991.075
2366.63195	41964.075
2369.45444	41908.475
2372.27514	41847.275
2375.09405	41835.475
2377.91118	41796.075
2380.72652	41689.175
2383.54009	41572.275
2386.35187	41552.175
2389.16188	41419.375
2391.97011	41297.475
2394.77657	41291.175
2397.58125	41168.775
2400.38416	41163.175
2403.18529	41082.075
2405.98466	41010.775
2408.78226	40980.175
2411.57809	40954.775
2414.37216	40870.075
2417.16446	40937.975
2419.955	40751.775
2422.74378	40789.175
2425.5308	40728.175
2428.31606	40755.475
2431.09956	40715.975
2433.88131	40662.675
2436.6613	40644.875
2439.43954	40632.775
2442.21603	40510.575
2444.99077	40506.375
2447.76377	40477.775
2450.53501	40414.275
2453.30451	40464.475
2456.07226	40345.375
2458.83827	40289.775
2461.60254	40298.275
2464.36507	40263.975
2467.12586	40250.475
2469.88492	40242.475
2472.64224	40245.575
2475.39782	40147.675
2478.15167	40199.075
2480.90379	40139.975
2483.65417	40176.875
2486.40283	40124.875
2489.14976	40096.575
2491.89497	40026.975
2494.63845	40074.375
2497.3802	39960.875
2500.12024	39980.475
2502.85855	39991.275
2505.59514	39878.875
2508.33002	39826.975
2511.06318	39778.075
2513.79462	39791.075
2516.52435	39719.075
2519.25237	39745.875
2521.97867	39644.975
2524.70327	39613.875
2527.42616	39581.375
2530.14734	39541.875
2532.86681	39494.575
2535.58458	39472.675
2538.30065	39362.775
2541.01501	39332.775
2543.72768	39321.575
2546.43864	39335.475
2549.14791	39255.975
2551.85548	39180.975
2554.56136	39023.575
2557.26554	38955.675
2559.96803	38854.575
2562.66883	38850.975
2565.36794	38822.975
2568.06536	38767.575
2570.7611	38685.975
2573.45514	38533.875
2576.14751	38549.575
2578.83819	38450.775
2581.52719	38421.575
2584.21451	38335.875
2586.90015	38276.675
2589.58411	38228.275
2592.2664	38178.175
2594.94701	38102.775
2597.62594	38072.375
2600.30321	38022.375
2602.9788	37998.775
2605.65273	37968.075
2608.32498	37931.475
2610.99557	37900.075
2613.66449	37839.175
2616.33175	37820.975
2618.99734	37771.975
2621.66128	37675.075
2624.32355	37594.675
2626.98416	37564.375
2629.64311	37522.275
2632.30041	37504.975
2634.95605	37414.575
2637.61004	37415.175
2640.26238	37349.075
2642.91306	37302.575
2645.56209	37253.575
2648.20948	37305.875
2650.85521	37254.075
2653.4993	37224.275
2656.14175	37241.575
2658.78255	37266.575
2661.42171	37274.775
2664.05923	37312.275
2666.6951	37267.275
2669.32934	37311.475
2671.96194	37194.675
2674.59291	37287.175
2677.22224	37256.775
2679.84993	37279.075
2682.476	37185.775
2685.10043	37189.475
2687.72324	37174.575
2690.34441	37226.475
2692.96396	37214.175
2695.58188	37243.575
2698.19818	37187.075
2700.81285	37109.675
2703.4259	37096.375
2706.03733	37177.475
2708.64714	37158.575
2711.25533	37154.275
2713.86191	37152.075
2716.46687	37234.875
2719.07021	37227.075
2721.67194	37176.775
2724.27206	37155.375
2726.87057	37127.975
2729.46747	37171.575
2732.06276	37134.675
2734.65644	37100.275
2737.24852	37193.375
2739.83899	37090.375
2742.42786	37174.275
2745.01513	37105.175
2747.60079	37032.975
2750.18486	37012.575
2752.76733	36999.475
2755.3482	36834.475
2757.92747	36826.875
2760.50515	36729.875
2763.08123	36762.475
2765.65573	36691.975
2768.22863	36719.175
2770.79994	36599.875
2773.36967	36601.275
2775.9378	36596.575
2778.50435	36569.375
2781.06932	36505.375
2783.6327	36458.775
2786.1945	36408.775
2788.75471	36342.475
2791.31335	36220.575
2793.87041	36232.575
2796.42589	36095.875
2798.97979	36122.775
2801.53212	35966.475
2804.08288	35954.275
2806.63206	35881.575
2809.17967	35775.375
2811.72571	35610.175
2814.27018	35501.975
2816.81308	35413.575
2819.35442	35364.575
2821.89419	35339.975
2824.43239	35275.675
2826.96904	35283.275
2829.50412	35273.175
2832.03763	35173.775
2834.56959	35132.375
2837.1	35069.875
2839.62884	34997.975
2842.15613	34886.275
2844.68186	34920.975
2847.20604	34873.275
2849.72867	34865.675
2852.24974	34784.975
2854.76927	34751.875
2857.28724	34668.775
2859.80367	34719.175
2862.31855	34656.375
2864.83189	34593.875
2867.34368	34516.675
2869.85393	34483.275
2872.36264	34460.675
2874.8698	34450.775
2877.37543	34350.475
2879.87952	34288.875
2882.38207	34272.275
2884.88308	34259.175
2887.38256	34285.575
2889.88051	34247.575
2892.37692	34290.275
2894.8718	34256.875
2897.36515	34312.175
2899.85698	34296.175
2902.34727	34257.675
2904.83604	34291.175
2907.32328	34316.575
2909.809	34349.075
2912.29319	34334.275
2914.77587	34325.375
2917.25702	34321.375
2919.73665	34282.075
2922.21476	34238.975
2924.69136	34233.875
2927.16644	34168.075
2929.64	34166.375
2932.11205	34055.675
2934.58258	34034.775
2937.05161	34105.075
2939.51912	34119.575
2941.98513	34090.775
2944.44962	34028.775
2946.91261	33982.375
2949.37409	34061.675
2951.83407	33994.075
2954.29254	33937.775
2956.74951	33961.875
2959.20498	33928.175
2961.65895	33909.175
2964.11142	33894.775
2966.56239	33891.475
2969.01186	33863.175
2971.45984	33762.075
2973.90632	33737.375
2976.35131	33749.775
2978.7948	33662.875
2981.23681	33625.975
2983.67732	33529.275
2986.11635	33529.275
2988.55388	33467.775
2990.98993	33401.175
2993.4245	33356.475
2995.85758	33265.875
2998.28917	33194.675
3000.71928	33112.875
3003.14791	33028.275
3005.57506	33014.275
3008.00073	32904.475
3010.42493	32909.175
3012.84764	32775.975
3015.26888	32789.475
3017.68865	32711.175
3020.10694	32710.175
3022.52376	32609.175
3024.9391	32582.375
3027.35298	32566.875
3029.76539	32534.775
3032.17632	32514.875
3034.5858	32397.775
3036.9938	32377.175
3039.40034	32324.575
3041.80542	32310.075
3044.20903	32199.375
3046.61118	32205.075
3049.01187	32098.975
3051.4111	32016.775
3053.80888	31978.175
3056.20519	31926.375
3058.60005	31818.375
3060.99345	31830.675
3063.3854	31724.175
3065.7759	31604.875
3068.16494	31502.975
3070.55254	31429.775
3072.93868	31395.075
3075.32338	31298.675
3077.70662	31211.575
3080.08842	31102.275
3082.46878	31056.075
3084.84769	31054.175
3087.22515	30999.475
3089.60118	30988.575
3091.97576	30955.275
3094.3489	30953.175
3096.72061	30899.175
3099.09087	30931.975
3101.4597	30936.075
3103.82709	30940.075
3106.19305	30892.475
3108.55757	30867.775
3110.92066	30819.075
3113.28232	30736.775
3115.64255	30676.975
3118.00134	30574.175
3120.35871	30448.875
3122.71466	30427.475
3125.06917	30358.775
