Data from AgNPs_FTO_APTES_UA_20uM_CRN_1uM_R6G_10uM_NaF_0.1M_Addition_RamanShift__30__12-37-02-057.txt Node

Date: Thu Feb 17 12:37:02 GMT 2022
User: TCL
Spectrometer: QEP01345
Trigger mode: 4
Integration Time (sec): 7.000000E0
Scans to average: 10
Electric dark correction enabled: true
Nonlinearity correction enabled: false
Boxcar width: 0
XAxis mode: Raman Shifts
Number of Pixels in Spectrum: 1044
>>>>>Begin Spectral Data<<<<<
46.04893	0.3
50.45542	-0.2
54.85868	-2.3
59.25871	-0.3
63.6555	71.8
68.04907	74.1
72.43941	79.3
76.82654	81.1
81.21044	84.9
85.59113	88
89.96862	90.5
94.34289	90.4
98.71396	95.6
103.08183	94.2
107.4465	100.2
111.80798	101.5
116.16626	103.4
120.52136	111.9
124.87327	111.5
129.222	117.2
133.56755	126.3
137.90993	133.2
142.24913	147.5
146.58517	161.8
150.91804	195
155.24774	227.8
159.57429	282
163.89768	366.1
168.21792	486.6
172.53501	663.4
176.84895	920.2
181.15975	1293.1
185.46741	1807.3
189.77193	2502.1
194.07331	3343.8
198.37157	4319.9
202.6667	5333.8
206.9587	6359.8
211.24758	7405.2
215.53334	8454.5
219.81599	9647.1
224.09553	10992.2
228.37195	12481.3
232.64527	14106.2
236.91549	15847.5
241.18261	17411.1
245.44663	18781.3
249.70755	19893.6
253.96539	20836.5
258.22014	21598.5
262.4718	22287.2
266.72039	22791.7
270.96589	23145.1
275.20832	23132
279.44768	22943.6
283.68397	22705.2
287.91719	22543.3
292.14735	22611.7
296.37445	22986.8
300.59849	23717.6
304.81948	24622.1
309.03742	25173.4
313.25231	25126.5
317.46415	24042.1
321.67296	22418.9
325.87872	21044.8
330.08145	20437.7
334.28114	20396.2
338.47781	20739
342.67145	21321
346.86207	22175.4
351.04966	23348.3
355.23424	24675.2
359.4158	25725
363.59435	26324.2
367.76989	26556.8
371.94243	26514.5
376.11196	26521.4
380.27849	26418.8
384.44203	26267.7
388.60257	25966.9
392.76012	25862.5
396.91468	26135.4
401.06626	26787.1
405.21485	27351
409.36047	27001.6
413.50311	25899.3
417.64277	24842.5
421.77947	24289.5
425.9132	24130.6
430.04396	24198
434.17176	24364.8
438.2966	24720
442.41849	25284.9
446.53742	26057.7
450.6534	26941.1
454.76644	27523.9
458.87653	27665.5
462.98368	27398.5
467.08789	26875.4
471.18916	26138.4
475.2875	25412.5
479.38291	24860.8
483.4754	24457.3
487.56496	24159.9
491.6516	23886.2
495.73531	23763.2
499.81612	23773.6
503.89401	24035.5
507.96899	24305
512.04106	24583.5
516.11023	24912.2
520.1765	25138.5
524.23987	25061.6
528.30034	24684.8
532.35792	24253.9
536.41261	23791.4
540.46441	23329.4
544.51333	23134
548.55936	23282
552.60252	23832.7
556.64279	24533.6
560.6802	24802.3
564.71473	25149.8
568.7464	26093.4
572.7752	26918.9
576.80114	26576.8
580.82422	26019.5
584.84444	25887.6
588.86181	25864.9
592.87633	25956.8
596.888	26190.9
600.89682	26848.2
604.9028	29577.9
608.90594	36951.6
612.90624	46260.9
616.90371	44172.8
620.89834	31902.2
624.89015	26269.3
628.87913	25254
632.86528	25320.8
636.84862	25467.4
640.82913	24990.6
644.80683	23968.1
648.78172	23314.6
652.75379	23422.3
656.72306	24346.4
660.68952	25513.8
664.65319	25334.8
668.61405	24226.2
672.57211	23684.6
676.52738	23580.4
680.47986	23596
684.42955	23513.6
688.37646	23433.5
692.32058	23574.6
696.26192	23832.5
700.20048	24173.1
704.13626	24467.4
708.06928	24441.2
711.99952	24249.8
715.927	24176.5
719.85171	24198.5
723.77365	24174.2
727.69284	23941.7
731.60928	23754.4
735.52295	23762.3
739.43388	23934
743.34206	24159
747.24749	24400.4
751.15017	24713.4
755.05012	25311.3
758.94733	26450.9
762.8418	29061.5
766.73354	33285.4
770.62254	37628.4
774.50882	39535.4
778.39237	37731.2
782.27321	32964.7
786.15132	28595.2
790.02671	26104.9
793.89938	25031.9
797.76935	24560.5
801.6366	24394.4
805.50115	24225.8
809.36299	24099.2
813.22213	24006.4
817.07857	23981.4
820.93231	24045.1
824.78336	24137.8
828.63172	24282.1
832.47738	24399.3
836.32036	24366.2
840.16066	24340.4
843.99827	24336.5
847.8332	24241.9
851.66546	24179.2
855.49504	24147.7
859.32195	24142.2
863.1462	24032.6
866.96777	23953
870.78668	23943.4
874.60293	24000.8
878.41652	24106.3
882.22745	24257.8
886.03573	24346
889.84136	24313.7
893.64433	24194.2
897.44466	24108.9
901.24235	24159.4
905.0374	24139.2
908.8298	24081.5
912.61957	24066.7
916.40671	24356.3
920.19121	24623.7
923.97308	24921.4
927.75233	25156.1
931.52895	25230.8
935.30295	24939.2
939.07433	24325.4
942.84309	23892.5
946.60924	23654.1
950.37278	23502
954.13371	23325.6
957.89203	23250.4
961.64774	23130.3
965.40086	23130.9
969.15137	23030.4
972.89929	22935.1
976.64461	22960
980.38733	22976.2
984.12747	23024.6
987.86502	23217.6
991.59999	23454.4
995.33237	23895.9
999.06217	24687.7
1002.78939	25639
1006.51404	26358.1
1010.23611	26976.8
1013.95561	27330.6
1017.67255	27295.1
1021.38692	26891.5
1025.09872	26572.9
1028.80796	26700.6
1032.51465	27342.4
1036.21877	27995.4
1039.92035	28197.2
1043.61937	27913.8
1047.31584	27317.6
1051.00976	26638.6
1054.70114	26256.6
1058.38998	26163.7
1062.07627	26261.4
1065.76003	26468.8
1069.44126	26686.5
1073.11995	26941.5
1076.79611	27233.4
1080.46974	27543.4
1084.14085	28046.5
1087.80943	28710.8
1091.47549	28933.1
1095.13903	28479.8
1098.80005	27685.1
1102.45857	26901.3
1106.11456	26608.5
1109.76805	26713.4
1113.41903	27180.2
1117.06751	27948
1120.71348	28879.3
1124.35696	29794.4
1127.99793	30581.9
1131.63641	30344.2
1135.2724	29263.1
1138.90589	28260.7
1142.5369	27697.3
1146.16542	27248.1
1149.79145	27035.4
1153.415	27194
1157.03607	27468.9
1160.65467	27960
1164.27079	28825.1
1167.88443	30223.1
1171.49561	32474.8
1175.10432	36092.8
1178.71056	40796.7
1182.31434	44505.3
1185.91565	45656.8
1189.51451	44709.9
1193.11091	42100.4
1196.70485	39006.2
1200.29634	36768.2
1203.88538	35108.1
1207.47197	33386.6
1211.05612	31960.9
1214.63782	31199.7
1218.21708	31144.4
1221.79391	31333.7
1225.36829	31421
1228.94024	31267.2
1232.50976	31084
1236.07685	31008.8
1239.6415	31160.2
1243.20374	31332.3
1246.76355	31581.7
1250.32093	32099
1253.8759	32910.6
1257.42845	34055.1
1260.97859	35078.3
1264.52631	35811.6
1268.07163	36627.4
1271.61453	37503.1
1275.15503	38330.1
1278.69312	39070.7
1282.22882	39660.7
1285.76211	40491.8
1289.29301	41557.4
1292.82151	42680.6
1296.34761	44103.2
1299.87133	46198.5
1303.39266	49587.5
1306.9116	54565.5
1310.42815	59867.7
1313.94233	62703.7
1317.45412	61551.7
1320.96354	58043.6
1324.47058	54293.7
1327.97525	51080.1
1331.47754	49287.9
1334.97747	48986.1
1338.47502	49816.4
1341.97022	51312.1
1345.46305	52683.3
1348.95352	54102.4
1352.44163	56062.2
1355.92738	59811.4
1359.41078	66450.9
1362.89183	72653.1
1366.37053	70417.8
1369.84688	60824.4
1373.32088	51446.4
1376.79254	45454.1
1380.26186	42316.3
1383.72883	40684
1387.19347	39662.6
1390.65578	38724.1
1394.11575	38161.6
1397.57339	38067.1
1401.0287	38535.3
1404.48168	39313.9
1407.93234	40453.3
1411.38068	41484.4
1414.82669	41820.7
1418.27039	40983
1421.71177	39648.3
1425.15083	38301.4
1428.58758	37757.8
1432.02203	37842.9
1435.45416	38122
1438.88399	38251.1
1442.31151	38341.2
1445.73673	38575.2
1449.15965	38887
1452.58027	38802.3
1455.9986	38462.1
1459.41463	38303.6
1462.82837	38618.9
1466.23982	39365.3
1469.64898	40188.6
1473.05586	40827.3
1476.46045	41386.6
1479.86276	42189.9
1483.26279	43158.5
1486.66054	44269.9
1490.05602	45803
1493.44922	47667.7
1496.84016	50075.8
1500.22882	53565.2
1503.61521	58296.1
1506.99934	63472
1510.38121	67907.8
1513.76081	69231.2
1517.13816	65557.1
1520.51324	58882.5
1523.88607	52616.1
1527.25665	48371.9
1530.62498	45939.9
1533.99105	44485.4
1537.35488	43556.1
1540.71647	43035.1
1544.07581	42778.9
1547.4329	42459.1
1550.78776	42045.8
1554.14038	41683.3
1557.49077	41672.5
1560.83892	42103.2
1564.18484	42796.6
1567.52853	43438.2
1570.86999	43955.2
1574.20922	44205.2
1577.54624	43828.3
1580.88103	42246.5
1584.2136	40423.3
1587.54395	40004.8
1590.87208	41455.2
1594.19801	44613.3
1597.52172	48315.5
1600.84321	50029.6
1604.16251	48367.6
1607.47959	44872.7
1610.79447	41019.9
1614.10715	37509.9
1617.41763	34865.3
1620.7259	33343.8
1624.03199	32625
1627.33587	32755.6
1630.63757	33614.4
1633.93707	35362.2
1637.23439	37837.7
1640.52951	41111.9
1643.82246	45155.9
1647.11321	49419.5
1650.40179	51984.8
1653.68819	50056.7
1656.97241	44078.7
1660.25446	37615.1
1663.53433	32997.2
1666.81203	30217.7
1670.08756	28585.5
1673.36092	27570.7
1676.63211	26911.7
1679.90115	26435.5
1683.16801	26070.8
1686.43272	25841.2
1689.69527	25665.1
1692.95567	25567.8
1696.2139	25546.7
1699.46999	25510.4
1702.72392	25452.4
1705.97571	25450
1709.22535	25382.6
1712.47284	25444.7
1715.71819	25451.8
1718.96139	25473.8
1722.20246	25397.4
1725.44139	25302.2
1728.67818	25163.1
1731.91284	24981.3
1735.14537	24861.3
1738.37576	24721.9
1741.60403	24710.8
1744.83017	24597.3
1748.05418	24564.8
1751.27607	24463.8
1754.49584	24540.8
1757.71349	24522.7
1760.92903	24491.5
1764.14244	24420.8
1767.35375	24473
1770.56294	24404
1773.77002	24435.5
1776.97499	24372.2
1780.17785	24358.3
1783.37861	24327.4
1786.57727	24268.7
1789.77382	24228.9
1792.96828	24241.4
1796.16064	24262.7
1799.3509	24225
1802.53907	24229.7
1805.72514	24147.1
1808.90913	24105.1
1812.09102	24050.9
1815.27083	24014.5
1818.44856	23950.8
1821.6242	23952.5
1824.79776	23909
1827.96924	23895.6
1831.13864	23896.7
1834.30597	23898.8
1837.47122	23862.4
1840.6344	23842.3
1843.7955	23853.3
1846.95454	23883
1850.11151	23848.6
1853.26642	23898.4
1856.41926	23903.7
1859.57004	23874.5
1862.71876	23897.7
1865.86542	23887.7
1869.01003	23920.8
1872.15258	23914.3
1875.29308	23933.4
1878.43152	23913.8
1881.56792	23968.2
1884.70227	23945.1
1887.83457	23970.1
1890.96482	23974.8
1894.09304	23955.8
1897.21921	23923.4
1900.34335	23929.6
1903.46544	23934.1
1906.58551	23943.7
1909.70353	23996.2
1912.81953	23988.5
1915.93349	24031.2
1919.04543	23986.7
1922.15534	23956.3
1925.26322	23922.1
1928.36908	23897.7
1931.47292	23824.2
1934.57473	23774
1937.67453	23678.8
1940.77232	23629.9
1943.86808	23542.4
1946.96184	23443.1
1950.05358	23393.9
1953.14331	23308.4
1956.23103	23227.4
1959.31675	23156.3
1962.40046	23065.3
1965.48217	23000.1
1968.56188	22948
1971.63959	22902.6
1974.7153	22853.9
1977.78901	22784
1980.86073	22674.8
1983.93046	22677.4
1986.99819	22590.9
1990.06394	22550.3
1993.1277	22471.4
1996.18947	22397.8
1999.24925	22364.1
2002.30706	22279.7
2005.36288	22197.3
2008.41672	22168.5
2011.46859	22097.4
2014.51848	22051.4
2017.56639	21983.9
2020.61233	21919.6
2023.6563	21856.3
2026.6983	21791
2029.73833	21799.6
2032.7764	21721.8
2035.8125	21717.9
2038.84664	21632.8
2041.87881	21639.1
2044.90903	21623.3
2047.93729	21581.9
2050.96359	21562.1
2053.98794	21519.6
2057.01034	21522.5
2060.03078	21507.8
2063.04927	21513.9
2066.06582	21471.5
2069.08042	21478.1
2072.09307	21433.5
2075.10378	21413.6
2078.11255	21355.4
2081.11938	21380.1
2084.12426	21360.2
2087.12722	21348.8
2090.12824	21354
2093.12732	21351.4
2096.12447	21316.7
2099.11969	21315.2
2102.11299	21333.1
2105.10435	21327.6
2108.09379	21353.2
2111.08131	21397.8
2114.0669	21330.4
2117.05057	21362.2
2120.03233	21387.2
2123.01216	21425.5
2125.99008	21456.8
2128.96609	21461.3
2131.94018	21495.1
2134.91236	21507.6
2137.88263	21512.1
2140.851	21536
2143.81746	21553.3
2146.78201	21516.6
2149.74466	21509.9
2152.7054	21557.6
2155.66425	21563.1
2158.6212	21522.4
2161.57625	21499.7
2164.52941	21539.2
2167.48067	21474.7
2170.43004	21500.3
2173.37752	21496.5
2176.32311	21511.4
2179.26681	21492.7
2182.20863	21523.8
2185.14856	21599
2188.08661	21553.3
2191.02278	21557
2193.95707	21523.2
2196.88948	21494.9
2199.82001	21514
2202.74867	21512.5
2205.67545	21500
2208.60037	21435.7
2211.52341	21457.6
2214.44458	21452.3
2217.36388	21413
2220.28132	21370.7
2223.1969	21350.2
2226.11061	21291.7
2229.02246	21212
2231.93245	21205.4
2234.84058	21134.7
2237.74686	21148.8
2240.65128	21127.6
2243.55385	21063.2
2246.45456	21083.8
2249.35343	21047.8
2252.25044	21036.4
2255.14561	21014.8
2258.03893	21037.1
2260.93041	21027.1
2263.82004	20950.9
2266.70783	20916.6
2269.59378	20831.6
2272.4779	20799.6
2275.36017	20775.4
2278.24061	20747.4
2281.11922	20693.3
2283.996	20643
2286.87094	20645.4
2289.74405	20591.1
2292.61534	20610.5
2295.4848	20565.1
2298.35243	20590.1
2301.21824	20563.1
2304.08223	20530.9
2306.94439	20543.7
2309.80474	20571.6
2312.66327	20566.7
2315.51999	20572.9
2318.37489	20590.2
2321.22797	20533.7
2324.07925	20507
2326.92871	20484.9
2329.77637	20476.4
2332.62222	20437
2335.46626	20466.1
2338.3085	20475.1
2341.14893	20508.7
2343.98756	20460.7
2346.8244	20502.6
2349.65943	20522.7
2352.49267	20555.4
2355.32411	20584.2
2358.15376	20591.7
2360.98161	20585.2
2363.80768	20551.1
2366.63195	20560.9
2369.45444	20499.9
2372.27514	20512
2375.09405	20466.8
2377.91118	20376
2380.72652	20267.2
2383.54009	20226.4
2386.35187	20180.5
2389.16188	20127.7
2391.97011	20070.8
2394.77657	20023.2
2397.58125	20014.2
2400.38416	19984.1
2403.18529	19921.4
2405.98466	19899.8
2408.78226	19849.7
2411.57809	19812.9
2414.37216	19750.1
2417.16446	19741.8
2419.955	19750.1
2422.74378	19712.6
2425.5308	19699.4
2428.31606	19717.1
2431.09956	19701.8
2433.88131	19684.7
2436.6613	19679.4
2439.43954	19686.4
2442.21603	19656.8
2444.99077	19644.7
2447.76377	19662.2
2450.53501	19624.5
2453.30451	19642.8
2456.07226	19605
2458.83827	19644.6
2461.60254	19580.7
2464.36507	19583
2467.12586	19583.5
2469.88492	19605.8
2472.64224	19587.7
2475.39782	19578.1
2478.15167	19608.7
2480.90379	19625.8
2483.65417	19689.2
2486.40283	19726
2489.14976	19749.5
2491.89497	19741.8
2494.63845	19765.2
2497.3802	19764.2
2500.12024	19732.3
2502.85855	19742.6
2505.59514	19679
2508.33002	19630.6
2511.06318	19600.2
2513.79462	19555.5
2516.52435	19481.7
2519.25237	19472.9
2521.97867	19458.8
2524.70327	19423.3
2527.42616	19386.2
2530.14734	19362.4
2532.86681	19340.3
2535.58458	19356.3
2538.30065	19362.3
2541.01501	19362.4
2543.72768	19357.3
2546.43864	19332
2549.14791	19302.9
2551.85548	19289
2554.56136	19264.7
2557.26554	19257.9
2559.96803	19186.3
2562.66883	19168.5
2565.36794	19121.9
2568.06536	19150.7
2570.7611	19093.7
2573.45514	19051.3
2576.14751	19056.2
2578.83819	19047.3
2581.52719	19065.8
2584.21451	19023.1
2586.90015	19028.4
2589.58411	19005.1
2592.2664	18989.4
2594.94701	18999.8
2597.62594	19007.3
2600.30321	18977.4
2602.9788	18990.3
2605.65273	18981.6
2608.32498	18983.1
2610.99557	18949.1
2613.66449	19004.5
2616.33175	18994.5
2618.99734	18995.2
2621.66128	18963.1
2624.32355	18969.8
2626.98416	18945.9
2629.64311	18947.7
2632.30041	18904.5
2634.95605	18902
2637.61004	18886.3
2640.26238	18868.9
2642.91306	18794.8
2645.56209	18778
2648.20948	18765.8
2650.85521	18723.4
2653.4993	18729.7
2656.14175	18747.6
2658.78255	18752.9
2661.42171	18760
2664.05923	18833.9
2666.6951	18863.1
2669.32934	18849.2
2671.96194	18869
2674.59291	18902.9
2677.22224	18927.5
2679.84993	18937.2
2682.476	18889.5
2685.10043	18874.8
2687.72324	18856.1
2690.34441	18871.2
2692.96396	18844.9
2695.58188	18850.1
2698.19818	18835.1
2700.81285	18833.2
2703.4259	18820.9
2706.03733	18847.1
2708.64714	18798.7
2711.25533	18792.8
2713.86191	18818
2716.46687	18860.6
2719.07021	18815.3
2721.67194	18863.8
2724.27206	18827.4
2726.87057	18860.5
2729.46747	18870.2
2732.06276	18841.2
2734.65644	18859.7
2737.24852	18872.3
2739.83899	18806.5
2742.42786	18862.2
2745.01513	18800.9
2747.60079	18829.3
2750.18486	18804.5
2752.76733	18795.8
2755.3482	18781.2
2757.92747	18792
2760.50515	18753.7
2763.08123	18733.1
2765.65573	18694.2
2768.22863	18699.5
2770.79994	18694.2
2773.36967	18669.8
2775.9378	18693.8
2778.50435	18693.6
2781.06932	18662
2783.6327	18651.4
2786.1945	18636.9
2788.75471	18633.2
2791.31335	18622.4
2793.87041	18574.6
2796.42589	18500.9
2798.97979	18549.9
2801.53212	18469.7
2804.08288	18474.5
2806.63206	18447
2809.17967	18443.4
2811.72571	18374.7
2814.27018	18370.6
2816.81308	18354.8
2819.35442	18342.4
2821.89419	18324.2
2824.43239	18356.5
2826.96904	18349
2829.50412	18351.1
2832.03763	18315.1
2834.56959	18388.8
2837.1	18291.7
2839.62884	18314.2
2842.15613	18286.2
2844.68186	18274.1
2847.20604	18310.1
2849.72867	18302.4
2852.24974	18297.3
2854.76927	18266
2857.28724	18266.2
2859.80367	18238.3
2862.31855	18236.7
2864.83189	18206.3
2867.34368	18181.7
2869.85393	18182.6
2872.36264	18153.8
2874.8698	18133.4
2877.37543	18117.2
2879.87952	18098.1
2882.38207	18100.8
2884.88308	18096.8
2887.38256	18080.5
2889.88051	18068.7
2892.37692	18095.2
2894.8718	18082.4
2897.36515	18119.3
2899.85698	18099.5
2902.34727	18133.2
2904.83604	18111.5
2907.32328	18134
2909.809	18129.4
2912.29319	18148.8
2914.77587	18133.9
2917.25702	18133.9
2919.73665	18079.1
2922.21476	18097.2
2924.69136	18032.8
2927.16644	18048.2
2929.64	18037.6
2932.11205	17990.1
2934.58258	17964.3
2937.05161	17968.8
2939.51912	17950.7
2941.98513	17926.6
2944.44962	17894.6
2946.91261	17851.1
2949.37409	17878.9
2951.83407	17796.7
2954.29254	17828.4
2956.74951	17789.7
2959.20498	17786.4
2961.65895	17774.2
2964.11142	17762.7
2966.56239	17708
2969.01186	17711.4
2971.45984	17640.9
2973.90632	17596.8
2976.35131	17549.2
2978.7948	17524.8
2981.23681	17515.6
2983.67732	17457.3
2986.11635	17452
2988.55388	17396.6
2990.98993	17355.2
2993.4245	17306.2
2995.85758	17273.4
2998.28917	17216.4
3000.71928	17193.8
3003.14791	17169.9
3005.57506	17158.3
3008.00073	17082.4
3010.42493	17086.9
3012.84764	17040.5
3015.26888	17055.8
3017.68865	16985.6
3020.10694	16940.5
3022.52376	16902.3
3024.9391	16888.5
3027.35298	16871.6
3029.76539	16817.2
3032.17632	16829.1
3034.5858	16804.2
3036.9938	16789.9
3039.40034	16763
3041.80542	16761
3044.20903	16734.7
3046.61118	16718.6
3049.01187	16624.8
3051.4111	16640.2
3053.80888	16553.6
3056.20519	16529.8
3058.60005	16480.7
3060.99345	16416.5
3063.3854	16361.5
3065.7759	16326.2
3068.16494	16261.4
3070.55254	16210.5
3072.93868	16163.2
3075.32338	16090.8
3077.70662	16055
3080.08842	15974.3
3082.46878	15934.7
3084.84769	15896.6
3087.22515	15885.3
3089.60118	15882.7
3091.97576	15853.2
3094.3489	15857.8
3096.72061	15851
3099.09087	15831
3101.4597	15836.6
3103.82709	15821.1
3106.19305	15817.7
3108.55757	15800.4
3110.92066	15749.3
3113.28232	15680.7
3115.64255	15641.8
3118.00134	15628.5
3120.35871	15579.4
3122.71466	15534.5
3125.06917	15539.1
3127.42226	15496.3
3129.77393	15452.2
3132.12417	15422.7
3134.47299	15440.9
3136.82039	15431.8
3139.16636	15428
3141.51092	15396
3143.85406	15378.2
3146.19579	15355.9
3148.53609	15351.3
3150.87499	15389.8
3153.21246	15357.7
3155.54853	15378.6
3157.88318	15339.2
3160.21642	15385.8
3162.54826	15352.9
3164.87868	15309.2
3167.2077	15270.8
3169.5353	15279.8
3171.86151	15255.1
3174.18631	15249.5
3176.5097	15279.8
3178.83169	15206.5
3181.15228	15192.1
3183.47147	15154.2
3185.78926	15155.8
3188.10565	15113.3
3190.42065	15100.4
3192.73424	15093
3195.04645	15079.3
3197.35725	15078.1
3199.66667	15048.3
3201.97469	15050.1
3204.28132	15012
3206.58656	15042.7
3208.8904	15079.7
3211.19287	15088.8
3213.49394	15062
3215.79363	15055.9
3218.09193	15072.2
3220.38884	15075
3222.68438	15093.3
3224.97853	15042.3
3227.2713	15029.3
3229.56269	15005.8
3231.8527	15054.4
3234.14133	14984.3
3236.42858	14948.1
3238.71446	14907
3240.99896	14867.2
3243.28209	14886.6
3245.56384	14826
3247.84423	14816.6
3250.12324	14798.2
3252.40088	14777.2
3254.67715	14784.7
3256.95205	14724.9
3259.22558	14766.4
3261.49775	14724.5
3263.76855	14708.9
3266.03799	14663.9
3268.30606	14632.1
3270.57277	14646.6
3272.83812	14605.5
3275.10211	14578.5
3277.36474	14567.1
3279.62601	14537
3281.88593	14497.9
3284.14448	14515.4
3286.40168	14495.2
3288.65753	14491.2
3290.91202	14472.2
3293.16516	14457
3295.41695	14421.3
3297.66738	14346.1
3299.91647	14253.3
3302.16421	14154.6
3304.4106	14096.1
3306.65564	14029.7
3308.89933	13896.9
3311.14169	13828.1
3313.38269	13687.8
3315.62236	13629.7
3317.86068	13485
3320.09766	13385.9
3322.3333	13280.5
3324.5676	13228.6
3326.80056	13032.4
3329.03219	12925.5
3331.26248	4.1
3333.49143	-1
3335.71905	-0.6
