Data from AgNPs_FTO_APTES_UA_20uM_CRN_0uM_R6G_10uM_NaF_0.1M_Addition_RamanShift__17__11-09-31-942.txt Node

Date: Thu Feb 17 11:09:31 GMT 2022
User: TCL
Spectrometer: QEP01345
Trigger mode: 4
Integration Time (sec): 7.000000E0
Scans to average: 10
Electric dark correction enabled: true
Nonlinearity correction enabled: false
Boxcar width: 0
XAxis mode: Raman Shifts
Number of Pixels in Spectrum: 1044
>>>>>Begin Spectral Data<<<<<
46.04893	1.0375
50.45542	1.4375
54.85868	-2.4625
59.25871	0.8375
63.6555	41.8375
68.04907	41.1375
72.43941	46.7375
76.82654	46.3375
81.21044	51.1375
85.59113	52.1375
89.96862	51.2375
94.34289	54.3375
98.71396	59.3375
103.08183	61.2375
107.4465	61.8375
111.80798	58.5375
116.16626	61.6375
120.52136	68.0375
124.87327	64.6375
129.222	70.6375
133.56755	74.1375
137.90993	75.8375
142.24913	84.8375
146.58517	95.7375
150.91804	110.7375
155.24774	131.7375
159.57429	164.3375
163.89768	215.2375
168.21792	283.9375
172.53501	383.9375
176.84895	529.6375
181.15975	754.2375
185.46741	1057.2375
189.77193	1449.4375
194.07331	1946.3375
198.37157	2500.1375
202.6667	3082.0375
206.9587	3675.1375
211.24758	4293.8375
215.53334	4940.2375
219.81599	5697.4375
224.09553	6531.1375
228.37195	7472.3375
232.64527	8457.1375
236.91549	9414.6375
241.18261	10237.8375
245.44663	10874.0375
249.70755	11302.1375
253.96539	11681.1375
258.22014	12025.6375
262.4718	12310.4375
266.72039	12520.4375
270.96589	12543.7375
275.20832	12367.0375
279.44768	12073.2375
283.68397	11793.9375
287.91719	11582.4375
292.14735	11645.7375
296.37445	11969.8375
300.59849	12591.8375
304.81948	13418.0375
309.03742	14151.1375
313.25231	14390.4375
317.46415	13780.8375
321.67296	12549.7375
325.87872	11444.1375
330.08145	10814.2375
334.28114	10751.0375
338.47781	10909.3375
342.67145	11297.5375
346.86207	11876.2375
351.04966	12760.4375
355.23424	13810.1375
359.4158	14582.3375
363.59435	14841.3375
367.76989	14743.3375
371.94243	14565.0375
376.11196	14351.7375
380.27849	14175.1375
384.44203	13928.1375
388.60257	13629.9375
392.76012	13489.8375
396.91468	13586.3375
401.06626	13923.9375
405.21485	14190.4375
409.36047	13822.0375
413.50311	12828.0375
417.64277	11884.9375
421.77947	11365.4375
425.9132	11157.9375
430.04396	11081.7375
434.17176	11133.8375
438.2966	11287.6375
442.41849	11675.0375
446.53742	12156.5375
450.6534	12614.1375
454.76644	12767.2375
458.87653	12634.4375
462.98368	12294.9375
467.08789	11961.3375
471.18916	11626.9375
475.2875	11233.8375
479.38291	10886.3375
483.4754	10624.1375
487.56496	10430.5375
491.6516	10333.2375
495.73531	10282.3375
499.81612	10312.0375
503.89401	10488.5375
507.96899	10732.8375
512.04106	10983.8375
516.11023	11204.6375
520.1765	11399.7375
524.23987	11371.8375
528.30034	11189.0375
532.35792	10969.6375
536.41261	10638.2375
540.46441	10249.7375
544.51333	10037.7375
548.55936	10061.1375
552.60252	10344.2375
556.64279	10784.6375
560.6802	11073.1375
564.71473	11408.4375
568.7464	12170.6375
572.7752	12701.9375
576.80114	12197.3375
580.82422	11440.9375
584.84444	11137.2375
588.86181	11274.3375
592.87633	11712.3375
596.888	11982.2375
600.89682	12050.1375
604.9028	13421.5375
608.90594	18385.2375
612.90624	25562.8375
616.90371	25073.7375
620.89834	15997.2375
624.89015	11203.7375
628.87913	10260.8375
632.86528	10432.3375
636.84862	10760.9375
640.82913	10588.0375
644.80683	9846.0375
648.78172	9279.1375
652.75379	9257.9375
656.72306	9803.1375
660.68952	10562.5375
664.65319	10435.8375
668.61405	9634.7375
672.57211	9218.2375
676.52738	9189.5375
680.47986	9131.7375
684.42955	8951.7375
688.37646	8792.3375
692.32058	8823.8375
696.26192	8941.8375
700.20048	9157.2375
704.13626	9294.0375
708.06928	9270.8375
711.99952	9171.1375
715.927	9134.7375
719.85171	9191.7375
723.77365	9257.7375
727.69284	9131.6375
731.60928	9007.0375
735.52295	9001.4375
739.43388	9040.7375
743.34206	9090.7375
747.24749	9114.0375
751.15017	9189.0375
755.05012	9397.6375
758.94733	10064.3375
762.8418	11831.5375
766.73354	14898.7375
770.62254	18066.4375
774.50882	19633.9375
778.39237	18831.4375
782.27321	15828.6375
786.15132	12543.2375
790.02671	10545.8375
793.89938	9603.3375
797.76935	9172.6375
801.6366	8996.4375
805.50115	8872.4375
809.36299	8786.0375
813.22213	8696.0375
817.07857	8618.6375
820.93231	8608.5375
824.78336	8632.9375
828.63172	8701.4375
832.47738	8730.0375
836.32036	8674.2375
840.16066	8573.3375
843.99827	8507.5375
847.8332	8475.0375
851.66546	8465.7375
855.49504	8461.9375
859.32195	8430.8375
863.1462	8361.0375
866.96777	8313.3375
870.78668	8314.5375
874.60293	8323.4375
878.41652	8378.6375
882.22745	8449.2375
886.03573	8554.4375
889.84136	8526.8375
893.64433	8475.3375
897.44466	8462.2375
901.24235	8421.7375
905.0374	8365.7375
908.8298	8253.3375
912.61957	8191.2375
916.40671	8196.6375
920.19121	8268.9375
923.97308	8407.8375
927.75233	8633.2375
931.52895	8790.5375
935.30295	8686.9375
939.07433	8275.3375
942.84309	7864.9375
946.60924	7646.9375
950.37278	7551.8375
954.13371	7506.3375
957.89203	7478.5375
961.64774	7429.1375
965.40086	7412.0375
969.15137	7389.1375
972.89929	7334.3375
976.64461	7308.9375
980.38733	7307.1375
984.12747	7304.0375
987.86502	7329.0375
991.59999	7402.4375
995.33237	7543.1375
999.06217	7742.4375
1002.78939	8045.7375
1006.51404	8364.4375
1010.23611	8599.9375
1013.95561	8744.1375
1017.67255	8687.1375
1021.38692	8439.6375
1025.09872	8147.8375
1028.80796	7923.9375
1032.51465	7862.7375
1036.21877	7863.8375
1039.92035	7924.8375
1043.61937	7974.0375
1047.31584	8017.0375
1051.00976	8035.1375
1054.70114	7992.6375
1058.38998	7985.4375
1062.07627	7980.5375
1065.76003	8011.5375
1069.44126	8065.1375
1073.11995	8215.1375
1076.79611	8479.3375
1080.46974	8818.2375
1084.14085	9329.6375
1087.80943	9841.3375
1091.47549	10037.1375
1095.13903	9709.4375
1098.80005	9162.7375
1102.45857	8705.4375
1106.11456	8526.2375
1109.76805	8658.5375
1113.41903	9003.9375
1117.06751	9528.2375
1120.71348	10307.4375
1124.35696	11207.2375
1127.99793	11946.9375
1131.63641	11749.6375
1135.2724	10813.2375
1138.90589	9899.6375
1142.5369	9380.8375
1146.16542	9027.4375
1149.79145	8850.3375
1153.415	8777.4375
1157.03607	8867.2375
1160.65467	9139.2375
1164.27079	9699.6375
1167.88443	10634.6375
1171.49561	12100.4375
1175.10432	14456.9375
1178.71056	17568.6375
1182.31434	19940.2375
1185.91565	20462.2375
1189.51451	19565.6375
1193.11091	18011.3375
1196.70485	16269.8375
1200.29634	14812.7375
1203.88538	13617.7375
1207.47197	12239.8375
1211.05612	11067.7375
1214.63782	10480.3375
1218.21708	10359.1375
1221.79391	10481.6375
1225.36829	10569.8375
1228.94024	10427.2375
1232.50976	10183.4375
1236.07685	10011.0375
1239.6415	9958.5375
1243.20374	9956.9375
1246.76355	9953.4375
1250.32093	10045.0375
1253.8759	10299.4375
1257.42845	10756.1375
1260.97859	11400.8375
1264.52631	12135.6375
1268.07163	12857.9375
1271.61453	13455.3375
1275.15503	13882.0375
1278.69312	14061.7375
1282.22882	14133.8375
1285.76211	14584.9375
1289.29301	15374.9375
1292.82151	16266.9375
1296.34761	17247.9375
1299.87133	18605.5375
1303.39266	20814.9375
1306.9116	24201.0375
1310.42815	28069.4375
1313.94233	30370.2375
1317.45412	29315.8375
1320.96354	26197.8375
1324.47058	22925.3375
1327.97525	20168.3375
1331.47754	18436.6375
1334.97747	17711.7375
1338.47502	17754.1375
1341.97022	18319.8375
1345.46305	19441.2375
1348.95352	21202.9375
1352.44163	23658.9375
1355.92738	27161.6375
1359.41078	32539.3375
1362.89183	37550.1375
1366.37053	36189.5375
1369.84688	29046.9375
1373.32088	22312.1375
1376.79254	18346.8375
1380.26186	16320.8375
1383.72883	15142.4375
1387.19347	14214.8375
1390.65578	13416.3375
1394.11575	12990.7375
1397.57339	12859.6375
1401.0287	12949.6375
1404.48168	13101.3375
1407.93234	13124.6375
1411.38068	12996.2375
1414.82669	12793.3375
1418.27039	12553.0375
1421.71177	12206.2375
1425.15083	11835.4375
1428.58758	11673.8375
1432.02203	11860.6375
1435.45416	12099.1375
1438.88399	12251.0375
1442.31151	12259.0375
1445.73673	12372.3375
1449.15965	12537.0375
1452.58027	12612.2375
1455.9986	12486.7375
1459.41463	12523.7375
1462.82837	12760.8375
1466.23982	13177.7375
1469.64898	13616.5375
1473.05586	13860.5375
1476.46045	13920.5375
1479.86276	14031.4375
1483.26279	14297.8375
1486.66054	14712.1375
1490.05602	15400.3375
1493.44922	16401.9375
1496.84016	17947.3375
1500.22882	20595.0375
1503.61521	24236.8375
1506.99934	28669.7375
1510.38121	32755.5375
1513.76081	34494.5375
1517.13816	31940.8375
1520.51324	26578.1375
1523.88607	21359.6375
1527.25665	17993.3375
1530.62498	16196.1375
1533.99105	15132.4375
1537.35488	14411.5375
1540.71647	13887.9375
1544.07581	13522.2375
1547.4329	13385.5375
1550.78776	13352.7375
1554.14038	13444.0375
1557.49077	13692.4375
1560.83892	14115.3375
1564.18484	14774.3375
1567.52853	15579.1375
1570.86999	16268.9375
1574.20922	16683.4375
1577.54624	16536.6375
1580.88103	15308.7375
1584.2136	13590.8375
1587.54395	12648.0375
1590.87208	12798.6375
1594.19801	13881.8375
1597.52172	15414.3375
1600.84321	16164.5375
1604.16251	15462.0375
1607.47959	14022.2375
1610.79447	12432.7375
1614.10715	11031.7375
1617.41763	9902.5375
1620.7259	9188.1375
1624.03199	8856.9375
1627.33587	8894.4375
1630.63757	9253.1375
1633.93707	10102.9375
1637.23439	11646.4375
1640.52951	14064.3375
1643.82246	17511.5375
1647.11321	21283.0375
1650.40179	23726.6375
1653.68819	22674.9375
1656.97241	18443.8375
1660.25446	13855.4375
1663.53433	10660.4375
1666.81203	8845.0375
1670.08756	7820.8375
1673.36092	7256.0375
1676.63211	6899.9375
1679.90115	6642.5375
1683.16801	6468.9375
1686.43272	6344.2375
1689.69527	6272.4375
1692.95567	6199.5375
1696.2139	6134.1375
1699.46999	6124.4375
1702.72392	6105.1375
1705.97571	6058.4375
1709.22535	6003.7375
1712.47284	6004.2375
1715.71819	6032.2375
1718.96139	6025.7375
1722.20246	6008.5375
1725.44139	5953.8375
1728.67818	5860.6375
1731.91284	5799.6375
1735.14537	5711.3375
1738.37576	5592.3375
1741.60403	5637.0375
1744.83017	5593.3375
1748.05418	5580.4375
1751.27607	5543.1375
1754.49584	5527.8375
1757.71349	5528.3375
1760.92903	5488.2375
1764.14244	5491.5375
1767.35375	5466.9375
1770.56294	5438.8375
1773.77002	5410.6375
1776.97499	5372.1375
1780.17785	5337.9375
1783.37861	5319.1375
1786.57727	5296.2375
1789.77382	5283.4375
1792.96828	5267.6375
1796.16064	5275.1375
1799.3509	5254.4375
1802.53907	5228.2375
1805.72514	5221.9375
1808.90913	5184.1375
1812.09102	5176.6375
1815.27083	5155.8375
1818.44856	5137.2375
1821.6242	5117.5375
1824.79776	5112.3375
1827.96924	5095.1375
1831.13864	5101.9375
1834.30597	5092.5375
1837.47122	5080.9375
1840.6344	5072.0375
1843.7955	5067.7375
1846.95454	5058.8375
1850.11151	5063.8375
1853.26642	5037.3375
1856.41926	5046.8375
1859.57004	5049.5375
1862.71876	5039.4375
1865.86542	5042.4375
1869.01003	5032.5375
1872.15258	5024.9375
1875.29308	5028.8375
1878.43152	5034.6375
1881.56792	5025.4375
1884.70227	5022.0375
1887.83457	5036.3375
1890.96482	5034.5375
1894.09304	5025.0375
1897.21921	5008.2375
1900.34335	5009.3375
1903.46544	5016.8375
1906.58551	5034.8375
1909.70353	5014.0375
1912.81953	5022.1375
1915.93349	5010.1375
1919.04543	4983.3375
1922.15534	4958.8375
1925.26322	4920.8375
1928.36908	4904.8375
1931.47292	4874.6375
1934.57473	4836.4375
1937.67453	4802.5375
1940.77232	4776.8375
1943.86808	4768.7375
1946.96184	4759.8375
1950.05358	4733.8375
1953.14331	4722.3375
1956.23103	4697.8375
1959.31675	4690.1375
1962.40046	4670.1375
1965.48217	4667.8375
1968.56188	4679.2375
1971.63959	4673.7375
1974.7153	4664.8375
1977.78901	4644.7375
1980.86073	4641.0375
1983.93046	4588.7375
1986.99819	4575.4375
1990.06394	4558.7375
1993.1277	4531.8375
1996.18947	4523.5375
1999.24925	4503.4375
2002.30706	4480.1375
2005.36288	4466.6375
2008.41672	4442.5375
2011.46859	4433.9375
2014.51848	4428.8375
2017.56639	4407.6375
2020.61233	4403.5375
2023.6563	4384.9375
2026.6983	4369.5375
2029.73833	4340.7375
2032.7764	4340.0375
2035.8125	4334.9375
2038.84664	4320.0375
2041.87881	4310.9375
2044.90903	4307.8375
2047.93729	4301.1375
2050.96359	4278.3375
2053.98794	4274.9375
2057.01034	4260.8375
2060.03078	4288.2375
2063.04927	4267.6375
2066.06582	4274.0375
2069.08042	4251.3375
2072.09307	4247.3375
2075.10378	4229.6375
2078.11255	4231.2375
2081.11938	4248.6375
2084.12426	4244.3375
2087.12722	4228.6375
2090.12824	4233.1375
2093.12732	4241.9375
2096.12447	4248.6375
2099.11969	4234.3375
2102.11299	4239.7375
2105.10435	4261.4375
2108.09379	4248.7375
2111.08131	4265.8375
2114.0669	4265.8375
2117.05057	4245.1375
2120.03233	4250.6375
2123.01216	4274.3375
2125.99008	4280.7375
2128.96609	4279.8375
2131.94018	4292.7375
2134.91236	4282.1375
2137.88263	4288.7375
2140.851	4281.9375
2143.81746	4280.2375
2146.78201	4274.0375
2149.74466	4269.8375
2152.7054	4260.0375
2155.66425	4268.6375
2158.6212	4261.1375
2161.57625	4257.3375
2164.52941	4264.2375
2167.48067	4238.1375
2170.43004	4235.3375
2173.37752	4259.1375
2176.32311	4240.7375
2179.26681	4261.3375
2182.20863	4257.9375
2185.14856	4270.1375
2188.08661	4274.0375
2191.02278	4262.9375
2193.95707	4256.3375
2196.88948	4236.8375
2199.82001	4231.0375
2202.74867	4245.1375
2205.67545	4222.1375
2208.60037	4223.3375
2211.52341	4227.0375
2214.44458	4229.0375
2217.36388	4216.4375
2220.28132	4208.4375
2223.1969	4195.5375
2226.11061	4189.3375
2229.02246	4144.4375
2231.93245	4154.7375
2234.84058	4170.0375
2237.74686	4147.4375
2240.65128	4163.1375
2243.55385	4156.6375
2246.45456	4149.5375
2249.35343	4147.6375
2252.25044	4161.9375
2255.14561	4172.3375
2258.03893	4173.7375
2260.93041	4200.9375
2263.82004	4167.8375
2266.70783	4181.3375
2269.59378	4152.2375
2272.4779	4151.6375
2275.36017	4148.5375
2278.24061	4139.2375
2281.11922	4124.1375
2283.996	4120.0375
2286.87094	4121.5375
2289.74405	4083.7375
2292.61534	4069.6375
2295.4848	4075.8375
2298.35243	4069.4375
2301.21824	4078.6375
2304.08223	4061.6375
2306.94439	4066.9375
2309.80474	4080.5375
2312.66327	4070.6375
2315.51999	4081.8375
2318.37489	4072.6375
2321.22797	4053.1375
2324.07925	4056.2375
2326.92871	4073.1375
2329.77637	4052.8375
2332.62222	4045.2375
2335.46626	4058.6375
2338.3085	4043.3375
2341.14893	4070.7375
2343.98756	4041.9375
2346.8244	4056.7375
2349.65943	4091.0375
2352.49267	4090.9375
2355.32411	4108.5375
2358.15376	4129.7375
2360.98161	4148.0375
2363.80768	4156.5375
2366.63195	4199.5375
2369.45444	4197.7375
2372.27514	4196.0375
2375.09405	4190.8375
2377.91118	4168.9375
2380.72652	4138.7375
2383.54009	4121.4375
2386.35187	4093.5375
2389.16188	4073.6375
2391.97011	4051.9375
2394.77657	4046.5375
2397.58125	4024.6375
2400.38416	4018.5375
2403.18529	4000.2375
2405.98466	3989.8375
2408.78226	3979.1375
2411.57809	3977.9375
2414.37216	3981.8375
2417.16446	3980.2375
2419.955	3985.0375
2422.74378	3974.8375
2425.5308	3973.0375
2428.31606	3999.4375
2431.09956	4007.4375
2433.88131	4009.6375
2436.6613	3998.2375
2439.43954	4010.4375
2442.21603	4025.7375
2444.99077	4033.4375
2447.76377	4034.7375
2450.53501	4043.0375
2453.30451	4055.3375
2456.07226	4070.6375
2458.83827	4067.8375
2461.60254	4081.3375
2464.36507	4059.0375
2467.12586	4057.3375
2469.88492	4059.5375
2472.64224	4066.5375
2475.39782	4075.2375
2478.15167	4091.3375
2480.90379	4100.2375
2483.65417	4133.4375
2486.40283	4152.0375
2489.14976	4152.2375
2491.89497	4186.2375
2494.63845	4198.5375
2497.3802	4189.8375
2500.12024	4176.9375
2502.85855	4176.9375
2505.59514	4160.4375
2508.33002	4124.4375
2511.06318	4090.3375
2513.79462	4061.0375
2516.52435	4047.6375
2519.25237	4012.2375
2521.97867	3997.5375
2524.70327	4010.7375
2527.42616	3996.4375
2530.14734	3979.5375
2532.86681	3974.0375
2535.58458	3982.5375
2538.30065	3977.0375
2541.01501	3983.6375
2543.72768	3990.9375
2546.43864	4014.2375
2549.14791	4014.6375
2551.85548	4001.4375
2554.56136	4005.4375
2557.26554	4017.0375
2559.96803	3999.0375
2562.66883	4013.7375
2565.36794	4011.2375
2568.06536	3994.3375
2570.7611	3991.9375
2573.45514	3979.9375
2576.14751	3971.5375
2578.83819	3960.4375
2581.52719	3961.8375
2584.21451	3966.6375
2586.90015	3956.0375
2589.58411	3951.7375
2592.2664	3950.1375
2594.94701	3964.0375
2597.62594	3960.4375
2600.30321	3959.0375
2602.9788	3959.0375
2605.65273	3949.7375
2608.32498	3963.5375
2610.99557	3935.3375
2613.66449	3966.7375
2616.33175	3973.6375
2618.99734	3973.8375
2621.66128	3962.8375
2624.32355	3954.9375
2626.98416	3960.0375
2629.64311	3955.7375
2632.30041	3935.2375
2634.95605	3942.3375
2637.61004	3926.1375
2640.26238	3927.7375
2642.91306	3919.4375
2645.56209	3928.6375
2648.20948	3921.9375
2650.85521	3932.4375
2653.4993	3933.7375
2656.14175	3937.6375
2658.78255	3941.4375
2661.42171	3948.3375
2664.05923	3969.9375
2666.6951	3963.1375
2669.32934	3981.5375
2671.96194	3985.5375
2674.59291	3976.2375
2677.22224	3980.2375
2679.84993	3993.9375
2682.476	3989.2375
2685.10043	3979.1375
2687.72324	3986.0375
2690.34441	3985.9375
2692.96396	3966.5375
2695.58188	3982.8375
2698.19818	3975.8375
2700.81285	3965.6375
2703.4259	3997.3375
2706.03733	3998.6375
2708.64714	3988.8375
2711.25533	4003.2375
2713.86191	4009.3375
2716.46687	4016.5375
2719.07021	4008.0375
2721.67194	4033.3375
2724.27206	4030.2375
2726.87057	4032.2375
2729.46747	4025.5375
2732.06276	4013.7375
2734.65644	4012.8375
2737.24852	4007.3375
2739.83899	4008.6375
2742.42786	4003.1375
2745.01513	3994.6375
2747.60079	3999.6375
2750.18486	3982.5375
2752.76733	3985.1375
2755.3482	3973.4375
2757.92747	3958.8375
2760.50515	3963.9375
2763.08123	3955.4375
2765.65573	3958.7375
2768.22863	3950.0375
2770.79994	3934.3375
2773.36967	3956.9375
2775.9378	3951.9375
2778.50435	3967.8375
2781.06932	3968.9375
2783.6327	3982.9375
2786.1945	3956.6375
2788.75471	3976.1375
2791.31335	3962.6375
2793.87041	3962.0375
2796.42589	3966.4375
2798.97979	3986.2375
2801.53212	3966.5375
2804.08288	3973.3375
2806.63206	3966.7375
2809.17967	3963.9375
2811.72571	3975.4375
2814.27018	3967.4375
2816.81308	3971.3375
2819.35442	3983.5375
2821.89419	3987.4375
2824.43239	4005.3375
2826.96904	4003.4375
2829.50412	4025.0375
2832.03763	4017.1375
2834.56959	4030.9375
2837.1	4010.3375
2839.62884	4015.7375
2842.15613	4046.7375
2844.68186	4080.2375
2847.20604	4099.1375
2849.72867	4135.3375
2852.24974	4139.6375
2854.76927	4121.5375
2857.28724	4150.0375
2859.80367	4155.1375
2862.31855	4147.7375
2864.83189	4159.0375
2867.34368	4164.7375
2869.85393	4162.6375
2872.36264	4158.4375
2874.8698	4156.8375
2877.37543	4160.8375
2879.87952	4141.3375
2882.38207	4162.0375
2884.88308	4151.2375
2887.38256	4135.9375
2889.88051	4128.9375
2892.37692	4122.8375
2894.8718	4109.4375
2897.36515	4120.7375
2899.85698	4129.8375
2902.34727	4138.1375
2904.83604	4150.2375
2907.32328	4134.2375
2909.809	4147.1375
2912.29319	4162.9375
2914.77587	4148.4375
2917.25702	4140.9375
2919.73665	4138.0375
2922.21476	4126.8375
2924.69136	4116.7375
2927.16644	4087.2375
2929.64	4096.1375
2932.11205	4082.7375
2934.58258	4066.2375
2937.05161	4050.4375
2939.51912	4040.8375
2941.98513	4042.1375
2944.44962	4014.3375
2946.91261	3958.3375
2949.37409	3959.1375
2951.83407	3959.4375
2954.29254	3963.1375
2956.74951	3942.5375
2959.20498	3944.0375
2961.65895	3928.3375
2964.11142	3929.9375
2966.56239	3915.4375
2969.01186	3905.5375
2971.45984	3869.0375
2973.90632	3874.0375
2976.35131	3855.4375
2978.7948	3836.3375
2981.23681	3811.1375
2983.67732	3819.1375
2986.11635	3814.5375
2988.55388	3788.0375
2990.98993	3794.3375
2993.4245	3787.1375
2995.85758	3774.0375
2998.28917	3764.0375
3000.71928	3766.7375
3003.14791	3764.8375
3005.57506	3779.1375
3008.00073	3751.4375
3010.42493	3741.6375
3012.84764	3762.7375
3015.26888	3752.6375
3017.68865	3737.6375
3020.10694	3753.5375
3022.52376	3741.1375
3024.9391	3721.9375
3027.35298	3712.3375
3029.76539	3696.5375
3032.17632	3704.8375
3034.5858	3680.2375
3036.9938	3677.8375
3039.40034	3661.8375
3041.80542	3652.6375
3044.20903	3650.5375
3046.61118	3637.6375
3049.01187	3622.7375
3051.4111	3620.2375
3053.80888	3617.2375
3056.20519	3627.1375
3058.60005	3621.0375
3060.99345	3600.8375
3063.3854	3595.4375
3065.7759	3582.1375
3068.16494	3578.5375
3070.55254	3565.2375
3072.93868	3556.7375
3075.32338	3534.0375
3077.70662	3547.6375
3080.08842	3522.3375
3082.46878	3519.3375
3084.84769	3499.0375
3087.22515	3515.3375
3089.60118	3496.2375
3091.97576	3511.5375
3094.3489	3502.2375
3096.72061	3507.5375
