Data from AgNPs_FTO_APTES_UA_20uM_CRN_1000uM_R6G_10uM_NaF_0.1M_Addition_RamanShift__17__19-31-35-028.txt Node

Date: Thu Feb 17 19:31:35 GMT 2022
User: TCL
Spectrometer: QEP01345
Trigger mode: 4
Integration Time (sec): 1.000000E1
Scans to average: 7
Electric dark correction enabled: true
Nonlinearity correction enabled: false
Boxcar width: 0
XAxis mode: Raman Shifts
Number of Pixels in Spectrum: 1044
>>>>>Begin Spectral Data<<<<<
46.04893	0.42857
50.45542	-1
54.85868	-0.85714
59.25871	-0.42857
63.6555	50.42857
68.04907	57.14286
72.43941	59
76.82654	63.57143
81.21044	64.71429
85.59113	64.28571
89.96862	69.42857
94.34289	67.71429
98.71396	76.85714
103.08183	74.28571
107.4465	81.42857
111.80798	75.28571
116.16626	81.42857
120.52136	82
124.87327	92.14286
129.222	89.42857
133.56755	90.57143
137.90993	101.85714
142.24913	107.71429
146.58517	116.85714
150.91804	142.28571
155.24774	158.28571
159.57429	192.14286
163.89768	245
168.21792	321.85714
172.53501	439.85714
176.84895	614
181.15975	866.42857
185.46741	1216.57143
189.77193	1686.42857
194.07331	2263.85714
198.37157	2969.28571
202.6667	3687.57143
206.9587	4397.57143
211.24758	5131.28571
215.53334	5857.14286
219.81599	6590.28571
224.09553	7353
228.37195	8261.14286
232.64527	9227.14286
236.91549	10265.42857
241.18261	11279.71429
245.44663	12226.71429
249.70755	13082.28571
253.96539	13823.42857
258.22014	14390.71429
262.4718	14845.14286
266.72039	15112.71429
270.96589	15219.42857
275.20832	15178.71429
279.44768	15036.42857
283.68397	14783.57143
287.91719	14543.57143
292.14735	14381.42857
296.37445	14303.28571
300.59849	14300.28571
304.81948	14330.71429
309.03742	14388.42857
313.25231	14326.14286
317.46415	14167.85714
321.67296	13947.14286
325.87872	13778.14286
330.08145	13700.14286
334.28114	13741.14286
338.47781	13856.57143
342.67145	14022.85714
346.86207	14257.57143
351.04966	14557.57143
355.23424	14844.42857
359.4158	15122.28571
363.59435	15320.71429
367.76989	15522
371.94243	15639.14286
376.11196	15764.14286
380.27849	15858.14286
384.44203	15930.14286
388.60257	15975.85714
392.76012	16084.42857
396.91468	16206.57143
401.06626	16322.71429
405.21485	16485.85714
409.36047	16446.42857
413.50311	16303.57143
417.64277	16111.57143
421.77947	15996.71429
425.9132	15972.28571
430.04396	16068.28571
434.17176	16162.42857
438.2966	16309.28571
442.41849	16545.28571
446.53742	16851.85714
450.6534	17201.57143
454.76644	17387
458.87653	17485.42857
462.98368	17482.71429
467.08789	17364.85714
471.18916	17218.71429
475.2875	17062.85714
479.38291	16944.14286
483.4754	16841
487.56496	16765
491.6516	16729.14286
495.73531	16688.85714
499.81612	16693.14286
503.89401	16820.14286
507.96899	16811.85714
512.04106	16890.42857
516.11023	16981.85714
520.1765	16995
524.23987	17028.14286
528.30034	17040.85714
532.35792	16986.42857
536.41261	16962.71429
540.46441	16889.28571
544.51333	16823.28571
548.55936	16838.85714
552.60252	16924.42857
556.64279	17059.28571
560.6802	17135
564.71473	17169.85714
568.7464	17248.71429
572.7752	17351.42857
576.80114	17336.28571
580.82422	17316.14286
584.84444	17410.71429
588.86181	17601.42857
592.87633	17886.85714
596.888	18084.71429
600.89682	18126.42857
604.9028	18593.71429
608.90594	19991.42857
612.90624	21614.28571
616.90371	21081.57143
620.89834	18661.71429
624.89015	17543.71429
628.87913	17355.85714
632.86528	17414.85714
636.84862	17526.57143
640.82913	17500
644.80683	17249.14286
648.78172	17076.85714
652.75379	17036.14286
656.72306	17172.57143
660.68952	17407.14286
664.65319	17421.14286
668.61405	17283.14286
672.57211	17338.14286
676.52738	17509.71429
680.47986	17645.57143
684.42955	17611.42857
688.37646	17466.85714
692.32058	17369.14286
696.26192	17376.28571
700.20048	17411.14286
704.13626	17435.28571
708.06928	17346.14286
711.99952	17228.42857
715.927	17179.71429
719.85171	17150.71429
723.77365	17162
727.69284	17167.28571
731.60928	17136.57143
735.52295	17141.57143
739.43388	17107
743.34206	17106.28571
747.24749	17101.85714
751.15017	17107.57143
755.05012	17155.42857
758.94733	17337.71429
762.8418	17797.28571
766.73354	18569.42857
770.62254	19530
774.50882	20087.85714
778.39237	19846.42857
782.27321	18843.42857
786.15132	17906.57143
790.02671	17282.28571
793.89938	16930.28571
797.76935	16841
801.6366	16774.71429
805.50115	16725.28571
809.36299	16727.85714
813.22213	16664.14286
817.07857	16612.71429
820.93231	16599.57143
824.78336	16549.71429
828.63172	16559.57143
832.47738	16521.14286
836.32036	16507.28571
840.16066	16504.42857
843.99827	16524.71429
847.8332	16577.42857
851.66546	16525.42857
855.49504	16553.42857
859.32195	16619.28571
863.1462	16649.85714
866.96777	16669.57143
870.78668	16721.42857
874.60293	16722.71429
878.41652	16709.57143
882.22745	16772.71429
886.03573	16751
889.84136	16755.28571
893.64433	16679
897.44466	16638.42857
901.24235	16553.71429
905.0374	16479.57143
908.8298	16382.28571
912.61957	16328.28571
916.40671	16360.14286
920.19121	16428.85714
923.97308	16522.14286
927.75233	16535
931.52895	16569.14286
935.30295	16492.14286
939.07433	16395.85714
942.84309	16294.57143
946.60924	16169.42857
950.37278	16100
954.13371	16039.28571
957.89203	16010.42857
961.64774	15953.71429
965.40086	15906.28571
969.15137	15892.71429
972.89929	15879.57143
976.64461	15843.71429
980.38733	15865.28571
984.12747	15895.85714
987.86502	15923.42857
991.59999	16007.71429
995.33237	16139.71429
999.06217	16226.85714
1002.78939	16428.57143
1006.51404	16542.14286
1010.23611	16675.42857
1013.95561	16751.14286
1017.67255	16848
1021.38692	16806.71429
1025.09872	16650.57143
1028.80796	16600
1032.51465	16647.85714
1036.21877	16746.57143
1039.92035	16781.71429
1043.61937	16777
1047.31584	16685.71429
1051.00976	16634.42857
1054.70114	16617
1058.38998	16614.42857
1062.07627	16641.28571
1065.76003	16672.57143
1069.44126	16690
1073.11995	16750
1076.79611	16852.57143
1080.46974	16930
1084.14085	16970.57143
1087.80943	17051.28571
1091.47549	17117.28571
1095.13903	17022.71429
1098.80005	16979.28571
1102.45857	16815
1106.11456	16765.42857
1109.76805	16811.71429
1113.41903	16872
1117.06751	16964.71429
1120.71348	17147.85714
1124.35696	17292.85714
1127.99793	17449.42857
1131.63641	17525
1135.2724	17481
1138.90589	17304.28571
1142.5369	17169.28571
1146.16542	16987
1149.79145	16914.85714
1153.415	16814.57143
1157.03607	16843.14286
1160.65467	16980.85714
1164.27079	17210.57143
1167.88443	17612.85714
1171.49561	18126.71429
1175.10432	18839.57143
1178.71056	19743.71429
1182.31434	20632.28571
1185.91565	21025.28571
1189.51451	20982.14286
1193.11091	20571.28571
1196.70485	19996
1200.29634	19509.42857
1203.88538	19108
1207.47197	18646.14286
1211.05612	18189.28571
1214.63782	17908.42857
1218.21708	17743
1221.79391	17779
1225.36829	17826.14286
1228.94024	17789.57143
1232.50976	17694.85714
1236.07685	17578.14286
1239.6415	17532.14286
1243.20374	17598.71429
1246.76355	17621
1250.32093	17739.14286
1253.8759	17836
1257.42845	18090.71429
1260.97859	18282.85714
1264.52631	18502.57143
1268.07163	18759.57143
1271.61453	19035.57143
1275.15503	19265.71429
1278.69312	19408.14286
1282.22882	19604.28571
1285.76211	19774.42857
1289.29301	19990.71429
1292.82151	20209.71429
1296.34761	20614.42857
1299.87133	21149.57143
1303.39266	21842.57143
1306.9116	22763.28571
1310.42815	23780.42857
1313.94233	24434.57143
1317.45412	24296.85714
1320.96354	23664.28571
1324.47058	22904.14286
1327.97525	22202.42857
1331.47754	21704
1334.97747	21441.85714
1338.47502	21436.57143
1341.97022	21587.85714
1345.46305	21969.42857
1348.95352	22490.57143
1352.44163	23251.85714
1355.92738	24087.71429
1359.41078	25246.28571
1362.89183	26249.85714
1366.37053	25867
1369.84688	23927.28571
1373.32088	21818.71429
1376.79254	20370
1380.26186	19572.71429
1383.72883	19192.71429
1387.19347	18915.28571
1390.65578	18587.28571
1394.11575	18312.28571
1397.57339	18216.42857
1401.0287	18230.14286
1404.48168	18273.57143
1407.93234	18306
1411.38068	18329.14286
1414.82669	18326.71429
1418.27039	18210.57143
1421.71177	18117
1425.15083	17913.71429
1428.58758	17772.71429
1432.02203	17746
1435.45416	17817
1438.88399	17948.42857
1442.31151	18004
1445.73673	17998.71429
1449.15965	18089.71429
1452.58027	18071.42857
1455.9986	18013.42857
1459.41463	18027.14286
1462.82837	18189.28571
1466.23982	18432.42857
1469.64898	18621.14286
1473.05586	18886.14286
1476.46045	18963.42857
1479.86276	19010.14286
1483.26279	19042.85714
1486.66054	19077
1490.05602	19210.14286
1493.44922	19387.28571
1496.84016	19733.85714
1500.22882	20309.57143
1503.61521	21083.42857
1506.99934	21996.85714
1510.38121	22773.71429
1513.76081	22877.71429
1517.13816	22206.14286
1520.51324	21187.28571
1523.88607	20154.28571
1527.25665	19484
1530.62498	19170.14286
1533.99105	18972
1537.35488	18856.85714
1540.71647	18789.71429
1544.07581	18683.14286
1547.4329	18566.57143
1550.78776	18495.57143
1554.14038	18432.71429
1557.49077	18420.14286
1560.83892	18486.14286
1564.18484	18571.57143
1567.52853	18723.14286
1570.86999	18872.42857
1574.20922	18944.14286
1577.54624	19003.57143
1580.88103	18762.57143
1584.2136	18469.28571
1587.54395	18245.14286
1590.87208	18390.57143
1594.19801	18876.57143
1597.52172	19515.71429
1600.84321	19920.42857
1604.16251	19735.28571
1607.47959	19219
1610.79447	18527.28571
1614.10715	17843.28571
1617.41763	17230.85714
1620.7259	16750.85714
1624.03199	16491
1627.33587	16371.85714
1630.63757	16507.28571
1633.93707	16860.28571
1637.23439	17386.57143
1640.52951	18258
1643.82246	19376.14286
1647.11321	20450.42857
1650.40179	20919.14286
1653.68819	20332.28571
1656.97241	18979.85714
1660.25446	17584.28571
1663.53433	16518.14286
1666.81203	15873.71429
1670.08756	15501.71429
1673.36092	15195.28571
1676.63211	15025
1679.90115	14868.14286
1683.16801	14727.57143
1686.43272	14655.14286
1689.69527	14563
1692.95567	14469.14286
1696.2139	14445.71429
1699.46999	14394.42857
1702.72392	14346
1705.97571	14331.57143
1709.22535	14269
1712.47284	14305
1715.71819	14282.28571
1718.96139	14237.57143
1722.20246	14187.57143
1725.44139	14139.57143
1728.67818	14123
1731.91284	14081
1735.14537	14035.42857
1738.37576	14024.14286
1741.60403	13981.71429
1744.83017	13980.28571
1748.05418	13943.85714
1751.27607	13949.71429
1754.49584	13958.71429
1757.71349	13951.42857
1760.92903	13932.57143
1764.14244	13918.14286
1767.35375	13836.71429
1770.56294	13786
1773.77002	13740.28571
1776.97499	13685.14286
1780.17785	13669.85714
1783.37861	13634
1786.57727	13571.28571
1789.77382	13549.71429
1792.96828	13540.71429
1796.16064	13446.57143
1799.3509	13435.71429
1802.53907	13398.42857
1805.72514	13363.42857
1808.90913	13343.42857
1812.09102	13290.42857
1815.27083	13278
1818.44856	13268.85714
1821.6242	13278
1824.79776	13231.85714
1827.96924	13214.42857
1831.13864	13180.42857
1834.30597	13181.28571
1837.47122	13181.42857
1840.6344	13168.42857
1843.7955	13163.71429
1846.95454	13141.85714
1850.11151	13117.14286
1853.26642	13114.85714
1856.41926	13117.28571
1859.57004	13105.71429
1862.71876	13064.28571
1865.86542	13084
1869.01003	13046.42857
1872.15258	13031.14286
1875.29308	13045.57143
1878.43152	13029.71429
1881.56792	13000.57143
1884.70227	12994.14286
1887.83457	12988.42857
1890.96482	12966
1894.09304	12968.28571
1897.21921	12919.14286
1900.34335	12923.42857
1903.46544	12913.57143
1906.58551	12901
1909.70353	12868.14286
1912.81953	12854.42857
1915.93349	12826.14286
1919.04543	12837
1922.15534	12789.71429
1925.26322	12799.28571
1928.36908	12784.57143
1931.47292	12745.42857
1934.57473	12735.42857
1937.67453	12722.42857
1940.77232	12637
1943.86808	12614
1946.96184	12580.71429
1950.05358	12572.71429
1953.14331	12561
1956.23103	12542.42857
1959.31675	12494.85714
1962.40046	12416.85714
1965.48217	12404
1968.56188	12356
1971.63959	12336.28571
1974.7153	12337.42857
1977.78901	12273.28571
1980.86073	12248.71429
1983.93046	12219.57143
1986.99819	12142.28571
1990.06394	12108.57143
1993.1277	12106.28571
1996.18947	12052.14286
1999.24925	12053.28571
2002.30706	11933.42857
2005.36288	11943.14286
2008.41672	11921
2011.46859	11863.42857
2014.51848	11840
2017.56639	11781.85714
2020.61233	11747.14286
2023.6563	11741.42857
2026.6983	11691.28571
2029.73833	11711.71429
2032.7764	11673.57143
2035.8125	11657.42857
2038.84664	11609.28571
2041.87881	11591
2044.90903	11547.28571
2047.93729	11546.71429
2050.96359	11555.14286
2053.98794	11547.57143
2057.01034	11533.71429
2060.03078	11502.85714
2063.04927	11494.57143
2066.06582	11497.14286
2069.08042	11509
2072.09307	11501.57143
2075.10378	11486.42857
2078.11255	11484.14286
2081.11938	11481
2084.12426	11470.57143
2087.12722	11499
2090.12824	11450.71429
2093.12732	11497.57143
2096.12447	11480.71429
2099.11969	11469.28571
2102.11299	11440.14286
2105.10435	11472.85714
2108.09379	11491.71429
2111.08131	11459.14286
2114.0669	11491.71429
2117.05057	11492.71429
2120.03233	11510.71429
2123.01216	11531.71429
2125.99008	11517
2128.96609	11555
2131.94018	11561.71429
2134.91236	11554.28571
2137.88263	11573.71429
2140.851	11565.71429
2143.81746	11561.57143
2146.78201	11601.28571
2149.74466	11595.85714
2152.7054	11633
2155.66425	11572.14286
2158.6212	11583.14286
2161.57625	11566.28571
2164.52941	11556.85714
2167.48067	11542
2170.43004	11552.42857
2173.37752	11570.57143
2176.32311	11590.71429
2179.26681	11595.14286
2182.20863	11546.14286
2185.14856	11579.85714
2188.08661	11526.85714
2191.02278	11513.85714
2193.95707	11548.42857
2196.88948	11561.85714
2199.82001	11521
2202.74867	11532.28571
2205.67545	11521.85714
2208.60037	11518.57143
2211.52341	11476.14286
2214.44458	11455
2217.36388	11432.57143
2220.28132	11417.42857
2223.1969	11405.71429
2226.11061	11368
2229.02246	11371.85714
2231.93245	11304.71429
2234.84058	11307.28571
2237.74686	11276.28571
2240.65128	11281.14286
2243.55385	11276.71429
2246.45456	11280.71429
2249.35343	11265.14286
2252.25044	11206.28571
2255.14561	11236.28571
2258.03893	11207.14286
2260.93041	11242.14286
2263.82004	11184.57143
2266.70783	11148.28571
2269.59378	11119
2272.4779	11120.28571
2275.36017	11063.42857
2278.24061	11047.71429
2281.11922	11013.71429
2283.996	11020.71429
2286.87094	11013
2289.74405	11001.14286
2292.61534	10992.42857
2295.4848	10962.57143
2298.35243	10979.71429
2301.21824	10982.57143
2304.08223	10943.14286
2306.94439	10936.71429
2309.80474	10948.71429
2312.66327	10913.57143
2315.51999	10921.14286
2318.37489	10918.71429
2321.22797	10880.85714
2324.07925	10852.57143
2326.92871	10843.71429
2329.77637	10832.42857
2332.62222	10824.85714
2335.46626	10791.14286
2338.3085	10798.85714
2341.14893	10791
2343.98756	10806.42857
2346.8244	10775.57143
2349.65943	10742.14286
2352.49267	10746.42857
2355.32411	10770.28571
2358.15376	10730.57143
2360.98161	10734.71429
2363.80768	10745.14286
2366.63195	10719.14286
2369.45444	10723
2372.27514	10711.71429
2375.09405	10673.42857
2377.91118	10674.28571
2380.72652	10677.28571
2383.54009	10605.85714
2386.35187	10595.28571
2389.16188	10559.28571
2391.97011	10532.28571
2394.77657	10551.14286
2397.58125	10526.71429
2400.38416	10551.71429
2403.18529	10519.28571
2405.98466	10506.28571
2408.78226	10470.57143
2411.57809	10450.28571
2414.37216	10439.42857
2417.16446	10419.42857
2419.955	10420.57143
2422.74378	10435.71429
2425.5308	10420.28571
2428.31606	10390.14286
2431.09956	10388.57143
2433.88131	10371.85714
2436.6613	10356.14286
2439.43954	10397.42857
2442.21603	10372.85714
2444.99077	10387.14286
2447.76377	10366.14286
2450.53501	10353.85714
2453.30451	10337.57143
2456.07226	10325.71429
2458.83827	10287
2461.60254	10286.85714
2464.36507	10251.14286
2467.12586	10265
2469.88492	10230.85714
2472.64224	10254.57143
2475.39782	10278.85714
2478.15167	10270.14286
2480.90379	10262.71429
2483.65417	10268.57143
2486.40283	10256.85714
2489.14976	10264.57143
2491.89497	10237.57143
2494.63845	10241.42857
2497.3802	10259.85714
2500.12024	10216.71429
2502.85855	10215.57143
2505.59514	10198.71429
2508.33002	10177.14286
2511.06318	10178.71429
2513.79462	10152.57143
2516.52435	10145.14286
2519.25237	10140.57143
2521.97867	10138.42857
2524.70327	10111.42857
2527.42616	10116
2530.14734	10092.28571
2532.86681	10095.57143
2535.58458	10074.71429
2538.30065	10034.71429
2541.01501	10036.85714
2543.72768	10026.85714
2546.43864	10045.28571
2549.14791	10020.42857
2551.85548	10012.42857
2554.56136	10001.28571
2557.26554	9960.71429
2559.96803	9945.28571
2562.66883	9906
2565.36794	9901.42857
2568.06536	9922.85714
2570.7611	9869
2573.45514	9853.14286
2576.14751	9819.71429
2578.83819	9820.14286
2581.52719	9821.42857
2584.21451	9806.42857
2586.90015	9803.71429
2589.58411	9794.28571
2592.2664	9775.42857
2594.94701	9773.14286
2597.62594	9753.28571
2600.30321	9724.71429
2602.9788	9686
2605.65273	9658.28571
2608.32498	9677
2610.99557	9664.42857
2613.66449	9668.42857
2616.33175	9655.42857
2618.99734	9663.57143
2621.66128	9662.85714
2624.32355	9602.57143
2626.98416	9641.71429
2629.64311	9600.14286
2632.30041	9609.42857
2634.95605	9574.57143
2637.61004	9566.42857
2640.26238	9543.42857
2642.91306	9552.28571
2645.56209	9549.28571
2648.20948	9523.71429
2650.85521	9545.14286
2653.4993	9532.57143
2656.14175	9523.14286
2658.78255	9564
2661.42171	9530
2664.05923	9568.85714
2666.6951	9552.14286
2669.32934	9553.85714
2671.96194	9575.71429
2674.59291	9559.42857
2677.22224	9538.28571
2679.84993	9538.71429
2682.476	9513.57143
2685.10043	9555.71429
2687.72324	9503.14286
2690.34441	9517.14286
2692.96396	9507.42857
2695.58188	9554.28571
2698.19818	9507.14286
2700.81285	9532.71429
2703.4259	9525.71429
2706.03733	9507.85714
2708.64714	9544
2711.25533	9531.57143
2713.86191	9526
2716.46687	9540.14286
2719.07021	9550.85714
2721.67194	9538.42857
2724.27206	9531.28571
2726.87057	9545
2729.46747	9522.85714
2732.06276	9542.71429
2734.65644	9520.28571
2737.24852	9510.57143
2739.83899	9517
2742.42786	9493
2745.01513	9449.71429
2747.60079	9463.71429
2750.18486	9459.85714
2752.76733	9448.28571
2755.3482	9427.71429
2757.92747	9457.14286
2760.50515	9447.28571
2763.08123	9450.28571
2765.65573	9410.28571
2768.22863	9424
2770.79994	9386.14286
2773.36967	9402.57143
2775.9378	9378.71429
2778.50435	9389.71429
2781.06932	9378.57143
2783.6327	9395.71429
2786.1945	9323.71429
2788.75471	9322
2791.31335	9298.71429
2793.87041	9299
2796.42589	9268.14286
2798.97979	9288.71429
2801.53212	9261.14286
2804.08288	9245.28571
2806.63206	9228.14286
2809.17967	9217.14286
2811.72571	9203.28571
2814.27018	9198.71429
2816.81308	9161.14286
2819.35442	9137.71429
2821.89419	9140.28571
2824.43239	9150.14286
2826.96904	9143
2829.50412	9130.71429
2832.03763	9126.71429
2834.56959	9109
2837.1	9111
2839.62884	9105.85714
2842.15613	9052.85714
2844.68186	9067.85714
2847.20604	9071.85714
2849.72867	9071.14286
2852.24974	9044.28571
2854.76927	9026.57143
2857.28724	9024.71429
2859.80367	9023.42857
2862.31855	8991.71429
2864.83189	8981.42857
2867.34368	8980.85714
2869.85393	8982.14286
2872.36264	8974
2874.8698	9001
2877.37543	8991.57143
2879.87952	8976.57143
2882.38207	8986.85714
2884.88308	9021.14286
2887.38256	8999.85714
2889.88051	9006
2892.37692	9030.14286
2894.8718	9042.42857
2897.36515	9047.28571
2899.85698	9040.85714
2902.34727	9077
2904.83604	9087.57143
2907.32328	9086.28571
2909.809	9104.14286
2912.29319	9119.28571
2914.77587	9141.57143
2917.25702	9164
2919.73665	9136
2922.21476	9109.28571
2924.69136	9141.57143
2927.16644	9138.42857
2929.64	9172.71429
2932.11205	9131.14286
2934.58258	9118.85714
2937.05161	9140.28571
2939.51912	9136
2941.98513	9136.71429
2944.44962	9122.85714
2946.91261	9106.57143
2949.37409	9121.14286
2951.83407	9074.57143
2954.29254	9090.42857
2956.74951	9075.42857
2959.20498	9051.28571
2961.65895	9051.71429
2964.11142	9034.71429
2966.56239	9027.14286
2969.01186	9017.71429
2971.45984	8989.28571
2973.90632	8954.14286
2976.35131	8923.14286
2978.7948	8943.85714
2981.23681	8909.42857
2983.67732	8916.85714
2986.11635	8872
2988.55388	8847.85714
2990.98993	8833
2993.4245	8810.28571
2995.85758	8822.14286
2998.28917	8806.42857
3000.71928	8800.71429
3003.14791	8750.85714
3005.57506	8758.85714
3008.00073	8737.28571
3010.42493	8740.14286
3012.84764	8738.28571
3015.26888	8716.14286
3017.68865	8696
3020.10694	8704.14286
3022.52376	8692.28571
3024.9391	8656.71429
