Data from AgNPs_FTO_APTES_UA_20uM_CRN_2uM_R6G_10uM_NaF_0.1M_Addition_RamanShift__4__12-45-12-067.txt Node

Date: Thu Feb 17 12:45:12 GMT 2022
User: TCL
Spectrometer: QEP01345
Trigger mode: 4
Integration Time (sec): 7.000000E0
Scans to average: 10
Electric dark correction enabled: true
Nonlinearity correction enabled: false
Boxcar width: 0
XAxis mode: Raman Shifts
Number of Pixels in Spectrum: 1044
>>>>>Begin Spectral Data<<<<<
46.04893	-0.825
50.45542	-1.325
54.85868	-2.925
59.25871	-0.525
63.6555	117.975
68.04907	116.075
72.43941	125.275
76.82654	126.975
81.21044	128.475
85.59113	137.675
89.96862	139.875
94.34289	142.775
98.71396	144.375
103.08183	149.375
107.4465	156.075
111.80798	159.675
116.16626	166.375
120.52136	175.975
124.87327	178.975
129.222	191.775
133.56755	206.575
137.90993	219.475
142.24913	244.475
146.58517	280.375
150.91804	328.575
155.24774	393.875
159.57429	496.375
163.89768	640.575
168.21792	860.075
172.53501	1186.575
176.84895	1659.575
181.15975	2345.475
185.46741	3315.175
189.77193	4569.275
194.07331	6135.575
198.37157	7892.675
202.6667	9766.375
206.9587	11628.275
211.24758	13430.375
215.53334	15245.875
219.81599	17212.175
224.09553	19327.675
228.37195	21666.075
232.64527	24289.575
236.91549	27026.775
241.18261	29798.175
245.44663	32329.475
249.70755	34594.175
253.96539	36621.675
258.22014	38261.875
262.4718	39708.175
266.72039	40699.875
270.96589	41261.275
275.20832	41277.175
279.44768	40964.075
283.68397	40607.575
287.91719	40190.775
292.14735	39984.075
296.37445	39915.475
300.59849	40046.275
304.81948	40262.475
309.03742	40441.775
313.25231	40315.375
317.46415	39865.175
321.67296	39330.275
325.87872	38780.875
330.08145	38510.975
334.28114	38507.575
338.47781	38813.975
342.67145	39279.575
346.86207	39979.475
351.04966	40610.075
355.23424	41400.675
359.4158	41926.275
363.59435	42471.175
367.76989	42822.775
371.94243	43074.375
376.11196	43297.075
380.27849	43618.975
384.44203	43877.575
388.60257	44183.975
392.76012	44635.275
396.91468	45133.075
401.06626	45672.275
405.21485	46076.475
409.36047	46055.775
413.50311	45642.575
417.64277	45389.175
421.77947	45539.875
425.9132	45732.175
430.04396	46082.075
434.17176	46309.975
438.2966	46795.075
442.41849	47707.175
446.53742	49148.275
450.6534	50653.675
454.76644	51820.575
458.87653	52092.075
462.98368	51598.775
467.08789	50755.675
471.18916	49774.575
475.2875	48913.375
479.38291	48355.175
483.4754	47951.975
487.56496	47588.775
491.6516	47085.475
495.73531	46610.475
499.81612	46254.675
503.89401	46449.575
507.96899	46737.575
512.04106	46597.575
516.11023	46354.275
520.1765	46045.175
524.23987	45878.775
528.30034	45738.975
532.35792	45624.375
536.41261	45128.075
540.46441	44697.675
544.51333	44609.175
548.55936	45006.675
552.60252	45862.075
556.64279	47080.275
560.6802	48016.275
564.71473	48515.575
568.7464	49151.075
572.7752	50440.075
576.80114	51810.075
580.82422	53131.175
584.84444	54914.375
588.86181	57384.575
592.87633	59600.275
596.888	59543.775
600.89682	56894.275
604.9028	55922.375
608.90594	58527.175
612.90624	61566.775
616.90371	58134.175
620.89834	50666.375
624.89015	47427.175
628.87913	46925.475
632.86528	47084.375
636.84862	46898.175
640.82913	46163.775
644.80683	45222.375
648.78172	44663.775
652.75379	44671.775
656.72306	45281.575
660.68952	45957.875
664.65319	45744.075
668.61405	45013.975
672.57211	44947.275
676.52738	45214.675
680.47986	45158.475
684.42955	44951.875
688.37646	44777.175
692.32058	45124.775
696.26192	45840.975
700.20048	46513.675
704.13626	46907.275
708.06928	46790.275
711.99952	46596.075
715.927	46603.175
719.85171	46877.575
723.77365	46800.175
727.69284	46238.775
731.60928	45734.575
735.52295	45547.675
739.43388	45653.375
743.34206	45798.675
747.24749	46089.575
751.15017	46471.075
755.05012	47165.675
758.94733	48265.975
762.8418	50160.175
766.73354	53034.475
770.62254	55668.675
774.50882	55924.075
778.39237	53784.375
782.27321	50850.875
786.15132	48387.875
790.02671	46896.875
793.89938	46159.875
797.76935	45889.475
801.6366	45750.475
805.50115	45699.275
809.36299	45518.675
813.22213	45256.975
817.07857	45129.975
820.93231	44990.875
824.78336	44769.775
828.63172	44685.175
832.47738	44711.175
836.32036	44742.175
840.16066	44936.975
843.99827	45038.875
847.8332	45078.075
851.66546	45057.475
855.49504	45043.375
859.32195	45095.975
863.1462	45008.875
866.96777	44952.075
870.78668	44928.375
874.60293	44899.175
878.41652	44912.475
882.22745	45109.075
886.03573	45218.075
889.84136	45265.575
893.64433	44999.075
897.44466	44844.875
901.24235	44754.875
905.0374	44642.875
908.8298	44538.875
912.61957	44626.675
916.40671	45042.975
920.19121	45567.675
923.97308	46113.975
927.75233	46143.275
931.52895	45787.575
935.30295	45233.975
939.07433	44575.775
942.84309	44210.375
946.60924	44105.275
950.37278	44131.575
954.13371	44147.875
957.89203	44020.575
961.64774	44012.275
965.40086	43966.675
969.15137	43887.275
972.89929	43780.875
976.64461	43734.975
980.38733	43719.975
984.12747	43902.975
987.86502	44196.975
991.59999	44676.675
995.33237	45334.375
999.06217	46325.975
1002.78939	47581.175
1006.51404	48616.275
1010.23611	49460.375
1013.95561	49957.275
1017.67255	50069.875
1021.38692	49526.275
1025.09872	48668.075
1028.80796	48298.675
1032.51465	48820.475
1036.21877	49493.775
1039.92035	49606.575
1043.61937	49353.075
1047.31584	48769.975
1051.00976	48049.875
1054.70114	47709.475
1058.38998	47696.575
1062.07627	47910.475
1065.76003	48308.775
1069.44126	48812.175
1073.11995	49539.175
1076.79611	50204.275
1080.46974	50641.375
1084.14085	51102.475
1087.80943	51702.875
1091.47549	52013.375
1095.13903	51927.575
1098.80005	51291.875
1102.45857	50432.475
1106.11456	49816.075
1109.76805	49614.575
1113.41903	49766.275
1117.06751	49988.275
1120.71348	50332.575
1124.35696	50659.375
1127.99793	51019.975
1131.63641	51135.475
1135.2724	51052.275
1138.90589	50941.275
1142.5369	51069.275
1146.16542	51362.175
1149.79145	51715.675
1153.415	52178.075
1157.03607	52931.575
1160.65467	54275.375
1164.27079	56478.875
1167.88443	59143.475
1171.49561	62154.775
1175.10432	65898.875
1178.71056	70605.275
1182.31434	75131.275
1185.91565	76902.775
1189.51451	76024.975
1193.11091	73717.375
1196.70485	71125.275
1200.29634	68925.975
1203.88538	67478.375
1207.47197	66753.675
1211.05612	66041.575
1214.63782	65003.475
1218.21708	63874.075
1221.79391	62871.875
1225.36829	62370.975
1228.94024	61757.675
1232.50976	60506.375
1236.07685	59242.375
1239.6415	58447.375
1243.20374	58378.375
1246.76355	58848.375
1250.32093	59767.975
1253.8759	60896.475
1257.42845	62420.175
1260.97859	64019.075
1264.52631	65807.275
1268.07163	67802.675
1271.61453	69674.475
1275.15503	71483.575
1278.69312	73313.875
1282.22882	75153.375
1285.76211	77329.775
1289.29301	80045.375
1292.82151	83374.375
1296.34761	87456.975
1299.87133	92540.175
1303.39266	98119.175
1306.9116	103548.275
1310.42815	107914.075
1313.94233	110261.575
1317.45412	109600.475
1320.96354	107317.175
1324.47058	104954.375
1327.97525	102998.675
1331.47754	101412.575
1334.97747	99970.775
1338.47502	98703.175
1341.97022	97350.275
1345.46305	95683.475
1348.95352	94549.975
1352.44163	94511.875
1355.92738	96768.875
1359.41078	100884.475
1362.89183	104204.375
1366.37053	102721.575
1369.84688	95319.175
1373.32088	85696.675
1376.79254	79161.675
1380.26186	76908.875
1383.72883	77133.475
1387.19347	77439.475
1390.65578	76983.675
1394.11575	76870.775
1397.57339	77723.175
1401.0287	79019.475
1404.48168	80196.575
1407.93234	80226.675
1411.38068	79149.175
1414.82669	76984.875
1418.27039	74292.075
1421.71177	71562.675
1425.15083	69295.775
1428.58758	68370.375
1432.02203	69155.775
1435.45416	71021.775
1438.88399	73265.475
1442.31151	74740.275
1445.73673	75458.575
1449.15965	75710.975
1452.58027	75443.275
1455.9986	74970.175
1459.41463	75129.875
1462.82837	76108.775
1466.23982	77387.275
1469.64898	78758.275
1473.05586	79734.075
1476.46045	80076.375
1479.86276	79737.975
1483.26279	78869.375
1486.66054	78297.175
1490.05602	78481.675
1493.44922	78944.475
1496.84016	79350.575
1500.22882	80143.575
1503.61521	81527.575
1506.99934	83223.275
1510.38121	84477.975
1513.76081	84442.675
1517.13816	82684.075
1520.51324	80459.675
1523.88607	78965.375
1527.25665	78953.575
1530.62498	79513.375
1533.99105	79835.575
1537.35488	79265.275
1540.71647	77962.375
1544.07581	76158.675
1547.4329	74225.975
1550.78776	72386.375
1554.14038	71144.475
1557.49077	70316.975
1560.83892	69845.975
1564.18484	69562.075
1567.52853	69687.275
1570.86999	70133.975
1574.20922	71266.275
1577.54624	72208.075
1580.88103	72590.975
1584.2136	73449.275
1587.54395	76074.775
1590.87208	80577.775
1594.19801	86217.275
1597.52172	91367.575
1600.84321	92985.975
1604.16251	88873.775
1607.47959	81645.275
1610.79447	74024.975
1614.10715	67495.675
1617.41763	62646.075
1620.7259	59580.575
1624.03199	58162.075
1627.33587	58423.975
1630.63757	60215.775
1633.93707	64058.775
1637.23439	70403.375
1640.52951	79709.175
1643.82246	90449.875
1647.11321	98222.275
1650.40179	98183.875
1653.68819	89830.475
1656.97241	77637.575
1660.25446	66592.175
1663.53433	58993.675
1666.81203	54154.675
1670.08756	51251.875
1673.36092	49372.275
1676.63211	48171.775
1679.90115	47251.575
1683.16801	46571.975
1686.43272	46186.075
1689.69527	45819.975
1692.95567	45526.575
1696.2139	45373.175
1699.46999	45305.975
1702.72392	45180.175
1705.97571	45082.575
1709.22535	44965.375
1712.47284	44990.775
1715.71819	44933.175
1718.96139	44815.075
1722.20246	44713.475
1725.44139	44546.675
1728.67818	44362.575
1731.91284	44151.875
1735.14537	43949.975
1738.37576	43775.975
1741.60403	43639.575
1744.83017	43450.975
1748.05418	43348.275
1751.27607	43296.875
1754.49584	43240.975
1757.71349	43248.175
1760.92903	43233.475
1764.14244	43175.075
1767.35375	43172.175
1770.56294	43098.775
1773.77002	43054.975
1776.97499	43087.175
1780.17785	42961.575
1783.37861	42930.175
1786.57727	42812.175
1789.77382	42726.675
1792.96828	42761.975
1796.16064	42698.675
1799.3509	42619.975
1802.53907	42568.975
1805.72514	42457.875
1808.90913	42371.475
1812.09102	42321.275
1815.27083	42255.075
1818.44856	42186.275
1821.6242	42162.975
1824.79776	42128.775
1827.96924	42149.175
1831.13864	42118.775
1834.30597	42150.575
1837.47122	42084.375
1840.6344	42002.875
1843.7955	42043.175
1846.95454	42083.075
1850.11151	42054.975
1853.26642	42025.275
1856.41926	42004.675
1859.57004	41990.475
1862.71876	41919.775
1865.86542	41882.075
1869.01003	41870.275
1872.15258	41829.075
1875.29308	41783.275
1878.43152	41753.475
1881.56792	41767.575
1884.70227	41797.875
1887.83457	41799.175
1890.96482	41792.175
1894.09304	41700.575
1897.21921	41650.975
1900.34335	41584.575
1903.46544	41597.375
1906.58551	41578.175
1909.70353	41567.375
1912.81953	41513.175
1915.93349	41425.075
1919.04543	41349.375
1922.15534	41262.375
1925.26322	41206.875
1928.36908	41160.475
1931.47292	41126.275
1934.57473	41000.675
1937.67453	40982.675
1940.77232	40887.175
1943.86808	40752.875
1946.96184	40631.575
1950.05358	40528.975
1953.14331	40443.275
1956.23103	40339.575
1959.31675	40227.775
1962.40046	40121.575
1965.48217	39959.675
1968.56188	39859.975
1971.63959	39771.375
1974.7153	39713.875
1977.78901	39591.575
1980.86073	39481.175
1983.93046	39425.375
1986.99819	39310.475
1990.06394	39221.975
1993.1277	39215.375
1996.18947	39038.575
1999.24925	38974.575
2002.30706	38870.175
2005.36288	38750.475
2008.41672	38605.975
2011.46859	38542.975
2014.51848	38427.075
2017.56639	38309.775
2020.61233	38273.975
2023.6563	38170.575
2026.6983	38076.375
2029.73833	38050.075
2032.7764	37969.875
2035.8125	37984.275
2038.84664	37904.175
2041.87881	37878.275
2044.90903	37794.175
2047.93729	37720.475
2050.96359	37669.075
2053.98794	37659.575
2057.01034	37695.575
2060.03078	37723.475
2063.04927	37686.575
2066.06582	37652.875
2069.08042	37627.075
2072.09307	37604.875
2075.10378	37518.875
2078.11255	37483.975
2081.11938	37552.675
2084.12426	37530.675
2087.12722	37519.575
2090.12824	37492.575
2093.12732	37478.475
2096.12447	37459.675
2099.11969	37456.275
2102.11299	37479.675
2105.10435	37514.775
2108.09379	37560.375
2111.08131	37568.675
2114.0669	37561.075
2117.05057	37538.675
2120.03233	37612.375
2123.01216	37696.375
2125.99008	37699.875
2128.96609	37799.175
2131.94018	37811.675
2134.91236	37903.475
2137.88263	37926.375
2140.851	37950.875
2143.81746	37939.675
2146.78201	37903.575
2149.74466	38036.475
2152.7054	38041.375
2155.66425	38046.375
2158.6212	38016.975
2161.57625	38018.275
2164.52941	38012.275
2167.48067	37974.975
2170.43004	37972.575
2173.37752	37972.075
2176.32311	37999.275
2179.26681	38072.475
2182.20863	38122.075
2185.14856	38100.275
2188.08661	38080.675
2191.02278	38045.175
2193.95707	38026.075
2196.88948	38033.275
2199.82001	38043.275
2202.74867	37973.875
2205.67545	37936.475
2208.60037	37893.875
2211.52341	37886.675
2214.44458	37853.275
2217.36388	37841.375
2220.28132	37809.075
2223.1969	37703.175
2226.11061	37652.875
2229.02246	37490.775
2231.93245	37491.375
2234.84058	37474.775
2237.74686	37464.275
2240.65128	37467.875
2243.55385	37374.875
2246.45456	37325.275
2249.35343	37272.375
2252.25044	37201.675
2255.14561	37144.475
2258.03893	37135.075
2260.93041	37048.975
2263.82004	36971.075
2266.70783	36870.475
2269.59378	36771.075
2272.4779	36746.175
2275.36017	36634.275
2278.24061	36627.675
2281.11922	36579.575
2283.996	36531.675
2286.87094	36526.275
2289.74405	36471.775
2292.61534	36483.575
2295.4848	36485.775
2298.35243	36467.475
2301.21824	36433.875
2304.08223	36442.375
2306.94439	36482.775
2309.80474	36495.675
2312.66327	36505.475
2315.51999	36446.675
2318.37489	36421.975
2321.22797	36358.875
2324.07925	36415.975
2326.92871	36307.675
2329.77637	36227.975
2332.62222	36230.075
2335.46626	36216.875
2338.3085	36193.475
2341.14893	36249.275
2343.98756	36247.275
2346.8244	36202.375
2349.65943	36203.075
2352.49267	36211.575
2355.32411	36183.075
2358.15376	36097.475
2360.98161	36169.075
2363.80768	36109.275
2366.63195	36069.375
2369.45444	36033.575
2372.27514	36036.375
2375.09405	35974.475
2377.91118	35916.575
2380.72652	35799.075
2383.54009	35745.775
2386.35187	35709.175
2389.16188	35658.175
2391.97011	35565.175
2394.77657	35564.075
2397.58125	35581.975
2400.38416	35477.875
2403.18529	35380.875
2405.98466	35426.275
2408.78226	35305.575
2411.57809	35289.275
2414.37216	35230.975
2417.16446	35204.875
2419.955	35189.275
2422.74378	35177.275
2425.5308	35222.475
2428.31606	35173.975
2431.09956	35201.675
2433.88131	35177.375
2436.6613	35194.475
2439.43954	35168.875
2442.21603	35122.075
2444.99077	35107.975
2447.76377	35139.275
2450.53501	35141.875
2453.30451	35097.775
2456.07226	35089.975
2458.83827	35039.675
2461.60254	35049.875
2464.36507	35041.875
2467.12586	35084.675
2469.88492	35083.975
2472.64224	35049.375
2475.39782	35085.775
2478.15167	35061.075
2480.90379	35089.875
2483.65417	35151.475
2486.40283	35167.675
2489.14976	35140.875
2491.89497	35121.575
2494.63845	35186.675
2497.3802	35113.775
2500.12024	35128.075
2502.85855	35104.775
2505.59514	35057.875
2508.33002	35044.575
2511.06318	35017.675
2513.79462	35005.675
2516.52435	35016.875
2519.25237	34979.675
2521.97867	34963.475
2524.70327	34971.775
2527.42616	34933.875
2530.14734	34976.675
2532.86681	34895.075
2535.58458	34872.475
2538.30065	34887.875
2541.01501	34880.675
2543.72768	34900.175
2546.43864	34854.175
2549.14791	34770.775
2551.85548	34767.675
2554.56136	34680.875
2557.26554	34650.675
2559.96803	34613.675
2562.66883	34636.775
2565.36794	34580.575
2568.06536	34569.475
2570.7611	34501.475
2573.45514	34446.875
2576.14751	34468.975
2578.83819	34438.575
2581.52719	34425.675
2584.21451	34424.375
2586.90015	34373.175
2589.58411	34332.675
2592.2664	34362.075
2594.94701	34357.675
2597.62594	34333.775
2600.30321	34302.775
2602.9788	34352.975
2605.65273	34355.075
2608.32498	34375.875
2610.99557	34341.175
2613.66449	34346.575
2616.33175	34315.975
2618.99734	34197.875
2621.66128	34204.775
2624.32355	34192.075
2626.98416	34129.775
2629.64311	34195.375
2632.30041	34091.675
2634.95605	34103.675
2637.61004	34105.775
2640.26238	34073.075
2642.91306	34032.775
2645.56209	33979.475
2648.20948	34030.875
2650.85521	34019.875
2653.4993	34054.375
2656.14175	34101.475
2658.78255	34103.675
2661.42171	34164.675
2664.05923	34170.275
2666.6951	34174.275
2669.32934	34154.375
2671.96194	34186.475
2674.59291	34234.275
2677.22224	34247.675
2679.84993	34192.775
2682.476	34112.475
2685.10043	34161.375
2687.72324	34072.675
2690.34441	34139.275
2692.96396	34126.175
2695.58188	34180.875
2698.19818	34120.375
2700.81285	34103.075
2703.4259	34090.675
2706.03733	34131.875
2708.64714	34142.875
2711.25533	34219.575
2713.86191	34190.975
2716.46687	34282.575
2719.07021	34249.475
2721.67194	34307.375
2724.27206	34320.475
2726.87057	34333.575
2729.46747	34340.475
2732.06276	34361.075
2734.65644	34373.675
2737.24852	34405.675
2739.83899	34356.175
2742.42786	34395.575
2745.01513	34317.275
2747.60079	34337.075
2750.18486	34336.575
2752.76733	34299.975
2755.3482	34268.175
2757.92747	34265.775
2760.50515	34234.975
2763.08123	34214.075
2765.65573	34184.675
2768.22863	34214.275
2770.79994	34178.275
2773.36967	34196.575
2775.9378	34254.575
2778.50435	34222.775
2781.06932	34221.175
2783.6327	34154.475
2786.1945	34164.775
2788.75471	34110.375
2791.31335	34028.775
2793.87041	34002.875
2796.42589	33981.975
2798.97979	33910.175
2801.53212	33817.775
2804.08288	33776.275
2806.63206	33734.875
2809.17967	33663.575
2811.72571	33586.575
2814.27018	33486.575
2816.81308	33380.075
2819.35442	33347.475
2821.89419	33268.375
2824.43239	33278.675
2826.96904	33251.875
2829.50412	33282.475
2832.03763	33198.775
2834.56959	33158.275
2837.1	33137.575
2839.62884	33126.775
2842.15613	33077.175
2844.68186	33112.075
2847.20604	33073.075
2849.72867	33037.675
2852.24974	33004.875
2854.76927	32983.375
2857.28724	32970.575
2859.80367	32946.775
2862.31855	32934.975
2864.83189	32887.275
2867.34368	32788.875
2869.85393	32814.075
2872.36264	32762.075
2874.8698	32739.475
2877.37543	32703.275
2879.87952	32709.375
2882.38207	32752.275
2884.88308	32730.975
2887.38256	32744.775
2889.88051	32762.275
2892.37692	32793.675
2894.8718	32756.275
2897.36515	32882.575
2899.85698	32837.375
2902.34727	32874.075
2904.83604	32923.775
2907.32328	32954.475
2909.809	32977.075
2912.29319	32978.375
2914.77587	33004.875
2917.25702	33020.975
2919.73665	32946.375
2922.21476	32961.075
2924.69136	32924.675
2927.16644	32942.375
2929.64	32908.875
2932.11205	32873.175
2934.58258	32818.375
2937.05161	32858.675
2939.51912	32836.975
2941.98513	32792.775
2944.44962	32736.775
2946.91261	32694.875
2949.37409	32723.975
2951.83407	32730.675
2954.29254	32679.175
2956.74951	32706.475
2959.20498	32694.775
2961.65895	32689.675
2964.11142	32704.275
2966.56239	32694.775
2969.01186	32646.275
2971.45984	32505.375
2973.90632	32501.375
2976.35131	32413.375
2978.7948	32376.175
2981.23681	32388.975
2983.67732	32328.775
2986.11635	32235.475
2988.55388	32196.975
2990.98993	32166.075
2993.4245	32072.275
2995.85758	32004.875
2998.28917	31911.375
3000.71928	31854.575
3003.14791	31795.975
3005.57506	31768.575
3008.00073	31654.075
3010.42493	31712.075
3012.84764	31555.375
3015.26888	31585.275
3017.68865	31483.475
3020.10694	31492.275
3022.52376	31405.375
3024.9391	31362.875
3027.35298	31286.675
3029.76539	31319.175
3032.17632	31292.075
3034.5858	31294.975
3036.9938	31261.075
3039.40034	31237.475
3041.80542	31253.775
3044.20903	31170.975
3046.61118	31169.075
3049.01187	31054.975
3051.4111	31016.775
3053.80888	30920.975
3056.20519	30882.275
3058.60005	30858.075
3060.99345	30829.275
3063.3854	30737.075
3065.7759	30648.775
3068.16494	30557.175
3070.55254	30431.275
3072.93868	30396.475
3075.32338	30317.475
3077.70662	30235.475
3080.08842	30180.975
3082.46878	30120.975
3084.84769	30065.775
3087.22515	30042.875
3089.60118	30031.175
3091.97576	30007.575
3094.3489	30010.575
3096.72061	30011.275
3099.09087	29980.675
3101.4597	29970.875
3103.82709	30002.875
3106.19305	29986.875
3108.55757	29931.275
3110.92066	29874.375
3113.28232	29876.275
3115.64255	29753.175
3118.00134	29648.875
3120.35871	29616.875
3122.71466	29533.675
3125.06917	29496.575
