Data from AgNPs_FTO_APTES_UA_20uM_CRN_5uM_R6G_10uM_NaF_0.1M_Addition_RamanShift__19__13-54-02-158.txt Node

Date: Thu Feb 17 13:54:02 GMT 2022
User: TCL
Spectrometer: QEP01345
Trigger mode: 4
Integration Time (sec): 7.000000E0
Scans to average: 10
Electric dark correction enabled: true
Nonlinearity correction enabled: false
Boxcar width: 0
XAxis mode: Raman Shifts
Number of Pixels in Spectrum: 1044
>>>>>Begin Spectral Data<<<<<
46.04893	-0.025
50.45542	-1.425
54.85868	-2.825
59.25871	-2.225
63.6555	122.775
68.04907	125.775
72.43941	133.575
76.82654	131.975
81.21044	138.975
85.59113	137.675
89.96862	142.075
94.34289	146.675
98.71396	154.775
103.08183	157.275
107.4465	164.475
111.80798	165.975
116.16626	172.475
120.52136	183.575
124.87327	188.875
129.222	205.275
133.56755	218.975
137.90993	235.675
142.24913	262.475
146.58517	295.175
150.91804	351.075
155.24774	421.575
159.57429	532.075
163.89768	690.675
168.21792	931.275
172.53501	1280.275
176.84895	1797.375
181.15975	2548.575
185.46741	3582.775
189.77193	4960.775
194.07331	6655.275
198.37157	8609.775
202.6667	10638.275
206.9587	12695.675
211.24758	14658.975
215.53334	16644.775
219.81599	18707.875
224.09553	21050.575
228.37195	23570.375
232.64527	26386.575
236.91549	29403.975
241.18261	32404.175
245.44663	35333.775
249.70755	38037.375
253.96539	40384.675
258.22014	42328.275
262.4718	43999.175
266.72039	45216.275
270.96589	45840.375
275.20832	46019.975
279.44768	45800.775
283.68397	45439.575
287.91719	45097.875
292.14735	44879.475
296.37445	44842.475
300.59849	44822.475
304.81948	44908.575
309.03742	44769.875
313.25231	44375.475
317.46415	43663.775
321.67296	42871.875
325.87872	42243.775
330.08145	41942.175
334.28114	41992.175
338.47781	42366.675
342.67145	42817.375
346.86207	43501.475
351.04966	44277.275
355.23424	45016.675
359.4158	45747.875
363.59435	46305.975
367.76989	46634.175
371.94243	47012.375
376.11196	47305.475
380.27849	47610.975
384.44203	47897.775
388.60257	48175.775
392.76012	48579.375
396.91468	49093.575
401.06626	49643.775
405.21485	50091.875
409.36047	50047.775
413.50311	49630.075
417.64277	49232.175
421.77947	49114.875
425.9132	49399.275
430.04396	49757.375
434.17176	50059.675
438.2966	50617.375
442.41849	51394.975
446.53742	52577.975
450.6534	53936.275
454.76644	55003.575
458.87653	55446.675
462.98368	55271.575
467.08789	54709.575
471.18916	54071.775
475.2875	53516.975
479.38291	53208.075
483.4754	52936.375
487.56496	52388.075
491.6516	51777.175
495.73531	51220.475
499.81612	50848.275
503.89401	51033.875
507.96899	51180.575
512.04106	51079.275
516.11023	50852.975
520.1765	50540.775
524.23987	50411.375
528.30034	50179.175
532.35792	49921.275
536.41261	49536.275
540.46441	49252.075
544.51333	49255.375
548.55936	49767.775
552.60252	50678.575
556.64279	51639.875
560.6802	52423.475
564.71473	52795.075
568.7464	53370.575
572.7752	54347.975
576.80114	55159.375
580.82422	55843.375
584.84444	56520.975
588.86181	57426.175
592.87633	58195.975
596.888	58308.375
600.89682	57936.575
604.9028	58984.875
608.90594	62568.575
612.90624	65932.175
616.90371	62538.975
620.89834	55021.275
624.89015	51905.775
628.87913	51550.875
632.86528	51625.675
636.84862	51388.975
640.82913	50790.175
644.80683	49857.275
648.78172	49168.975
652.75379	49068.475
656.72306	49642.575
660.68952	50308.675
664.65319	50144.475
668.61405	49531.075
672.57211	49419.175
676.52738	49505.075
680.47986	49526.675
684.42955	49399.175
688.37646	49346.675
692.32058	49604.675
696.26192	50046.075
700.20048	50592.075
704.13626	50879.475
708.06928	50789.275
711.99952	50564.875
715.927	50427.175
719.85171	50519.775
723.77365	50494.075
727.69284	50141.375
731.60928	49779.975
735.52295	49668.475
739.43388	49711.475
743.34206	49945.875
747.24749	50128.975
751.15017	50408.875
755.05012	51019.975
758.94733	52145.475
762.8418	54069.375
766.73354	57089.375
770.62254	59938.275
774.50882	60369.275
778.39237	58100.675
782.27321	54817.175
786.15132	52229.375
790.02671	50689.075
793.89938	49932.475
797.76935	49605.375
801.6366	49477.875
805.50115	49399.475
809.36299	49269.575
813.22213	49029.175
817.07857	48927.275
820.93231	48889.775
824.78336	48747.975
828.63172	48636.575
832.47738	48684.775
836.32036	48710.675
840.16066	48871.575
843.99827	48907.075
847.8332	48933.075
851.66546	48805.875
855.49504	48808.775
859.32195	48827.875
863.1462	48702.575
866.96777	48730.275
870.78668	48676.575
874.60293	48665.475
878.41652	48709.675
882.22745	48782.175
886.03573	48843.075
889.84136	48810.175
893.64433	48608.475
897.44466	48497.775
901.24235	48327.075
905.0374	48240.075
908.8298	48180.475
912.61957	48227.775
916.40671	48557.975
920.19121	49041.975
923.97308	49450.975
927.75233	49526.875
931.52895	49107.075
935.30295	48639.275
939.07433	48136.075
942.84309	47688.475
946.60924	47559.875
950.37278	47512.575
954.13371	47548.475
957.89203	47427.475
961.64774	47294.975
965.40086	47185.175
969.15137	47112.675
972.89929	46927.075
976.64461	46823.875
980.38733	46812.575
984.12747	46971.875
987.86502	47314.075
991.59999	47860.275
995.33237	48505.875
999.06217	49556.475
1002.78939	50767.175
1006.51404	51644.375
1010.23611	52140.275
1013.95561	52510.975
1017.67255	52514.775
1021.38692	52163.075
1025.09872	51683.475
1028.80796	51677.875
1032.51465	52395.975
1036.21877	53041.375
1039.92035	53099.575
1043.61937	52715.375
1047.31584	51860.775
1051.00976	51127.775
1054.70114	50759.775
1058.38998	50846.575
1062.07627	51049.375
1065.76003	51405.575
1069.44126	51820.375
1073.11995	52321.675
1076.79611	52775.775
1080.46974	53103.075
1084.14085	53520.475
1087.80943	54037.575
1091.47549	54317.575
1095.13903	54237.075
1098.80005	53669.375
1102.45857	53037.775
1106.11456	52488.275
1109.76805	52379.975
1113.41903	52604.675
1117.06751	52879.875
1120.71348	53341.675
1124.35696	53633.775
1127.99793	53968.375
1131.63641	54001.175
1135.2724	53798.675
1138.90589	53503.975
1142.5369	53432.275
1146.16542	53523.575
1149.79145	53718.275
1153.415	54146.075
1157.03607	54806.175
1160.65467	55863.475
1164.27079	57576.075
1167.88443	59907.475
1171.49561	62960.975
1175.10432	66640.375
1178.71056	71136.075
1182.31434	75492.875
1185.91565	77598.475
1189.51451	77325.775
1193.11091	75353.175
1196.70485	72863.575
1200.29634	70420.775
1203.88538	68503.275
1207.47197	67147.575
1211.05612	65997.975
1214.63782	64980.975
1218.21708	64306.875
1221.79391	63957.375
1225.36829	63722.275
1228.94024	63082.675
1232.50976	61928.975
1236.07685	60938.975
1239.6415	60366.375
1243.20374	60430.375
1246.76355	60783.375
1250.32093	61521.975
1253.8759	62550.375
1257.42845	63898.175
1260.97859	65230.475
1264.52631	66553.175
1268.07163	67997.575
1271.61453	69636.975
1275.15503	71128.075
1278.69312	72808.775
1282.22882	74403.675
1285.76211	75985.175
1289.29301	77753.875
1292.82151	79941.975
1296.34761	82967.575
1299.87133	86828.575
1303.39266	91260.775
1306.9116	96140.975
1310.42815	100708.575
1313.94233	103831.675
1317.45412	104389.275
1320.96354	103178.975
1324.47058	101591.875
1327.97525	99972.175
1331.47754	98593.875
1334.97747	97929.975
1338.47502	97940.375
1341.97022	97937.275
1345.46305	97211.775
1348.95352	96012.575
1352.44163	94778.175
1355.92738	95247.275
1359.41078	97614.475
1362.89183	99819.475
1366.37053	97979.075
1369.84688	91339.375
1373.32088	83598.975
1376.79254	78163.575
1380.26186	75996.575
1383.72883	75698.875
1387.19347	75908.275
1390.65578	75594.575
1394.11575	75585.875
1397.57339	76379.175
1401.0287	77696.975
1404.48168	78935.175
1407.93234	79310.675
1411.38068	78740.875
1414.82669	76941.875
1418.27039	74472.375
1421.71177	71667.175
1425.15083	69394.675
1428.58758	68213.875
1432.02203	68343.275
1435.45416	69525.375
1438.88399	71190.175
1442.31151	72642.175
1445.73673	73789.975
1449.15965	74553.975
1452.58027	75159.975
1455.9986	75285.075
1459.41463	75739.375
1462.82837	76675.275
1466.23982	77923.375
1469.64898	79108.775
1473.05586	79911.775
1476.46045	79932.275
1479.86276	79478.275
1483.26279	78572.875
1486.66054	77865.175
1490.05602	77885.575
1493.44922	77963.975
1496.84016	78195.075
1500.22882	78890.575
1503.61521	80417.675
1506.99934	82716.775
1510.38121	84350.975
1513.76081	84556.275
1517.13816	82810.775
1520.51324	80367.075
1523.88607	78352.675
1527.25665	77441.775
1530.62498	77383.775
1533.99105	77535.275
1537.35488	77455.275
1540.71647	76791.275
1544.07581	75830.175
1547.4329	74576.175
1550.78776	73310.675
1554.14038	72291.175
1557.49077	71693.575
1560.83892	71345.175
1564.18484	71131.775
1567.52853	71207.975
1570.86999	71465.475
1574.20922	72081.375
1577.54624	72689.575
1580.88103	72621.575
1584.2136	72904.175
1587.54395	74518.975
1590.87208	77790.875
1594.19801	82260.275
1597.52172	86812.275
1600.84321	88473.475
1604.16251	85629.575
1607.47959	80411.875
1610.79447	74576.275
1614.10715	69146.375
1617.41763	64677.775
1620.7259	61377.675
1624.03199	59739.075
1627.33587	59401.775
1630.63757	60697.475
1633.93707	63707.175
1637.23439	68753.875
1640.52951	75806.675
1643.82246	83590.475
1647.11321	89157.875
1650.40179	89424.575
1653.68819	83726.675
1656.97241	74327.475
1660.25446	65498.375
1663.53433	58841.475
1666.81203	54662.375
1670.08756	51987.875
1673.36092	50215.175
1676.63211	49109.775
1679.90115	48222.275
1683.16801	47486.975
1686.43272	47037.175
1689.69527	46697.775
1692.95567	46414.475
1696.2139	46294.175
1699.46999	46168.775
1702.72392	46107.575
1705.97571	45974.575
1709.22535	45797.275
1712.47284	45837.075
1715.71819	45782.175
1718.96139	45677.075
1722.20246	45546.175
1725.44139	45416.675
1728.67818	45119.275
1731.91284	44979.975
1735.14537	44732.875
1738.37576	44591.675
1741.60403	44449.175
1744.83017	44350.975
1748.05418	44174.475
1751.27607	44067.675
1754.49584	44084.075
1757.71349	44024.275
1760.92903	44052.175
1764.14244	43970.475
1767.35375	43860.575
1770.56294	43826.275
1773.77002	43831.975
1776.97499	43790.075
1780.17785	43690.375
1783.37861	43621.575
1786.57727	43613.275
1789.77382	43477.975
1792.96828	43509.775
1796.16064	43409.175
1799.3509	43325.675
1802.53907	43295.475
1805.72514	43141.975
1808.90913	43042.375
1812.09102	42985.275
1815.27083	42895.875
1818.44856	42842.275
1821.6242	42777.575
1824.79776	42733.575
1827.96924	42727.975
1831.13864	42694.675
1834.30597	42695.875
1837.47122	42648.375
1840.6344	42573.975
1843.7955	42597.875
1846.95454	42585.175
1850.11151	42592.075
1853.26642	42510.975
1856.41926	42554.475
1859.57004	42480.075
1862.71876	42427.675
1865.86542	42411.175
1869.01003	42382.375
1872.15258	42341.975
1875.29308	42340.275
1878.43152	42255.475
1881.56792	42262.175
1884.70227	42225.575
1887.83457	42232.175
1890.96482	42247.775
1894.09304	42130.375
1897.21921	42105.775
1900.34335	42045.775
1903.46544	42024.175
1906.58551	42013.075
1909.70353	41994.575
1912.81953	41939.675
1915.93349	41858.575
1919.04543	41744.675
1922.15534	41733.375
1925.26322	41658.675
1928.36908	41581.275
1931.47292	41506.175
1934.57473	41396.875
1937.67453	41326.075
1940.77232	41217.175
1943.86808	41075.475
1946.96184	41035.575
1950.05358	40944.075
1953.14331	40765.675
1956.23103	40695.375
1959.31675	40551.475
1962.40046	40459.375
1965.48217	40323.675
1968.56188	40168.075
1971.63959	40030.175
1974.7153	39981.375
1977.78901	39831.375
1980.86073	39710.875
1983.93046	39650.375
1986.99819	39499.875
1990.06394	39452.275
1993.1277	39313.775
1996.18947	39243.075
1999.24925	39152.375
2002.30706	39023.075
2005.36288	38895.275
2008.41672	38823.275
2011.46859	38659.075
2014.51848	38584.675
2017.56639	38463.875
2020.61233	38367.775
2023.6563	38340.875
2026.6983	38172.775
2029.73833	38142.075
2032.7764	38078.675
2035.8125	38017.475
2038.84664	37927.875
2041.87881	37881.275
2044.90903	37822.475
2047.93729	37801.675
2050.96359	37769.475
2053.98794	37711.475
2057.01034	37660.375
2060.03078	37759.575
2063.04927	37658.075
2066.06582	37670.075
2069.08042	37604.775
2072.09307	37568.275
2075.10378	37479.175
2078.11255	37451.775
2081.11938	37511.375
2084.12426	37412.275
2087.12722	37430.475
2090.12824	37409.375
2093.12732	37400.275
2096.12447	37453.775
2099.11969	37353.975
2102.11299	37408.675
2105.10435	37441.975
2108.09379	37478.875
2111.08131	37483.375
2114.0669	37481.275
2117.05057	37429.675
2120.03233	37520.775
2123.01216	37575.375
2125.99008	37662.475
2128.96609	37719.275
2131.94018	37724.475
2134.91236	37731.375
2137.88263	37752.975
2140.851	37728.075
2143.81746	37777.275
2146.78201	37783.275
2149.74466	37849.075
2152.7054	37839.775
2155.66425	37831.575
2158.6212	37815.675
2161.57625	37788.075
2164.52941	37782.375
2167.48067	37741.675
2170.43004	37766.575
2173.37752	37708.175
2176.32311	37751.375
2179.26681	37797.575
2182.20863	37751.475
2185.14856	37829.375
2188.08661	37818.575
2191.02278	37767.175
2193.95707	37702.775
2196.88948	37691.875
2199.82001	37721.075
2202.74867	37665.775
2205.67545	37687.475
2208.60037	37594.575
2211.52341	37601.775
2214.44458	37566.275
2217.36388	37530.175
2220.28132	37487.675
2223.1969	37422.975
2226.11061	37281.575
2229.02246	37171.675
2231.93245	37121.775
2234.84058	37103.875
2237.74686	37008.675
2240.65128	37009.075
2243.55385	36919.875
2246.45456	36930.775
2249.35343	36879.075
2252.25044	36875.875
2255.14561	36768.475
2258.03893	36756.575
2260.93041	36637.275
2263.82004	36558.175
2266.70783	36464.975
2269.59378	36395.175
2272.4779	36370.075
2275.36017	36268.275
2278.24061	36239.875
2281.11922	36152.275
2283.996	36041.975
2286.87094	36084.475
2289.74405	36054.575
2292.61534	35990.175
2295.4848	35991.975
2298.35243	35954.775
2301.21824	35921.975
2304.08223	35972.975
2306.94439	35900.875
2309.80474	35931.775
2312.66327	35957.275
2315.51999	35982.775
2318.37489	35935.975
2321.22797	35910.775
2324.07925	35899.175
2326.92871	35785.875
2329.77637	35748.175
2332.62222	35749.475
2335.46626	35700.575
2338.3085	35724.175
2341.14893	35732.975
2343.98756	35706.375
2346.8244	35671.475
2349.65943	35726.175
2352.49267	35667.775
2355.32411	35671.375
2358.15376	35663.575
2360.98161	35600.075
2363.80768	35548.175
2366.63195	35561.075
2369.45444	35511.175
2372.27514	35440.975
2375.09405	35408.775
2377.91118	35331.375
2380.72652	35234.675
2383.54009	35163.575
2386.35187	35093.175
2389.16188	35001.775
2391.97011	34953.875
2394.77657	34912.175
2397.58125	34865.075
2400.38416	34820.175
2403.18529	34759.775
2405.98466	34764.975
2408.78226	34646.175
2411.57809	34631.875
2414.37216	34604.275
2417.16446	34545.175
2419.955	34526.375
2422.74378	34546.875
2425.5308	34464.275
2428.31606	34472.875
2431.09956	34453.775
2433.88131	34401.675
2436.6613	34409.875
2439.43954	34412.575
2442.21603	34356.275
2444.99077	34307.875
2447.76377	34318.475
2450.53501	34323.775
2453.30451	34320.375
2456.07226	34303.975
2458.83827	34251.575
2461.60254	34199.275
2464.36507	34202.875
2467.12586	34240.075
2469.88492	34227.975
2472.64224	34231.875
2475.39782	34205.975
2478.15167	34262.475
2480.90379	34273.975
2483.65417	34313.175
2486.40283	34345.775
2489.14976	34334.975
2491.89497	34287.475
2494.63845	34327.075
2497.3802	34284.175
2500.12024	34223.475
2502.85855	34263.375
2505.59514	34218.675
2508.33002	34157.175
2511.06318	34114.075
2513.79462	34094.175
2516.52435	34080.975
2519.25237	34053.475
2521.97867	34037.575
2524.70327	34000.275
2527.42616	34027.875
2530.14734	34047.675
2532.86681	33883.975
2535.58458	33897.275
2538.30065	33905.075
2541.01501	33912.975
2543.72768	33910.175
2546.43864	33885.775
2549.14791	33833.275
2551.85548	33805.575
2554.56136	33717.475
2557.26554	33693.175
2559.96803	33559.075
2562.66883	33583.575
2565.36794	33504.575
2568.06536	33537.475
2570.7611	33477.075
2573.45514	33406.175
2576.14751	33351.175
2578.83819	33357.175
2581.52719	33365.775
2584.21451	33297.975
2586.90015	33295.975
2589.58411	33267.275
2592.2664	33239.275
2594.94701	33260.675
2597.62594	33286.875
2600.30321	33246.975
2602.9788	33233.175
2605.65273	33199.175
2608.32498	33176.275
2610.99557	33187.275
2613.66449	33208.275
2616.33175	33201.175
2618.99734	33103.175
2621.66128	33114.975
2624.32355	33078.575
2626.98416	33116.975
2629.64311	33077.875
2632.30041	33095.475
2634.95605	33047.975
2637.61004	33002.975
2640.26238	33014.575
2642.91306	32970.775
2645.56209	32933.175
2648.20948	32872.675
2650.85521	32932.175
2653.4993	32914.875
2656.14175	32879.775
2658.78255	32955.475
2661.42171	32961.875
2664.05923	32990.275
2666.6951	32955.475
2669.32934	32985.075
2671.96194	32989.175
2674.59291	32999.275
2677.22224	33031.475
2679.84993	33058.575
2682.476	32956.175
2685.10043	32992.675
2687.72324	32895.375
2690.34441	32901.375
2692.96396	32877.875
2695.58188	32894.575
2698.19818	32858.275
2700.81285	32878.975
2703.4259	32814.175
2706.03733	32916.575
2708.64714	32873.675
2711.25533	32934.775
2713.86191	32859.075
2716.46687	32962.375
2719.07021	32961.575
2721.67194	32980.275
2724.27206	32944.775
2726.87057	32974.275
2729.46747	32981.375
2732.06276	32970.875
2734.65644	32953.975
2737.24852	33039.675
2739.83899	32975.375
2742.42786	33033.875
2745.01513	32980.375
2747.60079	32946.475
2750.18486	32908.175
2752.76733	32930.275
2755.3482	32854.975
2757.92747	32819.475
2760.50515	32795.475
2763.08123	32792.975
2765.65573	32811.175
2768.22863	32827.375
2770.79994	32762.575
2773.36967	32808.775
2775.9378	32844.575
2778.50435	32796.675
2781.06932	32729.975
2783.6327	32720.875
2786.1945	32680.875
2788.75471	32647.475
2791.31335	32579.475
2793.87041	32592.675
2796.42589	32479.075
2798.97979	32472.175
2801.53212	32370.675
2804.08288	32354.675
2806.63206	32274.975
2809.17967	32255.175
2811.72571	32139.575
2814.27018	32054.175
2816.81308	31977.975
2819.35442	31890.475
2821.89419	31834.075
2824.43239	31888.875
2826.96904	31866.775
2829.50412	31875.575
2832.03763	31761.375
2834.56959	31749.575
2837.1	31657.775
2839.62884	31634.375
2842.15613	31597.175
2844.68186	31585.975
2847.20604	31564.975
2849.72867	31571.375
2852.24974	31527.375
2854.76927	31431.675
2857.28724	31458.075
2859.80367	31460.275
2862.31855	31419.175
2864.83189	31360.875
2867.34368	31270.675
2869.85393	31302.975
2872.36264	31272.975
2874.8698	31242.475
2877.37543	31213.075
2879.87952	31195.675
2882.38207	31173.375
2884.88308	31173.675
2887.38256	31219.875
2889.88051	31201.875
2892.37692	31253.375
2894.8718	31254.675
2897.36515	31262.475
2899.85698	31313.275
2902.34727	31339.375
2904.83604	31340.275
2907.32328	31404.175
2909.809	31393.475
2912.29319	31444.275
2914.77587	31444.875
2917.25702	31460.275
2919.73665	31411.575
2922.21476	31385.075
2924.69136	31337.875
2927.16644	31349.075
2929.64	31265.475
2932.11205	31249.975
2934.58258	31173.175
2937.05161	31238.075
2939.51912	31206.275
2941.98513	31209.375
2944.44962	31160.075
2946.91261	31101.475
2949.37409	31188.475
2951.83407	31105.075
2954.29254	31094.975
2956.74951	31145.775
2959.20498	31085.275
2961.65895	31047.175
2964.11142	31080.775
2966.56239	31064.075
2969.01186	30995.275
2971.45984	30918.875
2973.90632	30899.075
2976.35131	30835.575
2978.7948	30831.175
2981.23681	30742.575
2983.67732	30710.675
2986.11635	30631.875
2988.55388	30531.775
2990.98993	30525.775
2993.4245	30471.575
2995.85758	30368.375
2998.28917	30297.775
3000.71928	30232.575
3003.14791	30176.775
3005.57506	30187.075
3008.00073	30073.275
3010.42493	30059.275
3012.84764	29966.075
3015.26888	29952.075
3017.68865	29938.875
3020.10694	29847.375
3022.52376	29779.675
3024.9391	29797.375
3027.35298	29725.175
3029.76539	29721.275
3032.17632	29714.975
3034.5858	29627.275
3036.9938	29592.675
3039.40034	29609.475
3041.80542	29600.275
3044.20903	29520.075
3046.61118	29499.875
3049.01187	29413.075
3051.4111	29372.375
3053.80888	29299.375
3056.20519	29261.675
3058.60005	29160.175
3060.99345	29175.075
3063.3854	29082.175
3065.7759	28954.775
3068.16494	28887.975
3070.55254	28775.875
3072.93868	28734.775
3075.32338	28571.275
3077.70662	28556.875
3080.08842	28494.075
3082.46878	28442.275
3084.84769	28413.275
3087.22515	28430.475
3089.60118	28388.975
3091.97576	28322.975
3094.3489	28321.975
3096.72061	28349.575
3099.09087	28365.075
3101.4597	28355.375
3103.82709	28312.375
3106.19305	28284.075
3108.55757	28278.675
3110.92066	28178.075
3113.28232	28228.575
3115.64255	28125.475
3118.00134	28021.275
3120.35871	27930.975
3122.71466	27869.875
3125.06917	27828.375
