Data from AgNPs_FTO_APTES_UA_20uM_CRN_20uM_R6G_10uM_NaF_0.1M_Addition_RamanShift__4__14-54-42-237.txt Node

Date: Thu Feb 17 14:54:42 GMT 2022
User: TCL
Spectrometer: QEP01345
Trigger mode: 4
Integration Time (sec): 7.000000E0
Scans to average: 10
Electric dark correction enabled: true
Nonlinearity correction enabled: false
Boxcar width: 0
XAxis mode: Raman Shifts
Number of Pixels in Spectrum: 1044
>>>>>Begin Spectral Data<<<<<
46.04893	1.175
50.45542	-1.925
54.85868	-2.525
59.25871	-1.025
63.6555	124.175
68.04907	127.575
72.43941	132.975
76.82654	135.475
81.21044	142.275
85.59113	146.875
89.96862	147.275
94.34289	149.975
98.71396	156.575
103.08183	162.175
107.4465	164.475
111.80798	171.575
116.16626	177.975
120.52136	185.575
124.87327	193.675
129.222	207.875
133.56755	217.275
137.90993	235.875
142.24913	261.575
146.58517	301.075
150.91804	354.375
155.24774	422.175
159.57429	534.175
163.89768	693.875
168.21792	920.975
172.53501	1279.175
176.84895	1799.975
181.15975	2547.275
185.46741	3580.175
189.77193	4966.275
194.07331	6664.075
198.37157	8584.375
202.6667	10629.175
206.9587	12672.375
211.24758	14633.975
215.53334	16596.975
219.81599	18681.775
224.09553	20969.275
228.37195	23527.175
232.64527	26285.175
236.91549	29294.175
241.18261	32375.275
245.44663	35200.275
249.70755	37791.775
253.96539	40117.475
258.22014	42011.175
262.4718	43487.975
266.72039	44714.775
270.96589	45318.375
275.20832	45416.775
279.44768	45160.975
283.68397	44665.975
287.91719	44339.575
292.14735	44034.675
296.37445	43995.675
300.59849	44119.575
304.81948	44298.975
309.03742	44345.175
313.25231	44229.575
317.46415	43744.075
321.67296	43048.975
325.87872	42497.975
330.08145	42230.775
334.28114	42272.275
338.47781	42606.175
342.67145	43063.775
346.86207	43731.675
351.04966	44446.975
355.23424	45237.675
359.4158	45858.375
363.59435	46307.375
367.76989	46689.775
371.94243	47010.375
376.11196	47262.875
380.27849	47594.775
384.44203	47856.975
388.60257	48235.575
392.76012	48647.175
396.91468	49140.075
401.06626	49697.875
405.21485	50114.675
409.36047	50071.975
413.50311	49627.875
417.64277	49253.575
421.77947	49192.875
425.9132	49314.375
430.04396	49594.375
434.17176	49957.575
438.2966	50394.375
442.41849	51243.975
446.53742	52551.275
450.6534	53960.975
454.76644	54981.275
458.87653	55348.975
462.98368	55073.375
467.08789	54340.375
471.18916	53596.775
475.2875	52745.475
479.38291	52313.775
483.4754	51893.375
487.56496	51412.275
491.6516	50892.675
495.73531	50506.975
499.81612	50303.275
503.89401	50575.275
507.96899	50738.775
512.04106	50848.775
516.11023	50673.575
520.1765	50553.975
524.23987	50422.775
528.30034	50309.075
532.35792	50115.975
536.41261	49721.275
540.46441	49328.975
544.51333	49408.875
548.55936	49705.775
552.60252	50539.575
556.64279	51439.775
560.6802	52222.975
564.71473	52505.875
568.7464	52926.375
572.7752	53937.175
576.80114	54960.275
580.82422	55957.575
584.84444	57278.275
588.86181	58861.775
592.87633	60426.675
596.888	60538.375
600.89682	59138.375
604.9028	59174.975
608.90594	62212.475
612.90624	65516.875
616.90371	62558.875
620.89834	55254.875
624.89015	51960.675
628.87913	51479.775
632.86528	51617.575
636.84862	51578.875
640.82913	51085.875
644.80683	50247.575
648.78172	49651.075
652.75379	49593.475
656.72306	50130.875
660.68952	50787.575
664.65319	50580.175
668.61405	50043.775
672.57211	49973.775
676.52738	50167.475
680.47986	50192.375
684.42955	49943.375
688.37646	49834.775
692.32058	50135.175
696.26192	50704.875
700.20048	51304.575
704.13626	51619.975
708.06928	51620.275
711.99952	51349.375
715.927	51322.375
719.85171	51378.575
723.77365	51413.175
727.69284	51009.875
731.60928	50500.475
735.52295	50314.175
739.43388	50433.775
743.34206	50535.675
747.24749	50707.675
751.15017	51054.675
755.05012	51723.075
758.94733	52813.675
762.8418	54586.075
766.73354	57473.875
770.62254	60174.875
774.50882	60814.275
778.39237	58787.275
782.27321	55772.475
786.15132	53278.775
790.02671	51662.575
793.89938	50921.375
797.76935	50688.875
801.6366	50464.275
805.50115	50342.075
809.36299	50162.875
813.22213	50012.575
817.07857	49905.975
820.93231	49829.575
824.78336	49783.075
828.63172	49696.075
832.47738	49731.475
836.32036	49751.375
840.16066	49878.375
843.99827	50036.775
847.8332	50048.275
851.66546	49985.675
855.49504	50128.575
859.32195	50149.175
863.1462	50115.775
866.96777	50002.875
870.78668	49942.675
874.60293	49989.475
878.41652	50055.275
882.22745	50211.475
886.03573	50333.775
889.84136	50268.275
893.64433	50047.875
897.44466	49844.075
901.24235	49755.175
905.0374	49642.375
908.8298	49677.075
912.61957	49739.275
916.40671	50043.775
920.19121	50616.575
923.97308	50994.575
927.75233	50898.175
931.52895	50595.575
935.30295	50155.175
939.07433	49607.875
942.84309	49257.075
946.60924	49087.775
950.37278	49065.875
954.13371	49031.975
957.89203	48930.275
961.64774	48812.275
965.40086	48793.175
969.15137	48704.575
972.89929	48652.475
976.64461	48599.375
980.38733	48698.875
984.12747	48801.475
987.86502	49121.475
991.59999	49591.975
995.33237	50044.775
999.06217	50902.175
1002.78939	51880.075
1006.51404	52704.875
1010.23611	53306.175
1013.95561	53847.775
1017.67255	53936.875
1021.38692	53619.975
1025.09872	52979.175
1028.80796	52718.375
1032.51465	53157.875
1036.21877	53777.075
1039.92035	53981.075
1043.61937	53756.375
1047.31584	53212.675
1051.00976	52711.675
1054.70114	52396.475
1058.38998	52399.975
1062.07627	52655.775
1065.76003	52987.575
1069.44126	53408.275
1073.11995	53997.175
1076.79611	54513.075
1080.46974	54866.875
1084.14085	55268.275
1087.80943	55657.575
1091.47549	55988.975
1095.13903	55931.975
1098.80005	55485.275
1102.45857	54694.875
1106.11456	54224.575
1109.76805	54063.975
1113.41903	54216.475
1117.06751	54516.675
1120.71348	54731.875
1124.35696	55084.275
1127.99793	55473.175
1131.63641	55587.375
1135.2724	55369.575
1138.90589	55220.075
1142.5369	55172.375
1146.16542	55303.575
1149.79145	55504.575
1153.415	55861.775
1157.03607	56344.675
1160.65467	57385.175
1164.27079	59162.575
1167.88443	61319.475
1171.49561	63933.675
1175.10432	67224.575
1178.71056	71359.175
1182.31434	75213.175
1185.91565	77019.975
1189.51451	76504.075
1193.11091	74822.275
1196.70485	72665.375
1200.29634	70567.575
1203.88538	69207.975
1207.47197	68359.275
1211.05612	67405.975
1214.63782	66266.075
1218.21708	65169.275
1221.79391	64393.875
1225.36829	63936.475
1228.94024	63387.975
1232.50976	62396.875
1236.07685	61389.575
1239.6415	60906.875
1243.20374	60929.475
1246.76355	61344.675
1250.32093	62207.975
1253.8759	63181.875
1257.42845	64456.475
1260.97859	65762.475
1264.52631	67101.375
1268.07163	68609.475
1271.61453	70199.975
1275.15503	71691.175
1278.69312	73183.375
1282.22882	74536.375
1285.76211	76006.075
1289.29301	77894.175
1292.82151	80352.875
1296.34761	83485.975
1299.87133	87533.375
1303.39266	92076.475
1306.9116	96525.375
1310.42815	100340.175
1313.94233	102449.475
1317.45412	102053.275
1320.96354	100356.175
1324.47058	98415.675
1327.97525	96493.175
1331.47754	94980.375
1334.97747	93987.975
1338.47502	93440.675
1341.97022	93061.275
1345.46305	92647.075
1348.95352	92174.775
1352.44163	92482.375
1355.92738	94037.075
1359.41078	97290.575
1362.89183	99958.375
1366.37053	98304.875
1369.84688	91514.375
1373.32088	83303.575
1376.79254	77708.275
1380.26186	75519.875
1383.72883	75302.875
1387.19347	75579.775
1390.65578	75211.475
1394.11575	74782.375
1397.57339	75008.575
1401.0287	75772.275
1404.48168	76507.775
1407.93234	76625.375
1411.38068	75807.475
1414.82669	74227.875
1418.27039	72109.775
1421.71177	69978.175
1425.15083	68264.675
1428.58758	67445.375
1432.02203	67868.175
1435.45416	69112.275
1438.88399	70751.175
1442.31151	72075.975
1445.73673	72730.575
1449.15965	72997.275
1452.58027	72913.775
1455.9986	72715.175
1459.41463	72926.875
1462.82837	73739.575
1466.23982	74887.175
1469.64898	76237.375
1473.05586	77266.175
1476.46045	77563.275
1479.86276	77259.875
1483.26279	76574.575
1486.66054	76144.575
1490.05602	76340.775
1493.44922	76994.975
1496.84016	77660.375
1500.22882	78880.575
1503.61521	80947.075
1506.99934	83338.475
1510.38121	85063.175
1513.76081	84981.175
1517.13816	83098.275
1520.51324	80467.075
1523.88607	78589.475
1527.25665	77864.075
1530.62498	77894.675
1533.99105	77955.675
1537.35488	77599.975
1540.71647	76633.275
1544.07581	75303.975
1547.4329	73744.875
1550.78776	72426.175
1554.14038	71434.475
1557.49077	70861.275
1560.83892	70480.775
1564.18484	70494.475
1567.52853	70568.375
1570.86999	71139.775
1574.20922	71997.675
1577.54624	72653.075
1580.88103	72555.575
1584.2136	72694.475
1587.54395	74286.375
1590.87208	77340.375
1594.19801	81456.775
1597.52172	85711.475
1600.84321	87122.975
1604.16251	84362.175
1607.47959	79195.675
1610.79447	73591.275
1614.10715	68610.075
1617.41763	64438.275
1620.7259	61697.475
1624.03199	60282.875
1627.33587	60344.075
1630.63757	61573.275
1633.93707	64443.775
1637.23439	69295.775
1640.52951	76358.675
1643.82246	84395.675
1647.11321	90553.375
1650.40179	91213.075
1653.68819	85311.575
1656.97241	75939.675
1660.25446	67099.075
1663.53433	60667.775
1666.81203	56695.175
1670.08756	54162.975
1673.36092	52592.375
1676.63211	51480.775
1679.90115	50700.475
1683.16801	50130.275
1686.43272	49621.775
1689.69527	49352.875
1692.95567	49120.375
1696.2139	48968.575
1699.46999	48879.075
1702.72392	48823.875
1705.97571	48703.075
1709.22535	48583.375
1712.47284	48627.375
1715.71819	48629.375
1718.96139	48505.375
1722.20246	48448.175
1725.44139	48235.475
1728.67818	47978.275
1731.91284	47691.975
1735.14537	47606.275
1738.37576	47475.375
1741.60403	47435.475
1744.83017	47225.575
1748.05418	47122.775
1751.27607	47047.075
1754.49584	46973.375
1757.71349	47055.575
1760.92903	47021.875
1764.14244	46982.575
1767.35375	46883.475
1770.56294	46871.875
1773.77002	46733.775
1776.97499	46777.275
1780.17785	46651.175
1783.37861	46551.775
1786.57727	46534.375
1789.77382	46485.775
1792.96828	46419.575
1796.16064	46392.775
1799.3509	46232.975
1802.53907	46177.775
1805.72514	46061.875
1808.90913	46013.975
1812.09102	45981.675
1815.27083	45898.475
1818.44856	45846.075
1821.6242	45728.275
1824.79776	45765.075
1827.96924	45666.975
1831.13864	45690.075
1834.30597	45716.575
1837.47122	45663.275
1840.6344	45628.175
1843.7955	45572.075
1846.95454	45591.475
1850.11151	45548.075
1853.26642	45564.975
1856.41926	45467.075
1859.57004	45481.475
1862.71876	45470.775
1865.86542	45389.675
1869.01003	45447.075
1872.15258	45350.975
1875.29308	45295.475
1878.43152	45320.575
1881.56792	45223.175
1884.70227	45161.375
1887.83457	45060.975
1890.96482	45083.075
1894.09304	45086.475
1897.21921	45115.275
1900.34335	45068.475
1903.46544	44955.475
1906.58551	44922.575
1909.70353	44896.975
1912.81953	44916.775
1915.93349	44737.375
1919.04543	44638.375
1922.15534	44588.975
1925.26322	44478.975
1928.36908	44419.675
1931.47292	44398.475
1934.57473	44411.975
1937.67453	44257.175
1940.77232	44160.275
1943.86808	44049.175
1946.96184	43964.275
1950.05358	43929.975
1953.14331	43797.775
1956.23103	43672.375
1959.31675	43560.575
1962.40046	43448.275
1965.48217	43311.875
1968.56188	43183.775
1971.63959	43106.875
1974.7153	42978.575
1977.78901	42870.275
1980.86073	42744.775
1983.93046	42656.175
1986.99819	42515.975
1990.06394	42498.475
1993.1277	42389.175
1996.18947	42207.775
1999.24925	42156.775
2002.30706	41994.375
2005.36288	41890.275
2008.41672	41713.475
2011.46859	41641.975
2014.51848	41584.275
2017.56639	41447.175
2020.61233	41342.075
2023.6563	41245.675
2026.6983	41184.275
2029.73833	41183.375
2032.7764	41095.575
2035.8125	41002.675
2038.84664	40894.575
2041.87881	40893.475
2044.90903	40731.875
2047.93729	40702.575
2050.96359	40751.175
2053.98794	40653.575
2057.01034	40667.475
2060.03078	40680.975
2063.04927	40663.875
2066.06582	40660.075
2069.08042	40619.375
2072.09307	40577.975
2075.10378	40482.775
2078.11255	40477.575
2081.11938	40522.675
2084.12426	40491.075
2087.12722	40497.875
2090.12824	40473.075
2093.12732	40451.075
2096.12447	40524.875
2099.11969	40549.375
2102.11299	40597.575
2105.10435	40622.475
2108.09379	40625.875
2111.08131	40606.475
2114.0669	40645.775
2117.05057	40736.875
2120.03233	40836.375
2123.01216	40834.875
2125.99008	40854.475
2128.96609	40822.875
2131.94018	40830.375
2134.91236	40907.375
2137.88263	40936.075
2140.851	40904.975
2143.81746	41033.875
2146.78201	40992.575
2149.74466	40997.975
2152.7054	41073.875
2155.66425	40994.575
2158.6212	41025.375
2161.57625	40982.075
2164.52941	40960.975
2167.48067	40961.375
2170.43004	40922.375
2173.37752	40978.775
2176.32311	41062.775
2179.26681	41101.275
2182.20863	41077.675
2185.14856	41043.775
2188.08661	41034.075
2191.02278	41029.975
2193.95707	40999.175
2196.88948	40993.075
2199.82001	40985.575
2202.74867	40957.875
2205.67545	40945.975
2208.60037	40921.075
2211.52341	40799.075
2214.44458	40785.675
2217.36388	40690.975
2220.28132	40647.175
2223.1969	40604.575
2226.11061	40569.275
2229.02246	40521.875
2231.93245	40445.075
2234.84058	40372.475
2237.74686	40276.875
2240.65128	40271.875
2243.55385	40231.275
2246.45456	40192.475
2249.35343	40158.375
2252.25044	40168.175
2255.14561	40050.375
2258.03893	39980.275
2260.93041	39976.275
2263.82004	39870.275
2266.70783	39809.975
2269.59378	39688.575
2272.4779	39549.075
2275.36017	39527.275
2278.24061	39465.375
2281.11922	39368.475
2283.996	39337.675
2286.87094	39316.075
2289.74405	39290.275
2292.61534	39323.475
2295.4848	39260.875
2298.35243	39296.075
2301.21824	39212.975
2304.08223	39249.975
2306.94439	39252.275
2309.80474	39210.875
2312.66327	39210.275
2315.51999	39182.375
2318.37489	39121.975
2321.22797	39144.675
2324.07925	39069.375
2326.92871	38990.175
2329.77637	38951.075
2332.62222	38909.775
2335.46626	38911.875
2338.3085	38933.975
2341.14893	38917.175
2343.98756	38910.375
2346.8244	38885.775
2349.65943	38851.275
2352.49267	38859.175
2355.32411	38889.475
2358.15376	38856.975
2360.98161	38793.275
2363.80768	38722.075
2366.63195	38703.675
2369.45444	38623.675
2372.27514	38575.875
2375.09405	38533.575
2377.91118	38458.075
2380.72652	38407.175
2383.54009	38342.675
2386.35187	38310.175
2389.16188	38212.075
2391.97011	38160.075
2394.77657	38088.275
2397.58125	38079.575
2400.38416	37977.675
2403.18529	37892.275
2405.98466	37896.375
2408.78226	37869.775
2411.57809	37785.375
2414.37216	37768.775
2417.16446	37752.075
2419.955	37708.075
2422.74378	37767.275
2425.5308	37685.675
2428.31606	37695.075
2431.09956	37603.275
2433.88131	37631.075
2436.6613	37683.275
2439.43954	37677.775
2442.21603	37604.275
2444.99077	37544.475
2447.76377	37531.975
2450.53501	37548.475
2453.30451	37526.775
2456.07226	37486.775
2458.83827	37466.275
2461.60254	37448.075
2464.36507	37390.375
2467.12586	37391.975
2469.88492	37398.775
2472.64224	37409.575
2475.39782	37420.375
2478.15167	37471.375
2480.90379	37454.075
2483.65417	37452.075
2486.40283	37456.375
2489.14976	37490.375
2491.89497	37403.975
2494.63845	37468.775
2497.3802	37412.275
2500.12024	37376.175
2502.85855	37324.675
2505.59514	37336.275
2508.33002	37326.275
2511.06318	37267.675
2513.79462	37195.375
2516.52435	37120.575
2519.25237	37159.875
2521.97867	37123.175
2524.70327	37174.775
2527.42616	37135.975
2530.14734	37094.275
2532.86681	37036.775
2535.58458	37034.075
2538.30065	36970.175
2541.01501	36962.675
2543.72768	36940.775
2546.43864	36956.575
2549.14791	36870.375
2551.85548	36872.975
2554.56136	36771.275
2557.26554	36729.875
2559.96803	36664.675
2562.66883	36670.775
2565.36794	36606.175
2568.06536	36609.375
2570.7611	36616.675
2573.45514	36513.075
2576.14751	36524.575
2578.83819	36485.375
2581.52719	36447.875
2584.21451	36409.975
2586.90015	36404.475
2589.58411	36298.575
2592.2664	36214.075
2594.94701	36207.575
2597.62594	36169.175
2600.30321	36171.775
2602.9788	36175.975
2605.65273	36083.175
2608.32498	36131.975
2610.99557	36073.375
2613.66449	36092.075
2616.33175	36065.875
2618.99734	36086.575
2621.66128	36092.075
2624.32355	35991.075
2626.98416	35959.875
2629.64311	35886.975
2632.30041	35907.375
2634.95605	35867.375
2637.61004	35856.175
2640.26238	35849.075
2642.91306	35792.475
2645.56209	35769.375
2648.20948	35791.975
2650.85521	35806.675
2653.4993	35807.575
2656.14175	35807.775
2658.78255	35869.175
2661.42171	35830.075
2664.05923	35868.475
2666.6951	35803.375
2669.32934	35845.575
2671.96194	35827.775
2674.59291	35787.175
2677.22224	35779.575
2679.84993	35861.875
2682.476	35814.175
2685.10043	35851.375
2687.72324	35775.875
2690.34441	35765.475
2692.96396	35755.775
2695.58188	35737.875
2698.19818	35760.875
2700.81285	35770.275
2703.4259	35706.075
2706.03733	35797.875
2708.64714	35752.875
2711.25533	35794.275
2713.86191	35797.875
2716.46687	35890.675
2719.07021	35931.075
2721.67194	35980.975
2724.27206	35952.375
2726.87057	35986.475
2729.46747	35996.575
2732.06276	36019.375
2734.65644	35992.875
2737.24852	35933.475
2739.83899	35871.575
2742.42786	35952.075
2745.01513	35910.375
2747.60079	35903.575
2750.18486	35837.875
2752.76733	35739.675
2755.3482	35730.275
2757.92747	35750.475
2760.50515	35648.275
2763.08123	35679.275
2765.65573	35607.375
2768.22863	35553.175
2770.79994	35541.675
2773.36967	35536.075
2775.9378	35566.875
2778.50435	35590.475
2781.06932	35543.275
2783.6327	35521.675
2786.1945	35431.075
2788.75471	35443.775
2791.31335	35399.775
2793.87041	35348.875
2796.42589	35226.275
2798.97979	35230.175
2801.53212	35077.275
2804.08288	35091.275
2806.63206	34976.275
2809.17967	34906.875
2811.72571	34769.375
2814.27018	34713.375
2816.81308	34668.175
2819.35442	34641.375
2821.89419	34629.975
2824.43239	34634.975
2826.96904	34596.275
2829.50412	34589.375
2832.03763	34455.175
2834.56959	34502.975
2837.1	34393.775
2839.62884	34388.875
2842.15613	34341.575
2844.68186	34377.975
2847.20604	34287.275
2849.72867	34253.175
2852.24974	34219.975
2854.76927	34214.775
2857.28724	34178.575
2859.80367	34219.975
2862.31855	34082.075
2864.83189	34050.075
2867.34368	34013.975
2869.85393	34052.875
2872.36264	33992.375
2874.8698	33950.775
2877.37543	33964.175
2879.87952	33891.875
2882.38207	33918.475
2884.88308	33863.975
2887.38256	33884.975
2889.88051	33876.175
2892.37692	33903.475
2894.8718	33991.175
2897.36515	33951.575
2899.85698	33921.575
2902.34727	33989.375
2904.83604	34025.575
2907.32328	34064.875
2909.809	34104.675
2912.29319	34146.275
2914.77587	34175.975
2917.25702	34153.275
2919.73665	34111.875
2922.21476	34106.875
2924.69136	34049.675
2927.16644	34072.175
2929.64	34006.375
2932.11205	33933.875
2934.58258	33848.475
2937.05161	33940.275
2939.51912	33912.175
2941.98513	33900.075
2944.44962	33870.975
2946.91261	33759.975
2949.37409	33913.275
2951.83407	33832.475
2954.29254	33854.975
2956.74951	33829.575
2959.20498	33889.075
2961.65895	33795.875
2964.11142	33810.875
2966.56239	33745.875
2969.01186	33767.275
2971.45984	33686.275
2973.90632	33696.975
2976.35131	33611.275
2978.7948	33585.475
2981.23681	33507.375
2983.67732	33478.975
2986.11635	33410.975
2988.55388	33359.475
2990.98993	33294.575
2993.4245	33181.275
2995.85758	33073.875
2998.28917	33029.275
3000.71928	32980.675
3003.14791	32926.775
3005.57506	32896.775
3008.00073	32790.975
3010.42493	32779.975
3012.84764	32695.675
3015.26888	32732.575
3017.68865	32623.675
3020.10694	32615.375
3022.52376	32537.875
3024.9391	32498.775
3027.35298	32485.575
3029.76539	32439.575
3032.17632	32405.275
3034.5858	32356.075
3036.9938	32378.075
3039.40034	32363.575
3041.80542	32359.775
3044.20903	32316.375
3046.61118	32290.875
3049.01187	32199.475
3051.4111	32127.575
3053.80888	32066.975
3056.20519	32038.375
3058.60005	31939.475
3060.99345	31955.875
3063.3854	31878.175
3065.7759	31765.675
3068.16494	31688.975
3070.55254	31602.775
3072.93868	31534.675
3075.32338	31434.375
3077.70662	31412.875
3080.08842	31308.275
3082.46878	31283.575
3084.84769	31230.675
3087.22515	31266.075
3089.60118	31220.575
3091.97576	31195.275
3094.3489	31166.375
3096.72061	31168.075
3099.09087	31235.375
3101.4597	31171.575
3103.82709	31206.475
3106.19305	31128.875
3108.55757	31106.675
3110.92066	30985.175
3113.28232	30986.475
3115.64255	30893.075
3118.00134	30871.375
3120.35871	30794.175
3122.71466	30764.475
3125.06917	30674.075
