Data from AgNPs_FTO_APTES_UA_20uM_CRN_200uM_R6G_10uM_NaF_0.1M_Addition_RamanShift__26__18-22-44-941.txt Node

Date: Thu Feb 17 18:22:44 GMT 2022
User: TCL
Spectrometer: QEP01345
Trigger mode: 4
Integration Time (sec): 1.000000E1
Scans to average: 7
Electric dark correction enabled: true
Nonlinearity correction enabled: false
Boxcar width: 0
XAxis mode: Raman Shifts
Number of Pixels in Spectrum: 1044
>>>>>Begin Spectral Data<<<<<
46.04893	0.53571
50.45542	-0.75
54.85868	-0.75
59.25871	-2.60714
63.6555	92.39286
68.04907	96.53571
72.43941	100.39286
76.82654	106.96429
81.21044	107.39286
85.59113	114.96429
89.96862	116.25
94.34289	116.39286
98.71396	123.10714
103.08183	130.67857
107.4465	134.25
111.80798	129.25
116.16626	140.39286
120.52136	140.96429
124.87327	153.39286
129.222	157.10714
133.56755	160.82143
137.90993	179.10714
142.24913	193.10714
146.58517	213.10714
150.91804	258.25
155.24774	306.25
159.57429	378.67857
163.89768	492.39286
168.21792	654.39286
172.53501	899.82143
176.84895	1249.39286
181.15975	1769.39286
185.46741	2483.39286
189.77193	3474.96429
194.07331	4677.96429
198.37157	6084.82143
202.6667	7567.25
206.9587	9074.82143
211.24758	10605.39286
215.53334	12207.10714
219.81599	13924.67857
224.09553	15889.82143
228.37195	18063.96429
232.64527	20439.96429
236.91549	22856.39286
241.18261	25054.25
245.44663	26897.39286
249.70755	28482.25
253.96539	29778.82143
258.22014	30915.25
262.4718	31793.25
266.72039	32253.10714
270.96589	32315.82143
275.20832	31918.53571
279.44768	31269.10714
283.68397	30439.10714
287.91719	29938.67857
292.14735	29843.53571
296.37445	30463.10714
300.59849	31689.82143
304.81948	33331.53571
309.03742	34555.67857
313.25231	34797.25
317.46415	33431.67857
321.67296	30914.39286
325.87872	28853.10714
330.08145	27848.96429
334.28114	27771.10714
338.47781	28385.39286
342.67145	29205.39286
346.86207	30427.67857
351.04966	32326.10714
355.23424	34547.25
359.4158	36276.39286
363.59435	37015.53571
367.76989	37177.53571
371.94243	37070.82143
376.11196	36824.39286
380.27849	36558.25
384.44203	36159.53571
388.60257	35660.39286
392.76012	35281.82143
396.91468	35365.25
401.06626	36155.82143
405.21485	36730.53571
409.36047	36125.82143
413.50311	34304.82143
417.64277	32475.96429
421.77947	31296.96429
425.9132	30823.53571
430.04396	30744.39286
434.17176	30932.82143
438.2966	31385.96429
442.41849	32253.25
446.53742	33248.39286
450.6534	34215.53571
454.76644	34913.10714
458.87653	34992.39286
462.98368	34629.25
467.08789	33960.53571
471.18916	33216.39286
475.2875	32328.67857
479.38291	31601.67857
483.4754	31048.53571
487.56496	30612.82143
491.6516	30299.39286
495.73531	30183.25
499.81612	30165.53571
503.89401	30511.67857
507.96899	30968.10714
512.04106	31499.53571
516.11023	32206.82143
520.1765	32666.53571
524.23987	32737.10714
528.30034	32447.82143
532.35792	31932.53571
536.41261	31480.53571
540.46441	30847.82143
544.51333	30469.96429
548.55936	30454.67857
552.60252	30964.25
556.64279	31579.67857
560.6802	32021.67857
564.71473	32611.10714
568.7464	33889.10714
572.7752	34645.25
576.80114	33317.39286
580.82422	31902.10714
584.84444	31310.39286
588.86181	31490.53571
592.87633	32072.82143
596.888	32688.82143
600.89682	33665.53571
604.9028	37227.25
608.90594	47366.25
612.90624	61316.53571
616.90371	59711.67857
620.89834	42445.39286
624.89015	33910.39286
628.87913	32262.96429
632.86528	32588.96429
636.84862	32991.67857
640.82913	32470.10714
644.80683	30914.25
648.78172	29765.39286
652.75379	29821.96429
656.72306	30945.96429
660.68952	32423.67857
664.65319	32182.67857
668.61405	30649.25
672.57211	29940.67857
676.52738	29995.39286
680.47986	30041.25
684.42955	29812.96429
688.37646	29485.10714
692.32058	29580.53571
696.26192	29738.96429
700.20048	30129.67857
704.13626	30362.53571
708.06928	30149.67857
711.99952	29846.67857
715.927	29731.67857
719.85171	29923.25
723.77365	30026.67857
727.69284	29950.10714
731.60928	29744.10714
735.52295	29714.39286
739.43388	29856.96429
743.34206	29920.67857
747.24749	30054.96429
751.15017	30139.67857
755.05012	30484.25
758.94733	31842.10714
762.8418	35192.53571
766.73354	40810.67857
770.62254	46546.96429
774.50882	49637.25
778.39237	48180.53571
782.27321	42272.39286
786.15132	35939.67857
790.02671	32203.96429
793.89938	30595.10714
797.76935	29899.10714
801.6366	29576.53571
805.50115	29502.25
809.36299	29358.67857
813.22213	29223.39286
817.07857	29147.96429
820.93231	29147.82143
824.78336	29251.82143
828.63172	29381.82143
832.47738	29503.39286
836.32036	29433.39286
840.16066	29348.82143
843.99827	29223.10714
847.8332	29205.25
851.66546	29161.25
855.49504	29191.53571
859.32195	29196.67857
863.1462	29112.53571
866.96777	29079.25
870.78668	29071.10714
874.60293	29043.53571
878.41652	29098.96429
882.22745	29301.82143
886.03573	29428.82143
889.84136	29392.82143
893.64433	29258.10714
897.44466	29177.67857
901.24235	29117.25
905.0374	29011.82143
908.8298	28780.25
912.61957	28559.10714
916.40671	28638.96429
920.19121	28786.96429
923.97308	29146.67857
927.75233	29600.67857
931.52895	30092.39286
935.30295	29975.82143
939.07433	29174.53571
942.84309	28454.25
946.60924	28077.39286
950.37278	27837.67857
954.13371	27587.96429
957.89203	27485.53571
961.64774	27393.82143
965.40086	27275.53571
969.15137	27194.96429
972.89929	27121.53571
976.64461	27142.53571
980.38733	27178.39286
984.12747	27277.10714
987.86502	27403.39286
991.59999	27696.10714
995.33237	28116.53571
999.06217	28897.96429
1002.78939	29808.96429
1006.51404	30511.96429
1010.23611	30935.82143
1013.95561	31177.82143
1017.67255	31194.96429
1021.38692	30885.82143
1025.09872	30564.39286
1028.80796	30714.67857
1032.51465	31374.10714
1036.21877	32016.67857
1039.92035	32122.39286
1043.61937	31886.39286
1047.31584	31343.25
1051.00976	30549.53571
1054.70114	30019.10714
1058.38998	29773.82143
1062.07627	29743.25
1065.76003	29608.96429
1069.44126	29606.96429
1073.11995	29775.82143
1076.79611	30247.39286
1080.46974	30840.10714
1084.14085	31747.10714
1087.80943	32583.96429
1091.47549	32802.96429
1095.13903	32207.53571
1098.80005	31283.10714
1102.45857	30532.82143
1106.11456	30505.25
1109.76805	30908.53571
1113.41903	31746.25
1117.06751	32969.96429
1120.71348	34551.10714
1124.35696	36265.53571
1127.99793	37441.10714
1131.63641	36810.25
1135.2724	34928.53571
1138.90589	33311.82143
1142.5369	32199.39286
1146.16542	31439.53571
1149.79145	31044.82143
1153.415	30867.25
1157.03607	31058.39286
1160.65467	31554.25
1164.27079	32510.10714
1167.88443	34134.10714
1171.49561	36534.10714
1175.10432	40329.82143
1178.71056	45770.10714
1182.31434	50516.53571
1185.91565	52088.39286
1189.51451	50436.53571
1193.11091	47045.67857
1196.70485	43464.82143
1200.29634	41143.25
1203.88538	39390.25
1207.47197	37254.39286
1211.05612	35399.96429
1214.63782	34333.82143
1218.21708	34016.53571
1221.79391	34081.25
1225.36829	34065.53571
1228.94024	33878.53571
1232.50976	33446.96429
1236.07685	33236.39286
1239.6415	33303.67857
1243.20374	33561.10714
1246.76355	33959.96429
1250.32093	34416.39286
1253.8759	35184.10714
1257.42845	36276.10714
1260.97859	37343.96429
1264.52631	38430.96429
1268.07163	39505.53571
1271.61453	40473.25
1275.15503	41183.39286
1278.69312	41690.10714
1282.22882	42187.25
1285.76211	43090.82143
1289.29301	44284.25
1292.82151	45649.67857
1296.34761	47245.53571
1299.87133	49912.53571
1303.39266	54484.53571
1306.9116	61329.39286
1310.42815	68467.53571
1313.94233	71004.53571
1317.45412	67505.39286
1320.96354	61219.96429
1324.47058	55299.82143
1327.97525	50801.10714
1331.47754	48210.67857
1334.97747	47507.82143
1338.47502	48249.39286
1341.97022	50168.82143
1345.46305	52920.53571
1348.95352	56255.96429
1352.44163	60593.67857
1355.92738	67230.39286
1359.41078	77504.96429
1362.89183	86075.82143
1366.37053	81558.39286
1369.84688	67819.39286
1373.32088	55816.25
1376.79254	48620.25
1380.26186	44680.82143
1383.72883	42327.53571
1387.19347	40664.10714
1390.65578	39193.25
1394.11575	38203.82143
1397.57339	37898.53571
1401.0287	38168.10714
1404.48168	38616.82143
1407.93234	39214.25
1411.38068	39857.96429
1414.82669	40313.82143
1418.27039	40113.39286
1421.71177	39504.39286
1425.15083	38687.53571
1428.58758	38388.10714
1432.02203	38660.82143
1435.45416	39022.53571
1438.88399	39206.53571
1442.31151	39109.53571
1445.73673	39306.82143
1449.15965	39571.39286
1452.58027	39464.10714
1455.9986	39039.96429
1459.41463	38839.67857
1462.82837	39190.67857
1466.23982	40007.10714
1469.64898	40988.82143
1473.05586	41616.39286
1476.46045	41998.82143
1479.86276	42569.67857
1483.26279	43387.82143
1486.66054	44439.53571
1490.05602	45835.82143
1493.44922	47767.67857
1496.84016	50575.67857
1500.22882	55152.96429
1503.61521	62200.39286
1506.99934	70935.53571
1510.38121	78006.25
1513.76081	79274.67857
1517.13816	73022.10714
1520.51324	62878.10714
1523.88607	53924.96429
1527.25665	48209.53571
1530.62498	45010.25
1533.99105	43198.82143
1537.35488	42216.25
1540.71647	41827.39286
1544.07581	41803.67857
1547.4329	41955.10714
1550.78776	42091.39286
1554.14038	42200.67857
1557.49077	42492.10714
1560.83892	43034.10714
1564.18484	44122.96429
1567.52853	45329.25
1570.86999	46314.39286
1574.20922	46712.25
1577.54624	46230.39286
1580.88103	44008.53571
1584.2136	41320.53571
1587.54395	40052.96429
1590.87208	40820.53571
1594.19801	43426.67857
1597.52172	46610.39286
1600.84321	48242.53571
1604.16251	46951.67857
1607.47959	44130.10714
1610.79447	40757.96429
1614.10715	37571.39286
1617.41763	35268.82143
1620.7259	33803.67857
1624.03199	33120.53571
1627.33587	33317.39286
1630.63757	34137.25
1633.93707	35824.53571
1637.23439	38412.82143
1640.52951	42271.25
1643.82246	47627.39286
1647.11321	53882.39286
1650.40179	57673.96429
1653.68819	55283.10714
1656.97241	47629.96429
1660.25446	39898.25
1663.53433	34687.53571
1666.81203	31742.10714
1670.08756	29982.67857
1673.36092	28844.53571
1676.63211	28208.96429
1679.90115	27661.53571
1683.16801	27285.25
1686.43272	26997.39286
1689.69527	26779.82143
1692.95567	26625.67857
1696.2139	26526.10714
1699.46999	26487.39286
1702.72392	26432.39286
1705.97571	26455.82143
1709.22535	26392.10714
1712.47284	26401.39286
1715.71819	26414.25
1718.96139	26312.25
1722.20246	26243.25
1725.44139	26111.82143
1728.67818	25971.67857
1731.91284	25818.53571
1735.14537	25700.96429
1738.37576	25698.96429
1741.60403	25504.25
1744.83017	25440.82143
1748.05418	25418.25
1751.27607	25356.10714
1754.49584	25264.39286
1757.71349	25210.39286
1760.92903	25153.82143
1764.14244	25157.25
1767.35375	25072.10714
1770.56294	25020.10714
1773.77002	24984.82143
1776.97499	24897.25
1780.17785	24841.25
1783.37861	24781.53571
1786.57727	24753.82143
1789.77382	24663.25
1792.96828	24702.53571
1796.16064	24627.67857
1799.3509	24614.39286
1802.53907	24571.10714
1805.72514	24493.96429
1808.90913	24476.25
1812.09102	24402.53571
1815.27083	24333.82143
1818.44856	24304.10714
1821.6242	24308.25
1824.79776	24202.82143
1827.96924	24225.82143
1831.13864	24157.39286
1834.30597	24166.39286
1837.47122	24124.96429
1840.6344	24081.96429
1843.7955	24085.10714
1846.95454	24059.96429
1850.11151	24055.82143
1853.26642	24028.25
1856.41926	24070.96429
1859.57004	24042.39286
1862.71876	24048.39286
1865.86542	24016.96429
1869.01003	24069.39286
1872.15258	24035.10714
1875.29308	24054.39286
1878.43152	24043.53571
1881.56792	24041.96429
1884.70227	23982.25
1887.83457	24005.53571
1890.96482	23973.82143
1894.09304	23922.10714
1897.21921	23898.67857
1900.34335	23949.53571
1903.46544	23891.96429
1906.58551	23878.82143
1909.70353	23836.82143
1912.81953	23811.53571
1915.93349	23790.39286
1919.04543	23745.82143
1922.15534	23717.25
1925.26322	23693.25
1928.36908	23637.53571
1931.47292	23630.10714
1934.57473	23611.82143
1937.67453	23469.25
1940.77232	23396.96429
1943.86808	23352.96429
1946.96184	23277.96429
1950.05358	23165.82143
1953.14331	23135.25
1956.23103	23105.96429
1959.31675	23061.53571
1962.40046	22961.67857
1965.48217	22944.39286
1968.56188	22893.39286
1971.63959	22865.53571
1974.7153	22775.96429
1977.78901	22752.10714
1980.86073	22636.96429
1983.93046	22537.82143
1986.99819	22436.82143
1990.06394	22378.53571
1993.1277	22312.82143
1996.18947	22227.25
1999.24925	22160.67857
2002.30706	22081.96429
2005.36288	22009.25
2008.41672	21988.96429
2011.46859	21904.39286
2014.51848	21813.82143
2017.56639	21776.39286
2020.61233	21713.82143
2023.6563	21665.96429
2026.6983	21622.39286
2029.73833	21592.96429
2032.7764	21555.82143
2035.8125	21494.25
2038.84664	21520.96429
2041.87881	21477.96429
2044.90903	21440.96429
2047.93729	21409.82143
2050.96359	21394.39286
2053.98794	21357.53571
2057.01034	21348.10714
2060.03078	21288.82143
2063.04927	21234.25
2066.06582	21266.25
2069.08042	21233.25
2072.09307	21213.39286
2075.10378	21200.10714
2078.11255	21190.82143
2081.11938	21153.82143
2084.12426	21149.67857
2087.12722	21185.53571
2090.12824	21133.39286
2093.12732	21181.53571
2096.12447	21178.25
2099.11969	21174.96429
2102.11299	21119.10714
2105.10435	21144.53571
2108.09379	21157.82143
2111.08131	21191.25
2114.0669	21170.39286
2117.05057	21187.82143
2120.03233	21216.96429
2123.01216	21294.39286
2125.99008	21317.10714
2128.96609	21320.96429
2131.94018	21352.39286
2134.91236	21362.25
2137.88263	21345.10714
2140.851	21326.82143
2143.81746	21352.10714
2146.78201	21320.39286
2149.74466	21311.10714
2152.7054	21329.10714
2155.66425	21288.67857
2158.6212	21304.39286
2161.57625	21322.82143
2164.52941	21267.96429
2167.48067	21252.67857
2170.43004	21215.67857
2173.37752	21269.82143
2176.32311	21260.82143
2179.26681	21251.67857
2182.20863	21282.39286
2185.14856	21322.39286
2188.08661	21291.96429
2191.02278	21337.67857
2193.95707	21282.25
2196.88948	21267.82143
2199.82001	21286.67857
2202.74867	21220.39286
2205.67545	21240.39286
2208.60037	21223.25
2211.52341	21132.82143
2214.44458	21190.96429
2217.36388	21124.53571
2220.28132	21086.82143
2223.1969	21063.96429
2226.11061	21010.10714
2229.02246	21016.67857
2231.93245	20909.10714
2234.84058	20848.10714
2237.74686	20855.96429
2240.65128	20852.82143
2243.55385	20833.82143
2246.45456	20806.25
2249.35343	20768.53571
2252.25044	20811.53571
2255.14561	20744.67857
2258.03893	20783.96429
2260.93041	20805.96429
2263.82004	20728.96429
2266.70783	20696.82143
2269.59378	20574.10714
2272.4779	20547.10714
2275.36017	20525.53571
2278.24061	20511.96429
2281.11922	20413.82143
2283.996	20387.96429
2286.87094	20403.39286
2289.74405	20325.96429
2292.61534	20318.10714
2295.4848	20282.67857
2298.35243	20338.67857
2301.21824	20325.10714
2304.08223	20313.67857
2306.94439	20279.82143
2309.80474	20299.25
2312.66327	20297.67857
2315.51999	20287.96429
2318.37489	20289.96429
2321.22797	20251.53571
2324.07925	20247.53571
2326.92871	20215.10714
2329.77637	20193.53571
2332.62222	20168.25
2335.46626	20200.53571
2338.3085	20229.39286
2341.14893	20222.96429
2343.98756	20173.53571
2346.8244	20201.10714
2349.65943	20226.82143
2352.49267	20240.53571
2355.32411	20218.82143
2358.15376	20211.53571
2360.98161	20243.10714
2363.80768	20222.96429
2366.63195	20202.25
2369.45444	20195.25
2372.27514	20136.53571
2375.09405	20096.67857
2377.91118	20073.10714
2380.72652	20015.96429
2383.54009	19951.25
2386.35187	19873.67857
2389.16188	19817.53571
2391.97011	19789.39286
2394.77657	19762.53571
2397.58125	19730.96429
2400.38416	19691.53571
2403.18529	19647.67857
2405.98466	19575.96429
2408.78226	19551.39286
2411.57809	19507.25
2414.37216	19495.96429
2417.16446	19444.82143
2419.955	19444.82143
2422.74378	19420.82143
2425.5308	19357.53571
2428.31606	19410.67857
2431.09956	19389.39286
2433.88131	19354.96429
2436.6613	19390.25
2439.43954	19391.10714
2442.21603	19343.25
2444.99077	19404.39286
2447.76377	19414.25
2450.53501	19371.53571
2453.30451	19360.39286
2456.07226	19375.67857
2458.83827	19329.53571
2461.60254	19298.96429
2464.36507	19294.10714
2467.12586	19280.53571
2469.88492	19286.39286
2472.64224	19296.82143
2475.39782	19267.25
2478.15167	19316.96429
2480.90379	19350.10714
2483.65417	19392.10714
2486.40283	19442.67857
2489.14976	19498.82143
2491.89497	19500.67857
2494.63845	19521.39286
2497.3802	19462.39286
2500.12024	19496.53571
2502.85855	19426.25
2505.59514	19343.82143
2508.33002	19292.25
2511.06318	19226.10714
2513.79462	19190.10714
2516.52435	19128.39286
2519.25237	19121.96429
2521.97867	19053.25
2524.70327	19031.10714
2527.42616	19029.10714
2530.14734	18978.25
2532.86681	18986.39286
2535.58458	18972.53571
2538.30065	18939.39286
2541.01501	18970.25
2543.72768	18961.25
2546.43864	18935.96429
2549.14791	18937.53571
2551.85548	18931.96429
2554.56136	18867.96429
2557.26554	18894.10714
2559.96803	18904.96429
2562.66883	18848.39286
2565.36794	18822.39286
2568.06536	18737.53571
2570.7611	18747.67857
2573.45514	18739.53571
2576.14751	18722.82143
2578.83819	18639.39286
2581.52719	18676.39286
2584.21451	18627.10714
2586.90015	18647.25
2589.58411	18603.53571
2592.2664	18644.39286
2594.94701	18590.96429
2597.62594	18557.67857
2600.30321	18532.10714
2602.9788	18527.10714
2605.65273	18512.96429
2608.32498	18511.53571
2610.99557	18528.82143
2613.66449	18568.96429
2616.33175	18524.96429
2618.99734	18532.25
2621.66128	18523.82143
2624.32355	18529.25
2626.98416	18502.67857
2629.64311	18487.53571
2632.30041	18477.25
2634.95605	18409.67857
2637.61004	18368.96429
2640.26238	18327.10714
2642.91306	18320.39286
2645.56209	18330.25
2648.20948	18292.10714
2650.85521	18274.10714
2653.4993	18268.67857
2656.14175	18322.39286
2658.78255	18290.82143
2661.42171	18350.82143
2664.05923	18350.53571
2666.6951	18287.10714
2669.32934	18369.96429
2671.96194	18389.96429
2674.59291	18401.53571
2677.22224	18390.82143
2679.84993	18407.96429
2682.476	18401.39286
2685.10043	18362.82143
2687.72324	18339.53571
2690.34441	18326.67857
2692.96396	18311.53571
2695.58188	18362.25
2698.19818	18294.39286
2700.81285	18318.53571
2703.4259	18325.10714
2706.03733	18267.67857
2708.64714	18301.39286
2711.25533	18331.39286
2713.86191	18353.96429
2716.46687	18377.67857
2719.07021	18376.67857
2721.67194	18372.53571
2724.27206	18325.82143
2726.87057	18374.39286
2729.46747	18351.96429
2732.06276	18339.67857
2734.65644	18286.10714
2737.24852	18320.67857
2739.83899	18264.39286
2742.42786	18321.53571
2745.01513	18257.25
2747.60079	18206.96429
2750.18486	18171.39286
2752.76733	18200.53571
2755.3482	18207.10714
2757.92747	18206.82143
2760.50515	18187.53571
2763.08123	18168.96429
2765.65573	18131.82143
2768.22863	18122.10714
2770.79994	18130.53571
2773.36967	18093.25
2775.9378	18075.39286
2778.50435	18077.82143
2781.06932	18039.96429
2783.6327	18101.10714
2786.1945	18060.82143
2788.75471	18058.67857
2791.31335	18006.67857
2793.87041	18021.39286
2796.42589	17979.82143
2798.97979	17989.96429
2801.53212	17961.10714
2804.08288	17953.96429
2806.63206	17923.82143
2809.17967	17947.53571
2811.72571	17894.82143
2814.27018	17909.82143
2816.81308	17859.10714
2819.35442	17856.53571
2821.89419	17884.39286
2824.43239	17855.10714
2826.96904	17858.25
2829.50412	17823.96429
2832.03763	17847.82143
2834.56959	17861.39286
2837.1	17827.10714
2839.62884	17780.53571
2842.15613	17752.96429
2844.68186	17772.53571
2847.20604	17767.82143
2849.72867	17755.10714
2852.24974	17749.10714
2854.76927	17792.96429
2857.28724	17752.10714
2859.80367	17743.96429
2862.31855	17736.10714
2864.83189	17695.96429
2867.34368	17718.25
2869.85393	17725.10714
2872.36264	17728.39286
2874.8698	17704.10714
2877.37543	17756.39286
2879.87952	17710.67857
2882.38207	17714.25
2884.88308	17672.39286
2887.38256	17677.82143
2889.88051	17664.53571
2892.37692	17669.25
2894.8718	17673.82143
2897.36515	17713.82143
2899.85698	17711.67857
2902.34727	17725.67857
2904.83604	17730.39286
2907.32328	17734.53571
2909.809	17764.25
2912.29319	17748.25
2914.77587	17744.10714
2917.25702	17761.53571
2919.73665	17712.53571
2922.21476	17709.53571
2924.69136	17682.10714
2927.16644	17664.53571
2929.64	17651.25
2932.11205	17597.67857
2934.58258	17516.10714
2937.05161	17631.25
2939.51912	17550.39286
2941.98513	17562.25
2944.44962	17527.10714
2946.91261	17508.39286
2949.37409	17519.67857
2951.83407	17526.10714
2954.29254	17448.25
2956.74951	17465.25
2959.20498	17406.53571
2961.65895	17402.82143
2964.11142	17386.39286
2966.56239	17368.53571
