Data from AgNPs_FTO_APTES_UA_20uM_CRN_2uM_R6G_10uM_NaF_0.1M_Addition_RamanShift__10__12-52-12-076.txt Node

Date: Thu Feb 17 12:52:12 GMT 2022
User: TCL
Spectrometer: QEP01345
Trigger mode: 4
Integration Time (sec): 7.000000E0
Scans to average: 10
Electric dark correction enabled: true
Nonlinearity correction enabled: false
Boxcar width: 0
XAxis mode: Raman Shifts
Number of Pixels in Spectrum: 1044
>>>>>Begin Spectral Data<<<<<
46.04893	-0.3625
50.45542	-1.0625
54.85868	-3.1625
59.25871	-1.2625
63.6555	119.0375
68.04907	122.6375
72.43941	126.3375
76.82654	128.8375
81.21044	131.1375
85.59113	139.7375
89.96862	140.6375
94.34289	142.2375
98.71396	150.0375
103.08183	152.1375
107.4465	160.8375
111.80798	160.7375
116.16626	167.1375
120.52136	174.4375
124.87327	178.2375
129.222	199.1375
133.56755	213.3375
137.90993	227.8375
142.24913	250.3375
146.58517	283.7375
150.91804	335.7375
155.24774	405.6375
159.57429	511.5375
163.89768	661.0375
168.21792	885.4375
172.53501	1211.4375
176.84895	1707.0375
181.15975	2410.6375
185.46741	3388.0375
189.77193	4713.7375
194.07331	6324.0375
198.37157	8176.8375
202.6667	10109.9375
206.9587	12038.9375
211.24758	13907.1375
215.53334	15784.1375
219.81599	17755.0375
224.09553	19919.5375
228.37195	22323.3375
232.64527	24925.5375
236.91549	27737.7375
241.18261	30655.6375
245.44663	33321.3375
249.70755	35784.7375
253.96539	38024.7375
258.22014	39733.7375
262.4718	41211.9375
266.72039	42279.0375
270.96589	42860.2375
275.20832	42928.8375
279.44768	42733.1375
283.68397	42424.6375
287.91719	42116.8375
292.14735	41903.2375
296.37445	41896.0375
300.59849	41935.4375
304.81948	42106.9375
309.03742	42157.9375
313.25231	42079.7375
317.46415	41629.1375
321.67296	40961.0375
325.87872	40382.5375
330.08145	40111.6375
334.28114	40121.7375
338.47781	40480.4375
342.67145	40928.4375
346.86207	41513.8375
351.04966	42161.4375
355.23424	42783.9375
359.4158	43331.1375
363.59435	43738.8375
367.76989	44041.7375
371.94243	44337.9375
376.11196	44520.0375
380.27849	44693.8375
384.44203	45007.4375
388.60257	45244.9375
392.76012	45796.3375
396.91468	46382.0375
401.06626	47023.5375
405.21485	47454.2375
409.36047	47334.8375
413.50311	46997.7375
417.64277	46813.2375
421.77947	46886.1375
425.9132	47190.7375
430.04396	47514.3375
434.17176	47704.6375
438.2966	48048.9375
442.41849	48601.3375
446.53742	49467.0375
450.6534	50421.1375
454.76644	51288.0375
458.87653	51677.0375
462.98368	51751.9375
467.08789	51446.3375
471.18916	51012.0375
475.2875	50508.9375
479.38291	50244.8375
483.4754	49993.0375
487.56496	49686.3375
491.6516	49277.6375
495.73531	48822.9375
499.81612	48476.8375
503.89401	48698.2375
507.96899	48886.7375
512.04106	48984.4375
516.11023	48800.4375
520.1765	48546.3375
524.23987	48324.3375
528.30034	48058.1375
532.35792	47863.5375
536.41261	47510.7375
540.46441	47269.0375
544.51333	47274.1375
548.55936	47630.3375
552.60252	48379.1375
556.64279	49419.3375
560.6802	50061.7375
564.71473	50547.5375
568.7464	51289.7375
572.7752	52656.4375
576.80114	54344.0375
580.82422	55912.9375
584.84444	57063.0375
588.86181	58513.1375
592.87633	59686.2375
596.888	59427.4375
600.89682	57754.8375
604.9028	57306.1375
608.90594	59530.1375
612.90624	61724.4375
616.90371	58651.4375
620.89834	52474.8375
624.89015	49910.2375
628.87913	49767.3375
632.86528	50205.0375
636.84862	50279.0375
640.82913	49719.3375
644.80683	48889.5375
648.78172	48169.9375
652.75379	48111.9375
656.72306	48556.7375
660.68952	49187.3375
664.65319	49069.1375
668.61405	48618.7375
672.57211	48551.4375
676.52738	48758.3375
680.47986	48836.7375
684.42955	48555.1375
688.37646	48455.4375
692.32058	48690.8375
696.26192	49224.2375
700.20048	49844.6375
704.13626	50225.0375
708.06928	50356.0375
711.99952	50286.1375
715.927	50206.6375
719.85171	50227.6375
723.77365	50042.5375
727.69284	49532.0375
731.60928	49079.8375
735.52295	48827.8375
739.43388	48840.2375
743.34206	49028.6375
747.24749	49247.5375
751.15017	49598.2375
755.05012	50278.8375
758.94733	51342.9375
762.8418	53104.2375
766.73354	55886.0375
770.62254	58271.8375
774.50882	58497.7375
778.39237	56481.4375
782.27321	53846.2375
786.15132	51726.6375
790.02671	50376.5375
793.89938	49588.1375
797.76935	49269.1375
801.6366	49063.3375
805.50115	48991.3375
809.36299	48819.3375
813.22213	48711.0375
817.07857	48653.2375
820.93231	48602.2375
824.78336	48465.6375
828.63172	48352.2375
832.47738	48253.7375
836.32036	48267.1375
840.16066	48306.3375
843.99827	48421.7375
847.8332	48485.4375
851.66546	48621.7375
855.49504	48722.2375
859.32195	48738.1375
863.1462	48740.3375
866.96777	48756.3375
870.78668	48667.2375
874.60293	48745.8375
878.41652	48788.9375
882.22745	48919.1375
886.03573	48976.1375
889.84136	49042.5375
893.64433	48935.6375
897.44466	48835.7375
901.24235	48661.0375
905.0374	48615.7375
908.8298	48567.0375
912.61957	48642.3375
916.40671	48995.1375
920.19121	49586.3375
923.97308	49937.4375
927.75233	49889.1375
931.52895	49510.9375
935.30295	48917.7375
939.07433	48375.5375
942.84309	47968.6375
946.60924	47802.6375
950.37278	47800.3375
954.13371	47838.7375
957.89203	47836.8375
961.64774	47839.3375
965.40086	47794.8375
969.15137	47770.4375
972.89929	47620.9375
976.64461	47587.4375
980.38733	47517.8375
984.12747	47601.3375
987.86502	47754.6375
991.59999	48107.5375
995.33237	48421.6375
999.06217	48973.7375
1002.78939	49597.3375
1006.51404	50504.2375
1010.23611	51261.6375
1013.95561	51805.2375
1017.67255	51883.1375
1021.38692	51583.5375
1025.09872	50934.5375
1028.80796	50384.9375
1032.51465	50214.3375
1036.21877	50316.6375
1039.92035	50468.7375
1043.61937	50538.0375
1047.31584	50613.6375
1051.00976	50620.6375
1054.70114	50799.6375
1058.38998	51050.9375
1062.07627	51513.5375
1065.76003	52136.6375
1069.44126	52786.2375
1073.11995	53491.4375
1076.79611	54161.2375
1080.46974	54534.0375
1084.14085	54744.9375
1087.80943	55221.4375
1091.47549	55613.4375
1095.13903	55665.7375
1098.80005	55237.5375
1102.45857	54390.6375
1106.11456	53559.2375
1109.76805	53023.4375
1113.41903	52921.1375
1117.06751	53040.5375
1120.71348	53386.2375
1124.35696	53769.9375
1127.99793	54052.6375
1131.63641	54268.1375
1135.2724	54189.6375
1138.90589	54192.6375
1142.5369	54311.5375
1146.16542	54593.4375
1149.79145	54929.4375
1153.415	55356.7375
1157.03607	55832.3375
1160.65467	56760.8375
1164.27079	58305.4375
1167.88443	60268.1375
1171.49561	62564.2375
1175.10432	65362.4375
1178.71056	68724.6375
1182.31434	71911.8375
1185.91565	73670.9375
1189.51451	74059.9375
1193.11091	73387.0375
1196.70485	71984.1375
1200.29634	70150.9375
1203.88538	68717.1375
1207.47197	67935.9375
1211.05612	67420.5375
1214.63782	66556.7375
1218.21708	65143.9375
1221.79391	63699.8375
1225.36829	62606.8375
1228.94024	62048.2375
1232.50976	61450.9375
1236.07685	60924.0375
1239.6415	60642.4375
1243.20374	60617.8375
1246.76355	60941.4375
1250.32093	61691.0375
1253.8759	62569.5375
1257.42845	63895.0375
1260.97859	65436.1375
1264.52631	66919.6375
1268.07163	68344.1375
1271.61453	69677.1375
1275.15503	70962.7375
1278.69312	72242.5375
1282.22882	73740.2375
1285.76211	75437.9375
1289.29301	77604.3375
1292.82151	80027.6375
1296.34761	83064.8375
1299.87133	86511.9375
1303.39266	89951.5375
1306.9116	93181.7375
1310.42815	95551.9375
1313.94233	96619.6375
1317.45412	96205.0375
1320.96354	95084.9375
1324.47058	94267.7375
1327.97525	93871.6375
1331.47754	93601.8375
1334.97747	93468.6375
1338.47502	93397.4375
1341.97022	93699.8375
1345.46305	93817.5375
1348.95352	93738.2375
1352.44163	93235.5375
1355.92738	93263.6375
1359.41078	94394.7375
1362.89183	95269.3375
1366.37053	93658.7375
1369.84688	88508.6375
1373.32088	81915.4375
1376.79254	77117.6375
1380.26186	75155.3375
1383.72883	74965.4375
1387.19347	75149.4375
1390.65578	74708.3375
1394.11575	74270.2375
1397.57339	74318.4375
1401.0287	74629.9375
1404.48168	75072.1375
1407.93234	74659.2375
1411.38068	73596.8375
1414.82669	71906.8375
1418.27039	69913.7375
1421.71177	68052.1375
1425.15083	66523.0375
1428.58758	65937.8375
1432.02203	66431.7375
1435.45416	67682.4375
1438.88399	69174.9375
1442.31151	70430.5375
1445.73673	71101.6375
1449.15965	71562.2375
1452.58027	71889.7375
1455.9986	71967.0375
1459.41463	72463.4375
1462.82837	73462.1375
1466.23982	74465.9375
1469.64898	75375.8375
1473.05586	76032.2375
1476.46045	76136.2375
1479.86276	75994.9375
1483.26279	75644.0375
1486.66054	75301.7375
1490.05602	75615.8375
1493.44922	76339.5375
1496.84016	77354.2375
1500.22882	78957.7375
1503.61521	80978.8375
1506.99934	82893.7375
1510.38121	84163.6375
1513.76081	83989.2375
1517.13816	82610.4375
1520.51324	80940.3375
1523.88607	79870.8375
1527.25665	79848.9375
1530.62498	80034.9375
1533.99105	79920.4375
1537.35488	79064.4375
1540.71647	77614.4375
1544.07581	75913.5375
1547.4329	74367.5375
1550.78776	72936.9375
1554.14038	71906.4375
1557.49077	71296.3375
1560.83892	70896.8375
1564.18484	70784.5375
1567.52853	70680.7375
1570.86999	71115.6375
1574.20922	71943.2375
1577.54624	72642.8375
1580.88103	72761.0375
1584.2136	73011.5375
1587.54395	74393.8375
1590.87208	76843.9375
1594.19801	80082.8375
1597.52172	83040.0375
1600.84321	83727.2375
1604.16251	80994.5375
1607.47959	76872.7375
1610.79447	72381.1375
1614.10715	68096.2375
1617.41763	64265.3375
1620.7259	61509.8375
1624.03199	60000.6375
1627.33587	59762.9375
1630.63757	60815.5375
1633.93707	63480.7375
1637.23439	68127.8375
1640.52951	75136.2375
1643.82246	83302.3375
1647.11321	89548.8375
1650.40179	90621.9375
1653.68819	85376.2375
1656.97241	76599.3375
1660.25446	67926.9375
1663.53433	61380.6375
1666.81203	57111.1375
1670.08756	54291.2375
1673.36092	52672.6375
1676.63211	51539.7375
1679.90115	50655.6375
1683.16801	50029.0375
1686.43272	49596.1375
1689.69527	49260.3375
1692.95567	48946.4375
1696.2139	48814.5375
1699.46999	48655.8375
1702.72392	48598.1375
1705.97571	48486.9375
1709.22535	48415.2375
1712.47284	48341.5375
1715.71819	48367.1375
1718.96139	48253.5375
1722.20246	48118.6375
1725.44139	47991.5375
1728.67818	47802.2375
1731.91284	47613.2375
1735.14537	47399.7375
1738.37576	47236.2375
1741.60403	47136.2375
1744.83017	46924.5375
1748.05418	46810.6375
1751.27607	46734.1375
1754.49584	46708.3375
1757.71349	46663.1375
1760.92903	46690.2375
1764.14244	46553.0375
1767.35375	46570.6375
1770.56294	46493.8375
1773.77002	46492.0375
1776.97499	46477.3375
1780.17785	46406.8375
1783.37861	46351.1375
1786.57727	46194.5375
1789.77382	46152.7375
1792.96828	46078.8375
1796.16064	46061.2375
1799.3509	46018.6375
1802.53907	45997.7375
1805.72514	45903.6375
1808.90913	45806.8375
1812.09102	45685.0375
1815.27083	45622.7375
1818.44856	45573.0375
1821.6242	45502.6375
1824.79776	45506.9375
1827.96924	45482.6375
1831.13864	45434.6375
1834.30597	45450.3375
1837.47122	45373.1375
1840.6344	45336.3375
1843.7955	45382.1375
1846.95454	45418.9375
1850.11151	45363.3375
1853.26642	45374.2375
1856.41926	45255.5375
1859.57004	45255.3375
1862.71876	45152.7375
1865.86542	45154.6375
1869.01003	45097.4375
1872.15258	45076.7375
1875.29308	44976.0375
1878.43152	44909.5375
1881.56792	44857.0375
1884.70227	44901.2375
1887.83457	44870.9375
1890.96482	44833.4375
1894.09304	44777.4375
1897.21921	44727.3375
1900.34335	44680.1375
1903.46544	44575.3375
1906.58551	44608.5375
1909.70353	44550.9375
1912.81953	44513.1375
1915.93349	44501.6375
1919.04543	44313.8375
1922.15534	44271.8375
1925.26322	44259.7375
1928.36908	44189.4375
1931.47292	44085.0375
1934.57473	43980.2375
1937.67453	43991.9375
1940.77232	43850.3375
1943.86808	43690.1375
1946.96184	43621.8375
1950.05358	43467.6375
1953.14331	43387.4375
1956.23103	43317.2375
1959.31675	43118.8375
1962.40046	43095.2375
1965.48217	42848.4375
1968.56188	42747.8375
1971.63959	42720.7375
1974.7153	42543.8375
1977.78901	42434.5375
1980.86073	42334.0375
1983.93046	42277.9375
1986.99819	42127.4375
1990.06394	42052.1375
1993.1277	41973.2375
1996.18947	41790.3375
1999.24925	41742.6375
2002.30706	41654.5375
2005.36288	41528.3375
2008.41672	41356.5375
2011.46859	41262.7375
2014.51848	41180.9375
2017.56639	41057.9375
2020.61233	40944.3375
2023.6563	40787.9375
2026.6983	40776.6375
2029.73833	40679.7375
2032.7764	40595.9375
2035.8125	40507.3375
2038.84664	40458.5375
2041.87881	40376.0375
2044.90903	40315.1375
2047.93729	40239.6375
2050.96359	40221.1375
2053.98794	40168.3375
2057.01034	40143.4375
2060.03078	40150.7375
2063.04927	40171.5375
2066.06582	40115.6375
2069.08042	40063.4375
2072.09307	40028.8375
2075.10378	39991.9375
2078.11255	39964.6375
2081.11938	40053.7375
2084.12426	39974.9375
2087.12722	39948.5375
2090.12824	39940.9375
2093.12732	40008.9375
2096.12447	39990.4375
2099.11969	39939.6375
2102.11299	39929.7375
2105.10435	40003.0375
2108.09379	40007.9375
2111.08131	40042.2375
2114.0669	40032.8375
2117.05057	40082.9375
2120.03233	40045.3375
2123.01216	40154.7375
2125.99008	40217.5375
2128.96609	40266.2375
2131.94018	40290.9375
2134.91236	40365.2375
2137.88263	40399.9375
2140.851	40413.6375
2143.81746	40416.3375
2146.78201	40436.7375
2149.74466	40504.6375
2152.7054	40460.2375
2155.66425	40507.7375
2158.6212	40496.0375
2161.57625	40393.0375
2164.52941	40440.6375
2167.48067	40410.6375
2170.43004	40445.9375
2173.37752	40405.8375
2176.32311	40405.2375
2179.26681	40453.4375
2182.20863	40441.4375
2185.14856	40464.1375
2188.08661	40473.4375
2191.02278	40468.3375
2193.95707	40379.4375
2196.88948	40339.4375
2199.82001	40283.5375
2202.74867	40226.2375
2205.67545	40192.3375
2208.60037	40152.3375
2211.52341	40138.2375
2214.44458	40119.5375
2217.36388	40099.4375
2220.28132	39980.1375
2223.1969	39900.5375
2226.11061	39842.0375
2229.02246	39725.9375
2231.93245	39661.0375
2234.84058	39593.5375
2237.74686	39587.9375
2240.65128	39617.0375
2243.55385	39571.3375
2246.45456	39486.7375
2249.35343	39438.5375
2252.25044	39349.9375
2255.14561	39310.0375
2258.03893	39285.9375
2260.93041	39173.9375
2263.82004	39047.9375
2266.70783	38974.0375
2269.59378	38915.0375
2272.4779	38863.3375
2275.36017	38797.0375
2278.24061	38765.4375
2281.11922	38699.6375
2283.996	38584.5375
2286.87094	38571.3375
2289.74405	38534.3375
2292.61534	38512.7375
2295.4848	38477.8375
2298.35243	38466.5375
2301.21824	38422.8375
2304.08223	38366.8375
2306.94439	38352.8375
2309.80474	38318.2375
2312.66327	38372.2375
2315.51999	38256.9375
2318.37489	38241.1375
2321.22797	38154.2375
2324.07925	38182.2375
2326.92871	38061.4375
2329.77637	37991.5375
2332.62222	37925.0375
2335.46626	37931.1375
2338.3085	37888.1375
2341.14893	37880.8375
2343.98756	37865.4375
2346.8244	37845.9375
2349.65943	37837.9375
2352.49267	37838.7375
2355.32411	37830.9375
2358.15376	37804.0375
2360.98161	37783.3375
2363.80768	37747.1375
2366.63195	37719.9375
2369.45444	37694.7375
2372.27514	37709.9375
2375.09405	37672.8375
2377.91118	37621.4375
2380.72652	37522.8375
2383.54009	37423.2375
2386.35187	37351.2375
2389.16188	37254.0375
2391.97011	37161.3375
2394.77657	37161.3375
2397.58125	37093.7375
2400.38416	37042.6375
2403.18529	36948.2375
2405.98466	36935.0375
2408.78226	36911.4375
2411.57809	36838.6375
2414.37216	36800.3375
2417.16446	36811.7375
2419.955	36765.1375
2422.74378	36790.3375
2425.5308	36720.0375
2428.31606	36735.6375
2431.09956	36714.9375
2433.88131	36688.2375
2436.6613	36714.2375
2439.43954	36671.6375
2442.21603	36634.7375
2444.99077	36626.6375
2447.76377	36584.0375
2450.53501	36549.2375
2453.30451	36562.8375
2456.07226	36472.1375
2458.83827	36449.0375
2461.60254	36413.6375
2464.36507	36392.1375
2467.12586	36452.3375
2469.88492	36391.5375
2472.64224	36428.0375
2475.39782	36367.4375
2478.15167	36397.6375
2480.90379	36398.3375
2483.65417	36394.9375
2486.40283	36369.7375
2489.14976	36364.4375
2491.89497	36345.1375
2494.63845	36407.4375
2497.3802	36317.8375
2500.12024	36298.3375
2502.85855	36313.7375
2505.59514	36293.9375
2508.33002	36197.7375
2511.06318	36168.2375
2513.79462	36108.3375
2516.52435	36137.6375
2519.25237	36102.6375
2521.97867	36078.9375
2524.70327	36058.0375
2527.42616	36032.3375
2530.14734	35992.7375
2532.86681	35947.1375
2535.58458	35958.1375
2538.30065	35951.3375
2541.01501	35930.9375
2543.72768	35909.0375
2546.43864	35852.0375
2549.14791	35785.4375
2551.85548	35709.1375
2554.56136	35644.2375
2557.26554	35581.8375
2559.96803	35544.0375
2562.66883	35517.0375
2565.36794	35439.0375
2568.06536	35478.3375
2570.7611	35313.5375
2573.45514	35257.8375
2576.14751	35259.0375
2578.83819	35226.9375
2581.52719	35200.1375
2584.21451	35124.6375
2586.90015	35048.4375
2589.58411	35016.1375
2592.2664	35078.2375
2594.94701	34976.9375
2597.62594	34977.1375
2600.30321	34953.6375
2602.9788	34950.9375
2605.65273	34899.6375
2608.32498	34916.1375
2610.99557	34894.4375
2613.66449	34887.1375
2616.33175	34798.1375
2618.99734	34738.5375
2621.66128	34693.2375
2624.32355	34636.2375
2626.98416	34582.7375
2629.64311	34581.5375
2632.30041	34551.4375
2634.95605	34474.8375
2637.61004	34462.4375
2640.26238	34471.9375
2642.91306	34447.7375
2645.56209	34412.5375
2648.20948	34393.2375
2650.85521	34428.2375
2653.4993	34411.5375
2656.14175	34430.0375
2658.78255	34489.8375
2661.42171	34485.5375
2664.05923	34544.2375
2666.6951	34453.7375
2669.32934	34466.2375
2671.96194	34492.6375
2674.59291	34514.2375
2677.22224	34522.2375
2679.84993	34506.9375
2682.476	34437.3375
2685.10043	34466.6375
2687.72324	34424.5375
2690.34441	34435.3375
2692.96396	34468.4375
2695.58188	34516.8375
2698.19818	34406.0375
2700.81285	34474.2375
2703.4259	34424.5375
2706.03733	34476.5375
2708.64714	34466.7375
2711.25533	34488.2375
2713.86191	34463.4375
2716.46687	34523.5375
2719.07021	34529.2375
2721.67194	34528.3375
2724.27206	34504.3375
2726.87057	34575.3375
2729.46747	34552.5375
2732.06276	34510.1375
2734.65644	34523.4375
2737.24852	34580.0375
2739.83899	34518.3375
2742.42786	34556.1375
2745.01513	34468.8375
2747.60079	34450.4375
2750.18486	34402.9375
2752.76733	34411.5375
2755.3482	34345.1375
2757.92747	34297.7375
2760.50515	34276.9375
2763.08123	34274.2375
2765.65573	34221.3375
2768.22863	34233.9375
2770.79994	34146.1375
2773.36967	34162.1375
2775.9378	34219.0375
2778.50435	34182.9375
2781.06932	34127.5375
2783.6327	34110.8375
2786.1945	34037.0375
2788.75471	34004.5375
2791.31335	33932.7375
2793.87041	33890.4375
2796.42589	33823.8375
2798.97979	33739.2375
2801.53212	33649.2375
2804.08288	33612.3375
2806.63206	33541.2375
2809.17967	33502.0375
2811.72571	33384.2375
2814.27018	33303.9375
2816.81308	33197.1375
2819.35442	33115.5375
2821.89419	33045.1375
2824.43239	33098.1375
2826.96904	33057.8375
2829.50412	33049.0375
2832.03763	32949.0375
2834.56959	32938.0375
2837.1	32874.5375
2839.62884	32841.9375
2842.15613	32793.0375
2844.68186	32839.0375
2847.20604	32794.8375
2849.72867	32719.3375
2852.24974	32674.0375
2854.76927	32627.0375
2857.28724	32625.4375
2859.80367	32615.2375
2862.31855	32567.1375
2864.83189	32552.8375
2867.34368	32407.2375
2869.85393	32453.0375
2872.36264	32381.7375
2874.8698	32339.8375
2877.37543	32325.1375
2879.87952	32278.2375
2882.38207	32313.4375
2884.88308	32289.2375
2887.38256	32269.4375
2889.88051	32252.6375
2892.37692	32305.1375
2894.8718	32251.6375
2897.36515	32355.5375
2899.85698	32286.5375
2902.34727	32337.8375
2904.83604	32336.6375
2907.32328	32328.6375
2909.809	32358.0375
2912.29319	32406.9375
2914.77587	32388.5375
2917.25702	32438.0375
2919.73665	32378.8375
2922.21476	32308.8375
2924.69136	32299.5375
2927.16644	32295.8375
2929.64	32305.2375
2932.11205	32270.7375
2934.58258	32182.9375
2937.05161	32238.5375
2939.51912	32249.8375
2941.98513	32171.9375
2944.44962	32086.9375
2946.91261	32062.2375
2949.37409	32132.0375
2951.83407	32061.3375
2954.29254	32019.5375
2956.74951	32045.9375
2959.20498	32031.9375
2961.65895	31995.8375
2964.11142	32026.6375
2966.56239	32009.5375
2969.01186	31973.5375
2971.45984	31836.7375
2973.90632	31824.7375
2976.35131	31762.9375
2978.7948	31751.3375
2981.23681	31702.3375
2983.67732	31696.7375
2986.11635	31580.8375
2988.55388	31543.5375
2990.98993	31496.2375
2993.4245	31424.0375
2995.85758	31339.9375
2998.28917	31256.0375
3000.71928	31179.6375
3003.14791	31090.7375
3005.57506	31093.7375
3008.00073	30988.7375
3010.42493	30960.4375
3012.84764	30888.8375
3015.26888	30879.5375
3017.68865	30789.3375
3020.10694	30727.6375
3022.52376	30719.2375
