Data from AgNPs_FTO_APTES_UA_20uM_CRN_10uM_R6G_10uM_NaF_0.1M_Addition_RamanShift__18__14-31-22-207.txt Node

Date: Thu Feb 17 14:31:22 GMT 2022
User: TCL
Spectrometer: QEP01345
Trigger mode: 4
Integration Time (sec): 7.000000E0
Scans to average: 10
Electric dark correction enabled: true
Nonlinearity correction enabled: false
Boxcar width: 0
XAxis mode: Raman Shifts
Number of Pixels in Spectrum: 1044
>>>>>Begin Spectral Data<<<<<
46.04893	0.5375
50.45542	-1.8625
54.85868	-3.1625
59.25871	-0.8625
63.6555	126.0375
68.04907	120.6375
72.43941	130.4375
76.82654	132.9375
81.21044	138.3375
85.59113	140.3375
89.96862	146.7375
94.34289	151.8375
98.71396	156.3375
103.08183	159.7375
107.4465	165.0375
111.80798	165.8375
116.16626	171.5375
120.52136	189.5375
124.87327	193.3375
129.222	203.5375
133.56755	217.5375
137.90993	238.6375
142.24913	261.3375
146.58517	299.4375
150.91804	350.8375
155.24774	419.5375
159.57429	532.9375
163.89768	691.4375
168.21792	925.2375
172.53501	1269.5375
176.84895	1787.7375
181.15975	2519.7375
185.46741	3577.1375
189.77193	4928.8375
194.07331	6619.4375
198.37157	8569.9375
202.6667	10598.2375
206.9587	12627.8375
211.24758	14596.2375
215.53334	16573.6375
219.81599	18622.9375
224.09553	20915.1375
228.37195	23413.2375
232.64527	26215.8375
236.91549	29214.6375
241.18261	32273.5375
245.44663	35235.1375
249.70755	37784.5375
253.96539	40215.0375
258.22014	42181.9375
262.4718	43779.6375
266.72039	44988.4375
270.96589	45634.8375
275.20832	45698.3375
279.44768	45439.8375
283.68397	45058.6375
287.91719	44599.6375
292.14735	44336.1375
296.37445	44201.8375
300.59849	44231.1375
304.81948	44300.9375
309.03742	44231.7375
313.25231	43899.0375
317.46415	43293.8375
321.67296	42593.6375
325.87872	42008.4375
330.08145	41724.0375
334.28114	41824.4375
338.47781	42178.1375
342.67145	42673.0375
346.86207	43293.4375
351.04966	44086.6375
355.23424	44835.3375
359.4158	45493.1375
363.59435	46030.1375
367.76989	46489.5375
371.94243	46882.3375
376.11196	47158.4375
380.27849	47495.6375
384.44203	47795.9375
388.60257	48014.2375
392.76012	48405.1375
396.91468	48885.7375
401.06626	49419.7375
405.21485	49835.4375
409.36047	49876.5375
413.50311	49389.4375
417.64277	48950.1375
421.77947	48821.3375
425.9132	48971.6375
430.04396	49195.1375
434.17176	49552.0375
438.2966	49954.1375
442.41849	50809.8375
446.53742	51911.0375
450.6534	53096.5375
454.76644	54065.2375
458.87653	54443.4375
462.98368	54270.4375
467.08789	53734.9375
471.18916	53082.3375
475.2875	52502.7375
479.38291	52142.2375
483.4754	51745.5375
487.56496	51251.5375
491.6516	50819.2375
495.73531	50552.9375
499.81612	50359.6375
503.89401	50672.1375
507.96899	50727.6375
512.04106	50747.0375
516.11023	50584.7375
520.1765	50405.8375
524.23987	50342.1375
528.30034	50214.0375
532.35792	49973.2375
536.41261	49626.0375
540.46441	49334.5375
544.51333	49353.5375
548.55936	49709.2375
552.60252	50416.5375
556.64279	51214.6375
560.6802	51784.4375
564.71473	51963.1375
568.7464	52319.7375
572.7752	53021.1375
576.80114	53663.9375
580.82422	54342.6375
584.84444	55051.9375
588.86181	55957.3375
592.87633	56756.6375
596.888	56997.6375
600.89682	56794.3375
604.9028	58008.1375
608.90594	61563.6375
612.90624	65089.3375
616.90371	62164.1375
620.89834	55088.2375
624.89015	51997.1375
628.87913	51686.0375
632.86528	51709.8375
636.84862	51486.6375
640.82913	50968.2375
644.80683	50226.0375
648.78172	49535.5375
652.75379	49522.2375
656.72306	50014.8375
660.68952	50697.8375
664.65319	50606.0375
668.61405	50024.7375
672.57211	49937.2375
676.52738	50053.7375
680.47986	50032.2375
684.42955	49850.8375
688.37646	49807.9375
692.32058	50085.6375
696.26192	50492.5375
700.20048	50985.8375
704.13626	51264.0375
708.06928	51157.9375
711.99952	50842.1375
715.927	50746.6375
719.85171	50916.2375
723.77365	50904.5375
727.69284	50567.6375
731.60928	50203.0375
735.52295	50024.2375
739.43388	50157.8375
743.34206	50318.0375
747.24749	50456.9375
751.15017	50726.7375
755.05012	51194.7375
758.94733	52166.4375
762.8418	53822.0375
766.73354	56651.1375
770.62254	59364.0375
774.50882	60073.9375
778.39237	58221.3375
782.27321	55224.9375
786.15132	52669.3375
790.02671	51168.0375
793.89938	50460.6375
797.76935	50211.3375
801.6366	50073.6375
805.50115	49995.4375
809.36299	49846.3375
813.22213	49553.2375
817.07857	49430.1375
820.93231	49417.6375
824.78336	49372.1375
828.63172	49350.7375
832.47738	49335.9375
836.32036	49382.5375
840.16066	49554.8375
843.99827	49662.9375
847.8332	49643.6375
851.66546	49589.6375
855.49504	49526.1375
859.32195	49551.4375
863.1462	49523.1375
866.96777	49521.2375
870.78668	49538.3375
874.60293	49516.1375
878.41652	49515.3375
882.22745	49587.7375
886.03573	49708.1375
889.84136	49667.4375
893.64433	49492.7375
897.44466	49294.8375
901.24235	49162.4375
905.0374	49091.5375
908.8298	48968.7375
912.61957	49045.5375
916.40671	49326.4375
920.19121	49729.5375
923.97308	50069.3375
927.75233	50165.8375
931.52895	49914.0375
935.30295	49617.1375
939.07433	49086.1375
942.84309	48701.4375
946.60924	48474.4375
950.37278	48528.2375
954.13371	48455.5375
957.89203	48372.6375
961.64774	48215.4375
965.40086	48138.4375
969.15137	48028.3375
972.89929	47911.1375
976.64461	47875.8375
980.38733	47870.0375
984.12747	48086.6375
987.86502	48418.2375
991.59999	48898.2375
995.33237	49577.8375
999.06217	50550.3375
1002.78939	51570.1375
1006.51404	52302.3375
1010.23611	52714.7375
1013.95561	52955.2375
1017.67255	53089.8375
1021.38692	52784.2375
1025.09872	52393.2375
1028.80796	52441.1375
1032.51465	53154.9375
1036.21877	53811.5375
1039.92035	53867.4375
1043.61937	53473.0375
1047.31584	52761.9375
1051.00976	51951.4375
1054.70114	51658.1375
1058.38998	51650.8375
1062.07627	51917.1375
1065.76003	52145.5375
1069.44126	52449.1375
1073.11995	52929.6375
1076.79611	53377.5375
1080.46974	53762.5375
1084.14085	54155.0375
1087.80943	54538.9375
1091.47549	54807.0375
1095.13903	54731.6375
1098.80005	54203.0375
1102.45857	53648.4375
1106.11456	53273.3375
1109.76805	53141.7375
1113.41903	53464.5375
1117.06751	53748.2375
1120.71348	54044.4375
1124.35696	54372.0375
1127.99793	54638.5375
1131.63641	54653.2375
1135.2724	54414.4375
1138.90589	54125.4375
1142.5369	53941.3375
1146.16542	53825.6375
1149.79145	53970.9375
1153.415	54288.9375
1157.03607	54740.8375
1160.65467	55574.5375
1164.27079	57016.3375
1167.88443	59105.0375
1171.49561	61607.8375
1175.10432	64739.8375
1178.71056	68669.3375
1182.31434	72579.6375
1185.91565	74478.6375
1189.51451	74171.1375
1193.11091	72286.5375
1196.70485	69845.7375
1200.29634	67631.5375
1203.88538	65902.0375
1207.47197	64752.9375
1211.05612	63613.2375
1214.63782	62714.6375
1218.21708	62298.7375
1221.79391	62122.2375
1225.36829	62098.7375
1228.94024	61637.9375
1232.50976	60658.5375
1236.07685	59797.6375
1239.6415	59359.7375
1243.20374	59424.7375
1246.76355	59758.3375
1250.32093	60372.5375
1253.8759	61321.8375
1257.42845	62466.6375
1260.97859	63574.9375
1264.52631	64659.5375
1268.07163	65997.5375
1271.61453	67332.6375
1275.15503	68786.1375
1278.69312	70178.2375
1282.22882	71471.3375
1285.76211	72552.5375
1289.29301	73673.3375
1292.82151	75312.9375
1296.34761	77448.3375
1299.87133	80596.8375
1303.39266	84246.3375
1306.9116	88579.3375
1310.42815	92864.1375
1313.94233	95843.9375
1317.45412	96123.8375
1320.96354	94760.6375
1324.47058	92932.4375
1327.97525	90971.7375
1331.47754	89417.0375
1334.97747	88797.1375
1338.47502	88744.8375
1341.97022	88986.6375
1345.46305	88946.7375
1348.95352	88478.8375
1352.44163	88200.4375
1355.92738	89281.7375
1359.41078	91920.2375
1362.89183	94377.5375
1366.37053	92710.5375
1369.84688	86370.1375
1373.32088	78971.6375
1376.79254	74007.1375
1380.26186	71678.7375
1383.72883	71218.5375
1387.19347	70958.6375
1390.65578	70372.3375
1394.11575	69954.5375
1397.57339	70273.8375
1401.0287	71154.8375
1404.48168	72151.7375
1407.93234	72594.1375
1411.38068	72345.6375
1414.82669	71232.4375
1418.27039	69489.0375
1421.71177	67547.2375
1425.15083	65810.9375
1428.58758	64904.9375
1432.02203	65101.8375
1435.45416	66047.4375
1438.88399	67340.5375
1442.31151	68409.7375
1445.73673	69209.4375
1449.15965	69762.9375
1452.58027	70034.0375
1455.9986	70164.2375
1459.41463	70456.8375
1462.82837	71307.9375
1466.23982	72512.9375
1469.64898	73786.1375
1473.05586	74745.6375
1476.46045	74979.2375
1479.86276	74736.9375
1483.26279	74085.4375
1486.66054	73617.8375
1490.05602	73613.9375
1493.44922	73969.2375
1496.84016	74296.4375
1500.22882	75169.6375
1503.61521	76976.1375
1506.99934	79290.2375
1510.38121	81029.1375
1513.76081	81286.0375
1517.13816	79445.0375
1520.51324	76678.7375
1523.88607	74396.7375
1527.25665	73155.4375
1530.62498	72831.8375
1533.99105	72693.4375
1537.35488	72553.3375
1540.71647	72055.2375
1544.07581	71385.4375
1547.4329	70592.3375
1550.78776	69663.0375
1554.14038	68941.8375
1557.49077	68490.6375
1560.83892	68185.5375
1564.18484	68091.3375
1567.52853	68221.5375
1570.86999	68518.4375
1574.20922	69007.4375
1577.54624	69224.0375
1580.88103	68865.3375
1584.2136	68661.7375
1587.54395	69757.0375
1590.87208	72287.1375
1594.19801	76103.3375
1597.52172	80111.5375
1600.84321	81878.3375
1604.16251	79717.9375
1607.47959	75580.8375
1610.79447	70911.9375
1614.10715	66404.8375
1617.41763	62758.5375
1620.7259	60014.4375
1624.03199	58493.9375
1627.33587	58273.5375
1630.63757	59210.9375
1633.93707	61629.4375
1637.23439	65694.4375
1640.52951	71436.3375
1643.82246	77887.2375
1647.11321	82676.9375
1650.40179	83085.6375
1653.68819	78454.9375
1656.97241	70662.6375
1660.25446	63235.4375
1663.53433	57739.4375
1666.81203	54212.9375
1670.08756	52015.7375
1673.36092	50575.8375
1676.63211	49580.6375
1679.90115	48789.9375
1683.16801	48267.5375
1686.43272	47826.1375
1689.69527	47557.6375
1692.95567	47316.9375
1696.2139	47222.8375
1699.46999	47149.1375
1702.72392	46989.0375
1705.97571	46969.6375
1709.22535	46773.7375
1712.47284	46816.8375
1715.71819	46863.7375
1718.96139	46672.0375
1722.20246	46600.8375
1725.44139	46432.9375
1728.67818	46304.7375
1731.91284	46054.5375
1735.14537	45889.9375
1738.37576	45712.7375
1741.60403	45608.1375
1744.83017	45474.2375
1748.05418	45341.4375
1751.27607	45306.7375
1754.49584	45254.2375
1757.71349	45321.2375
1760.92903	45261.8375
1764.14244	45200.2375
1767.35375	45087.4375
1770.56294	45019.6375
1773.77002	45051.2375
1776.97499	44994.2375
1780.17785	44936.7375
1783.37861	44842.9375
1786.57727	44776.4375
1789.77382	44715.2375
1792.96828	44726.3375
1796.16064	44659.5375
1799.3509	44586.3375
1802.53907	44508.2375
1805.72514	44373.7375
1808.90913	44270.5375
1812.09102	44227.3375
1815.27083	44108.1375
1818.44856	44137.5375
1821.6242	44079.3375
1824.79776	44006.0375
1827.96924	43959.6375
1831.13864	43938.0375
1834.30597	43961.2375
1837.47122	43852.2375
1840.6344	43842.1375
1843.7955	43805.2375
1846.95454	43824.8375
1850.11151	43753.9375
1853.26642	43773.6375
1856.41926	43783.5375
1859.57004	43728.3375
1862.71876	43649.1375
1865.86542	43673.8375
1869.01003	43613.2375
1872.15258	43576.4375
1875.29308	43552.0375
1878.43152	43459.8375
1881.56792	43512.9375
1884.70227	43469.5375
1887.83457	43483.7375
1890.96482	43413.6375
1894.09304	43371.2375
1897.21921	43334.9375
1900.34335	43255.2375
1903.46544	43158.1375
1906.58551	43227.5375
1909.70353	43159.1375
1912.81953	43139.2375
1915.93349	43102.6375
1919.04543	42999.8375
1922.15534	42942.1375
1925.26322	42849.0375
1928.36908	42815.4375
1931.47292	42779.9375
1934.57473	42708.4375
1937.67453	42585.7375
1940.77232	42519.1375
1943.86808	42398.8375
1946.96184	42309.1375
1950.05358	42183.6375
1953.14331	42064.2375
1956.23103	41935.7375
1959.31675	41873.4375
1962.40046	41714.4375
1965.48217	41591.6375
1968.56188	41465.9375
1971.63959	41331.2375
1974.7153	41273.9375
1977.78901	41155.6375
1980.86073	41019.9375
1983.93046	40939.3375
1986.99819	40791.0375
1990.06394	40733.0375
1993.1277	40600.3375
1996.18947	40495.5375
1999.24925	40459.1375
2002.30706	40333.6375
2005.36288	40210.0375
2008.41672	40052.0375
2011.46859	39966.5375
2014.51848	39889.7375
2017.56639	39738.8375
2020.61233	39652.0375
2023.6563	39599.6375
2026.6983	39483.3375
2029.73833	39381.6375
2032.7764	39319.3375
2035.8125	39260.5375
2038.84664	39182.7375
2041.87881	39168.0375
2044.90903	39123.2375
2047.93729	39095.9375
2050.96359	39017.4375
2053.98794	38999.3375
2057.01034	39009.9375
2060.03078	38933.3375
2063.04927	38876.9375
2066.06582	38859.3375
2069.08042	38864.6375
2072.09307	38797.9375
2075.10378	38749.1375
2078.11255	38728.3375
2081.11938	38787.0375
2084.12426	38695.7375
2087.12722	38725.4375
2090.12824	38725.4375
2093.12732	38739.6375
2096.12447	38734.2375
2099.11969	38745.3375
2102.11299	38729.1375
2105.10435	38740.3375
2108.09379	38781.0375
2111.08131	38810.9375
2114.0669	38789.9375
2117.05057	38837.0375
2120.03233	38864.6375
2123.01216	38948.4375
2125.99008	38954.9375
2128.96609	39040.8375
2131.94018	39073.6375
2134.91236	39039.3375
2137.88263	39105.9375
2140.851	39151.3375
2143.81746	39195.0375
2146.78201	39180.5375
2149.74466	39242.0375
2152.7054	39224.3375
2155.66425	39249.4375
2158.6212	39218.6375
2161.57625	39226.0375
2164.52941	39205.0375
2167.48067	39146.7375
2170.43004	39109.4375
2173.37752	39150.2375
2176.32311	39158.7375
2179.26681	39193.6375
2182.20863	39158.1375
2185.14856	39218.5375
2188.08661	39190.7375
2191.02278	39185.8375
2193.95707	39154.5375
2196.88948	39166.5375
2199.82001	39097.2375
2202.74867	39090.5375
2205.67545	39109.2375
2208.60037	38997.6375
2211.52341	39039.0375
2214.44458	38988.8375
2217.36388	38947.1375
2220.28132	38878.3375
2223.1969	38790.7375
2226.11061	38697.7375
2229.02246	38595.8375
2231.93245	38518.0375
2234.84058	38487.3375
2237.74686	38447.3375
2240.65128	38349.5375
2243.55385	38329.0375
2246.45456	38382.3375
2249.35343	38335.6375
2252.25044	38294.7375
2255.14561	38171.2375
2258.03893	38131.5375
2260.93041	38071.8375
2263.82004	38037.6375
2266.70783	37937.4375
2269.59378	37832.4375
2272.4779	37824.1375
2275.36017	37743.4375
2278.24061	37697.4375
2281.11922	37597.7375
2283.996	37496.5375
2286.87094	37536.0375
2289.74405	37522.5375
2292.61534	37448.3375
2295.4848	37355.1375
2298.35243	37434.4375
2301.21824	37432.6375
2304.08223	37379.0375
2306.94439	37339.0375
2309.80474	37409.5375
2312.66327	37441.6375
2315.51999	37388.3375
2318.37489	37301.7375
2321.22797	37352.0375
2324.07925	37297.3375
2326.92871	37210.8375
2329.77637	37204.8375
2332.62222	37144.9375
2335.46626	37141.0375
2338.3085	37134.9375
2341.14893	37075.0375
2343.98756	37068.3375
2346.8244	37094.5375
2349.65943	37096.0375
2352.49267	37025.8375
2355.32411	37068.5375
2358.15376	37038.8375
2360.98161	36980.8375
2363.80768	36969.6375
2366.63195	36934.4375
2369.45444	36901.4375
2372.27514	36825.5375
2375.09405	36767.7375
2377.91118	36753.2375
2380.72652	36676.1375
2383.54009	36552.8375
2386.35187	36510.7375
2389.16188	36398.5375
2391.97011	36405.0375
2394.77657	36325.8375
2397.58125	36205.7375
2400.38416	36226.6375
2403.18529	36169.5375
2405.98466	36121.0375
2408.78226	36018.5375
2411.57809	36000.4375
2414.37216	35948.4375
2417.16446	35946.4375
2419.955	35883.9375
2422.74378	35872.2375
2425.5308	35806.8375
2428.31606	35836.1375
2431.09956	35854.8375
2433.88131	35774.6375
2436.6613	35787.1375
2439.43954	35775.5375
2442.21603	35734.6375
2444.99077	35672.1375
2447.76377	35645.9375
2450.53501	35615.3375
2453.30451	35606.6375
2456.07226	35602.3375
2458.83827	35558.5375
2461.60254	35553.0375
2464.36507	35545.8375
2467.12586	35563.8375
2469.88492	35547.3375
2472.64224	35568.1375
2475.39782	35556.8375
2478.15167	35593.9375
2480.90379	35553.9375
2483.65417	35598.2375
2486.40283	35570.6375
2489.14976	35558.7375
2491.89497	35527.5375
2494.63845	35557.2375
2497.3802	35554.8375
2500.12024	35562.3375
2502.85855	35516.3375
2505.59514	35494.5375
2508.33002	35399.4375
2511.06318	35392.9375
2513.79462	35345.2375
2516.52435	35323.0375
2519.25237	35288.6375
2521.97867	35274.1375
2524.70327	35290.9375
2527.42616	35259.9375
2530.14734	35224.7375
2532.86681	35204.4375
2535.58458	35165.3375
2538.30065	35143.7375
2541.01501	35125.6375
2543.72768	35131.5375
2546.43864	35147.4375
2549.14791	35024.9375
2551.85548	34984.1375
2554.56136	34904.5375
2557.26554	34838.9375
2559.96803	34741.0375
2562.66883	34742.2375
2565.36794	34743.1375
2568.06536	34665.0375
2570.7611	34631.7375
2573.45514	34559.3375
2576.14751	34575.5375
2578.83819	34521.5375
2581.52719	34560.3375
2584.21451	34456.6375
2586.90015	34456.2375
2589.58411	34439.0375
2592.2664	34380.4375
2594.94701	34335.7375
2597.62594	34359.0375
2600.30321	34323.9375
2602.9788	34302.3375
2605.65273	34246.9375
2608.32498	34304.6375
2610.99557	34265.5375
2613.66449	34234.8375
2616.33175	34240.2375
2618.99734	34243.5375
2621.66128	34181.9375
2624.32355	34147.1375
2626.98416	34130.8375
2629.64311	34102.2375
2632.30041	34141.5375
2634.95605	34127.0375
2637.61004	34062.9375
2640.26238	34055.7375
2642.91306	33975.9375
2645.56209	33906.7375
2648.20948	33922.2375
2650.85521	33923.0375
2653.4993	33928.2375
2656.14175	33868.5375
2658.78255	33950.6375
2661.42171	33931.3375
2664.05923	33977.2375
2666.6951	33954.5375
2669.32934	33942.4375
2671.96194	33952.3375
2674.59291	34012.2375
2677.22224	34001.1375
2679.84993	33989.3375
2682.476	33945.6375
2685.10043	33861.4375
2687.72324	33914.1375
2690.34441	33916.1375
2692.96396	33937.4375
2695.58188	33907.7375
2698.19818	33852.6375
2700.81285	33846.4375
2703.4259	33826.1375
2706.03733	33869.3375
2708.64714	33866.1375
2711.25533	33878.5375
2713.86191	33882.3375
2716.46687	33995.1375
2719.07021	33936.9375
2721.67194	33914.9375
2724.27206	33877.7375
2726.87057	33938.8375
2729.46747	33931.1375
2732.06276	33969.5375
2734.65644	33908.6375
2737.24852	34018.5375
2739.83899	33945.5375
2742.42786	33970.5375
2745.01513	33928.1375
2747.60079	33872.4375
2750.18486	33851.5375
2752.76733	33867.5375
2755.3482	33743.4375
2757.92747	33748.3375
2760.50515	33664.5375
2763.08123	33719.9375
2765.65573	33710.5375
2768.22863	33716.1375
2770.79994	33603.8375
2773.36967	33651.1375
2775.9378	33639.8375
2778.50435	33647.4375
2781.06932	33611.7375
2783.6327	33565.6375
2786.1945	33606.9375
2788.75471	33583.0375
2791.31335	33470.4375
2793.87041	33430.1375
2796.42589	33341.0375
2798.97979	33325.0375
2801.53212	33216.9375
2804.08288	33203.1375
2806.63206	33107.0375
2809.17967	33050.2375
2811.72571	32910.6375
2814.27018	32820.4375
2816.81308	32721.2375
2819.35442	32744.5375
2821.89419	32706.1375
2824.43239	32702.3375
2826.96904	32683.3375
2829.50412	32672.5375
2832.03763	32582.7375
2834.56959	32601.5375
2837.1	32531.1375
2839.62884	32487.3375
2842.15613	32397.0375
2844.68186	32399.5375
2847.20604	32394.2375
2849.72867	32373.1375
2852.24974	32296.3375
2854.76927	32259.6375
2857.28724	32246.7375
2859.80367	32219.5375
2862.31855	32208.2375
2864.83189	32140.6375
2867.34368	32055.0375
2869.85393	32112.1375
2872.36264	32054.9375
2874.8698	32051.2375
2877.37543	32017.0375
2879.87952	31979.7375
2882.38207	32000.8375
2884.88308	31994.7375
2887.38256	32028.8375
2889.88051	31976.4375
2892.37692	32011.0375
2894.8718	32017.8375
2897.36515	32058.2375
2899.85698	32036.8375
2902.34727	32106.5375
2904.83604	32131.8375
2907.32328	32154.5375
2909.809	32194.6375
2912.29319	32201.2375
2914.77587	32212.1375
2917.25702	32221.3375
2919.73665	32166.8375
2922.21476	32187.1375
2924.69136	32088.7375
2927.16644	32077.2375
2929.64	32044.3375
2932.11205	32002.3375
2934.58258	31947.7375
2937.05161	31986.6375
2939.51912	31988.6375
2941.98513	32004.7375
2944.44962	31936.4375
2946.91261	31880.8375
2949.37409	31976.6375
2951.83407	31881.7375
2954.29254	31894.3375
2956.74951	31843.6375
2959.20498	31891.5375
2961.65895	31856.6375
2964.11142	31881.9375
2966.56239	31804.6375
2969.01186	31792.2375
2971.45984	31735.3375
2973.90632	31640.7375
2976.35131	31619.8375
2978.7948	31634.2375
2981.23681	31571.9375
2983.67732	31515.1375
2986.11635	31447.2375
2988.55388	31388.6375
2990.98993	31364.0375
2993.4245	31308.0375
2995.85758	31233.6375
2998.28917	31157.5375
3000.71928	31157.2375
3003.14791	31076.6375
3005.57506	31046.9375
3008.00073	30958.6375
3010.42493	30914.3375
3012.84764	30797.4375
3015.26888	30815.7375
3017.68865	30758.6375
3020.10694	30774.4375
3022.52376	30684.0375
