Data from AgNPs_FTO_APTES_UA_20uM_CRN_5uM_R6G_10uM_NaF_0.1M_Addition_RamanShift__20__13-55-12-154.txt Node

Date: Thu Feb 17 13:55:12 GMT 2022
User: TCL
Spectrometer: QEP01345
Trigger mode: 4
Integration Time (sec): 7.000000E0
Scans to average: 10
Electric dark correction enabled: true
Nonlinearity correction enabled: false
Boxcar width: 0
XAxis mode: Raman Shifts
Number of Pixels in Spectrum: 1044
>>>>>Begin Spectral Data<<<<<
46.04893	-0.0125
50.45542	-0.9125
54.85868	-3.3125
59.25871	-1.0125
63.6555	131.4875
68.04907	130.5875
72.43941	139.3875
76.82654	139.3875
81.21044	144.6875
85.59113	148.6875
89.96862	158.1875
94.34289	155.9875
98.71396	163.3875
103.08183	169.0875
107.4465	171.0875
111.80798	175.6875
116.16626	185.8875
120.52136	193.0875
124.87327	200.4875
129.222	215.5875
133.56755	230.1875
137.90993	244.5875
142.24913	277.9875
146.58517	313.1875
150.91804	368.6875
155.24774	446.9875
159.57429	553.9875
163.89768	722.1875
168.21792	976.2875
172.53501	1336.1875
176.84895	1878.0875
181.15975	2663.7875
185.46741	3744.5875
189.77193	5177.5875
194.07331	6958.2875
198.37157	8991.4875
202.6667	11132.6875
206.9587	13251.9875
211.24758	15349.7875
215.53334	17429.7875
219.81599	19598.6875
224.09553	22043.0875
228.37195	24716.9875
232.64527	27704.5875
236.91549	30866.9875
241.18261	34072.8875
245.44663	37148.9875
249.70755	39948.7875
253.96539	42425.8875
258.22014	44543.1875
262.4718	46291.7875
266.72039	47563.4875
270.96589	48276.2875
275.20832	48433.6875
279.44768	48279.7875
283.68397	47925.6875
287.91719	47572.7875
292.14735	47335.9875
296.37445	47195.9875
300.59849	47291.0875
304.81948	47344.5875
309.03742	47169.1875
313.25231	46729.4875
317.46415	45947.0875
321.67296	45018.1875
325.87872	44303.6875
330.08145	44041.2875
334.28114	44047.8875
338.47781	44443.4875
342.67145	44997.1875
346.86207	45833.2875
351.04966	46696.3875
355.23424	47597.9875
359.4158	48333.1875
363.59435	48960.5875
367.76989	49384.9875
371.94243	49715.0875
376.11196	50015.5875
380.27849	50276.4875
384.44203	50660.7875
388.60257	50904.0875
392.76012	51304.2875
396.91468	51826.7875
401.06626	52500.5875
405.21485	53036.7875
409.36047	52972.9875
413.50311	52486.1875
417.64277	52048.7875
421.77947	51977.0875
425.9132	52191.4875
430.04396	52540.7875
434.17176	52997.4875
438.2966	53527.8875
442.41849	54412.2875
446.53742	55669.3875
450.6534	57012.8875
454.76644	58138.6875
458.87653	58630.3875
462.98368	58444.6875
467.08789	57854.3875
471.18916	57095.6875
475.2875	56473.2875
479.38291	56109.5875
483.4754	55745.5875
487.56496	55214.6875
491.6516	54501.0875
495.73531	53931.1875
499.81612	53655.2875
503.89401	53837.2875
507.96899	53963.1875
512.04106	53776.2875
516.11023	53607.2875
520.1765	53461.3875
524.23987	53299.7875
528.30034	53023.0875
532.35792	52720.5875
536.41261	52287.3875
540.46441	51994.9875
544.51333	52039.4875
548.55936	52553.4875
552.60252	53477.9875
556.64279	54467.2875
560.6802	55157.0875
564.71473	55546.0875
568.7464	56140.3875
572.7752	57107.5875
576.80114	57659.8875
580.82422	58177.9875
584.84444	58714.0875
588.86181	59468.7875
592.87633	60313.6875
596.888	60648.1875
600.89682	60536.8875
604.9028	62106.3875
608.90594	66432.9875
612.90624	70819.5875
616.90371	67259.0875
620.89834	58856.9875
624.89015	55186.5875
628.87913	54754.1875
632.86528	54736.5875
636.84862	54424.3875
640.82913	53766.2875
644.80683	52782.6875
648.78172	51999.6875
652.75379	51944.4875
656.72306	52528.6875
660.68952	53350.2875
664.65319	53216.1875
668.61405	52600.9875
672.57211	52372.2875
676.52738	52492.1875
680.47986	52480.8875
684.42955	52338.0875
688.37646	52321.6875
692.32058	52595.1875
696.26192	53061.3875
700.20048	53609.3875
704.13626	53928.9875
708.06928	53832.1875
711.99952	53430.8875
715.927	53359.8875
719.85171	53445.0875
723.77365	53373.7875
727.69284	53036.6875
731.60928	52672.8875
735.52295	52606.6875
739.43388	52698.7875
743.34206	52886.8875
747.24749	53176.7875
751.15017	53501.4875
755.05012	54172.6875
758.94733	55360.9875
762.8418	57551.2875
766.73354	60902.5875
770.62254	64140.7875
774.50882	64694.0875
778.39237	62252.8875
782.27321	58505.3875
786.15132	55517.8875
790.02671	53776.5875
793.89938	52925.1875
797.76935	52631.6875
801.6366	52518.6875
805.50115	52395.9875
809.36299	52237.8875
813.22213	52060.5875
817.07857	51926.5875
820.93231	51917.4875
824.78336	51751.3875
828.63172	51773.9875
832.47738	51785.8875
836.32036	51850.3875
840.16066	52058.0875
843.99827	52134.1875
847.8332	52130.9875
851.66546	51971.8875
855.49504	51869.3875
859.32195	51950.4875
863.1462	51802.2875
866.96777	51758.9875
870.78668	51718.0875
874.60293	51725.4875
878.41652	51758.4875
882.22745	51909.5875
886.03573	51914.3875
889.84136	51883.9875
893.64433	51719.4875
897.44466	51523.3875
901.24235	51380.6875
905.0374	51348.3875
908.8298	51196.1875
912.61957	51319.7875
916.40671	51687.1875
920.19121	52207.2875
923.97308	52630.5875
927.75233	52719.7875
931.52895	52433.8875
935.30295	51982.3875
939.07433	51349.0875
942.84309	50897.1875
946.60924	50709.2875
950.37278	50632.2875
954.13371	50550.8875
957.89203	50422.1875
961.64774	50288.3875
965.40086	50124.1875
969.15137	49978.9875
972.89929	49827.5875
976.64461	49786.8875
980.38733	49805.1875
984.12747	49966.6875
987.86502	50401.4875
991.59999	50986.6875
995.33237	51701.3875
999.06217	52985.3875
1002.78939	54466.5875
1006.51404	55460.0875
1010.23611	56042.1875
1013.95561	56362.3875
1017.67255	56419.9875
1021.38692	56050.9875
1025.09872	55668.3875
1028.80796	55954.8875
1032.51465	56983.5875
1036.21877	57921.7875
1039.92035	57997.9875
1043.61937	57359.6875
1047.31584	56310.9875
1051.00976	55094.3875
1054.70114	54515.9875
1058.38998	54478.6875
1062.07627	54670.0875
1065.76003	54921.0875
1069.44126	55272.6875
1073.11995	55733.6875
1076.79611	56182.7875
1080.46974	56495.6875
1084.14085	56940.7875
1087.80943	57452.0875
1091.47549	57670.6875
1095.13903	57469.6875
1098.80005	56844.7875
1102.45857	56153.9875
1106.11456	55686.6875
1109.76805	55668.7875
1113.41903	55986.3875
1117.06751	56416.6875
1120.71348	56906.6875
1124.35696	57316.7875
1127.99793	57635.1875
1131.63641	57646.7875
1135.2724	57335.8875
1138.90589	56986.2875
1142.5369	56746.8875
1146.16542	56688.7875
1149.79145	56880.5875
1153.415	57268.2875
1157.03607	57924.8875
1160.65467	58929.8875
1164.27079	60618.4875
1167.88443	62974.8875
1171.49561	66043.0875
1175.10432	70172.7875
1178.71056	75142.8875
1182.31434	79869.1875
1185.91565	82428.0875
1189.51451	82284.5875
1193.11091	80147.7875
1196.70485	77088.5875
1200.29634	74364.7875
1203.88538	72072.6875
1207.47197	70497.7875
1211.05612	69075.7875
1214.63782	67994.7875
1218.21708	67499.8875
1221.79391	67450.4875
1225.36829	67383.0875
1228.94024	66731.1875
1232.50976	65577.9875
1236.07685	64650.7875
1239.6415	64260.4875
1243.20374	64289.2875
1246.76355	64751.1875
1250.32093	65519.6875
1253.8759	66658.8875
1257.42845	68094.1875
1260.97859	69526.9875
1264.52631	70812.2875
1268.07163	72316.0875
1271.61453	73857.2875
1275.15503	75614.5875
1278.69312	77361.5875
1282.22882	78984.0875
1285.76211	80445.6875
1289.29301	82045.5875
1292.82151	84154.5875
1296.34761	86981.6875
1299.87133	90720.7875
1303.39266	95351.9875
1306.9116	100644.0875
1310.42815	105914.2875
1313.94233	109320.4875
1317.45412	109779.6875
1320.96354	108086.7875
1324.47058	105965.9875
1327.97525	103792.8875
1331.47754	102398.4875
1334.97747	102016.4875
1338.47502	102595.5875
1341.97022	103250.8875
1345.46305	103018.6875
1348.95352	101847.3875
1352.44163	100698.3875
1355.92738	101374.9875
1359.41078	104354.2875
1362.89183	107105.7875
1366.37053	105020.5875
1369.84688	97376.1875
1373.32088	88775.6875
1376.79254	82920.8875
1380.26186	80270.6875
1383.72883	79608.0875
1387.19347	79385.1875
1390.65578	79052.2875
1394.11575	79052.4875
1397.57339	79876.7875
1401.0287	81341.2875
1404.48168	82931.9875
1407.93234	83858.4875
1411.38068	83864.9875
1414.82669	82716.9875
1418.27039	80369.6875
1421.71177	77379.8875
1425.15083	74804.3875
1428.58758	73482.2875
1432.02203	73431.9875
1435.45416	74447.6875
1438.88399	75811.4875
1442.31151	77113.5875
1445.73673	78090.8875
1449.15965	78980.2875
1452.58027	79562.0875
1455.9986	79622.2875
1459.41463	80018.3875
1462.82837	80958.8875
1466.23982	82153.9875
1469.64898	83612.7875
1473.05586	84596.3875
1476.46045	84798.2875
1479.86276	84608.4875
1483.26279	84051.8875
1486.66054	83666.1875
1490.05602	84061.9875
1493.44922	84453.1875
1496.84016	84725.9875
1500.22882	85472.7875
1503.61521	87105.9875
1506.99934	89540.9875
1510.38121	91621.7875
1513.76081	91826.3875
1517.13816	89839.3875
1520.51324	86778.4875
1523.88607	84111.7875
1527.25665	82743.8875
1530.62498	82314.8875
1533.99105	82278.9875
1537.35488	82095.6875
1540.71647	81607.2875
1544.07581	80892.0875
1547.4329	79767.1875
1550.78776	78515.8875
1554.14038	77520.1875
1557.49077	76963.5875
1560.83892	76669.7875
1564.18484	76394.8875
1567.52853	76375.8875
1570.86999	76568.3875
1574.20922	76909.6875
1577.54624	77355.8875
1580.88103	77084.9875
1584.2136	77191.0875
1587.54395	78799.5875
1590.87208	82230.2875
1594.19801	87076.1875
1597.52172	92203.0875
1600.84321	94356.3875
1604.16251	91611.0875
1607.47959	86120.5875
1610.79447	79947.6875
1614.10715	74143.1875
1617.41763	69312.5875
1620.7259	65912.4875
1624.03199	64079.3875
1627.33587	63843.0875
1630.63757	65189.3875
1633.93707	68188.0875
1637.23439	72975.4875
1640.52951	79625.3875
1643.82246	86888.4875
1647.11321	92183.8875
1650.40179	92619.2875
1653.68819	87076.0875
1656.97241	77916.4875
1660.25446	69077.7875
1663.53433	62452.6875
1666.81203	58223.1875
1670.08756	55551.3875
1673.36092	53870.0875
1676.63211	52622.3875
1679.90115	51731.5875
1683.16801	51018.1875
1686.43272	50579.9875
1689.69527	50280.2875
1692.95567	49911.2875
1696.2139	49808.2875
1699.46999	49741.2875
1702.72392	49627.4875
1705.97571	49490.2875
1709.22535	49375.9875
1712.47284	49333.3875
1715.71819	49374.3875
1718.96139	49291.6875
1722.20246	49132.6875
1725.44139	48957.4875
1728.67818	48726.2875
1731.91284	48471.1875
1735.14537	48267.3875
1738.37576	48110.4875
1741.60403	48025.8875
1744.83017	47803.0875
1748.05418	47730.2875
1751.27607	47578.6875
1754.49584	47546.4875
1757.71349	47566.7875
1760.92903	47592.7875
1764.14244	47481.6875
1767.35375	47414.2875
1770.56294	47371.6875
1773.77002	47372.8875
1776.97499	47343.6875
1780.17785	47246.6875
1783.37861	47173.6875
1786.57727	47087.7875
1789.77382	47009.8875
1792.96828	47049.2875
1796.16064	46980.0875
1799.3509	46874.2875
1802.53907	46886.1875
1805.72514	46708.9875
1808.90913	46618.0875
1812.09102	46513.7875
1815.27083	46486.8875
1818.44856	46389.6875
1821.6242	46360.3875
1824.79776	46323.0875
1827.96924	46292.1875
1831.13864	46247.3875
1834.30597	46288.5875
1837.47122	46194.8875
1840.6344	46122.6875
1843.7955	46191.5875
1846.95454	46183.3875
1850.11151	46183.9875
1853.26642	46134.6875
1856.41926	46100.2875
1859.57004	46086.3875
1862.71876	46052.6875
1865.86542	46052.7875
1869.01003	45989.9875
1872.15258	46008.6875
1875.29308	45958.7875
1878.43152	45908.2875
1881.56792	45914.6875
1884.70227	45993.3875
1887.83457	45889.4875
1890.96482	45808.6875
1894.09304	45842.7875
1897.21921	45849.5875
1900.34335	45716.8875
1903.46544	45729.3875
1906.58551	45720.0875
1909.70353	45618.6875
1912.81953	45588.3875
1915.93349	45525.3875
1919.04543	45437.1875
1922.15534	45390.8875
1925.26322	45402.8875
1928.36908	45357.0875
1931.47292	45200.1875
1934.57473	45098.6875
1937.67453	44945.9875
1940.77232	44846.4875
1943.86808	44741.2875
1946.96184	44627.6875
1950.05358	44516.6875
1953.14331	44390.4875
1956.23103	44284.9875
1959.31675	44121.5875
1962.40046	44023.3875
1965.48217	43849.5875
1968.56188	43717.0875
1971.63959	43652.0875
1974.7153	43523.6875
1977.78901	43395.8875
1980.86073	43293.1875
1983.93046	43227.3875
1986.99819	43083.2875
1990.06394	42958.2875
1993.1277	42869.6875
1996.18947	42689.3875
1999.24925	42591.9875
2002.30706	42492.4875
2005.36288	42361.1875
2008.41672	42263.4875
2011.46859	42155.7875
2014.51848	42043.4875
2017.56639	41929.5875
2020.61233	41802.2875
2023.6563	41706.0875
2026.6983	41623.2875
2029.73833	41510.2875
2032.7764	41419.3875
2035.8125	41424.3875
2038.84664	41322.0875
2041.87881	41393.2875
2044.90903	41268.6875
2047.93729	41241.2875
2050.96359	41179.0875
2053.98794	41130.3875
2057.01034	41135.2875
2060.03078	41130.1875
2063.04927	41069.8875
2066.06582	41005.6875
2069.08042	40956.1875
2072.09307	40963.2875
2075.10378	40895.3875
2078.11255	40856.8875
2081.11938	40889.0875
2084.12426	40814.7875
2087.12722	40777.0875
2090.12824	40791.2875
2093.12732	40749.1875
2096.12447	40798.1875
2099.11969	40715.7875
2102.11299	40751.6875
2105.10435	40777.7875
2108.09379	40788.1875
2111.08131	40824.3875
2114.0669	40825.1875
2117.05057	40839.8875
2120.03233	40906.2875
2123.01216	40997.0875
2125.99008	41017.3875
2128.96609	41068.6875
2131.94018	41117.1875
2134.91236	41108.4875
2137.88263	41147.7875
2140.851	41151.9875
2143.81746	41174.4875
2146.78201	41216.3875
2149.74466	41221.6875
2152.7054	41228.6875
2155.66425	41189.8875
2158.6212	41263.6875
2161.57625	41193.6875
2164.52941	41221.3875
2167.48067	41165.1875
2170.43004	41183.4875
2173.37752	41157.7875
2176.32311	41220.5875
2179.26681	41209.7875
2182.20863	41155.8875
2185.14856	41195.0875
2188.08661	41203.2875
2191.02278	41218.2875
2193.95707	41115.2875
2196.88948	41108.7875
2199.82001	41132.2875
2202.74867	41058.6875
2205.67545	41066.7875
2208.60037	41061.3875
2211.52341	41058.9875
2214.44458	41051.8875
2217.36388	40980.9875
2220.28132	40954.6875
2223.1969	40822.4875
2226.11061	40741.6875
2229.02246	40618.8875
2231.93245	40564.5875
2234.84058	40490.2875
2237.74686	40409.1875
2240.65128	40379.7875
2243.55385	40345.4875
2246.45456	40309.2875
2249.35343	40308.8875
2252.25044	40333.3875
2255.14561	40222.6875
2258.03893	40159.6875
2260.93041	40072.1875
2263.82004	39924.1875
2266.70783	39842.9875
2269.59378	39756.0875
2272.4779	39694.7875
2275.36017	39592.9875
2278.24061	39621.1875
2281.11922	39539.5875
2283.996	39437.3875
2286.87094	39438.9875
2289.74405	39396.4875
2292.61534	39357.1875
2295.4848	39306.8875
2298.35243	39324.1875
2301.21824	39353.1875
2304.08223	39301.9875
2306.94439	39314.9875
2309.80474	39400.0875
2312.66327	39376.1875
2315.51999	39323.9875
2318.37489	39317.0875
2321.22797	39298.7875
2324.07925	39297.2875
2326.92871	39221.5875
2329.77637	39173.4875
2332.62222	39140.3875
2335.46626	39126.5875
2338.3085	39105.2875
2341.14893	39094.6875
2343.98756	39138.2875
2346.8244	39131.4875
2349.65943	39137.0875
2352.49267	39101.0875
2355.32411	39119.7875
2358.15376	39081.1875
2360.98161	39035.7875
2363.80768	38987.2875
2366.63195	38944.0875
2369.45444	38903.4875
2372.27514	38853.4875
2375.09405	38767.7875
2377.91118	38732.3875
2380.72652	38585.1875
2383.54009	38524.9875
2386.35187	38434.1875
2389.16188	38350.0875
2391.97011	38306.0875
2394.77657	38239.1875
2397.58125	38211.2875
2400.38416	38168.5875
2403.18529	38097.3875
2405.98466	38036.8875
2408.78226	37948.2875
2411.57809	37880.2875
2414.37216	37843.2875
2417.16446	37873.8875
2419.955	37785.8875
2422.74378	37757.7875
2425.5308	37670.6875
2428.31606	37721.1875
2431.09956	37716.6875
2433.88131	37688.1875
2436.6613	37710.3875
2439.43954	37679.0875
2442.21603	37606.5875
2444.99077	37543.4875
2447.76377	37566.1875
2450.53501	37501.5875
2453.30451	37584.3875
2456.07226	37533.4875
2458.83827	37421.3875
2461.60254	37482.7875
2464.36507	37483.1875
2467.12586	37424.5875
2469.88492	37474.1875
2472.64224	37482.4875
2475.39782	37446.6875
2478.15167	37550.7875
2480.90379	37514.3875
2483.65417	37623.2875
2486.40283	37583.0875
2489.14976	37595.2875
2491.89497	37560.0875
2494.63845	37621.1875
2497.3802	37524.8875
2500.12024	37556.7875
2502.85855	37594.3875
2505.59514	37499.0875
2508.33002	37395.0875
2511.06318	37412.3875
2513.79462	37391.8875
2516.52435	37347.3875
2519.25237	37313.6875
2521.97867	37289.9875
2524.70327	37293.1875
2527.42616	37306.7875
2530.14734	37240.6875
2532.86681	37187.4875
2535.58458	37199.1875
2538.30065	37153.3875
2541.01501	37141.0875
2543.72768	37155.3875
2546.43864	37174.5875
2549.14791	37104.9875
2551.85548	37028.5875
2554.56136	36971.2875
2557.26554	36852.0875
2559.96803	36848.0875
2562.66883	36793.6875
2565.36794	36815.5875
2568.06536	36750.1875
2570.7611	36731.2875
2573.45514	36651.1875
2576.14751	36630.0875
2578.83819	36569.6875
2581.52719	36592.4875
2584.21451	36563.2875
2586.90015	36566.5875
2589.58411	36528.1875
2592.2664	36514.1875
2594.94701	36484.3875
2597.62594	36513.2875
2600.30321	36488.6875
2602.9788	36494.3875
2605.65273	36442.8875
2608.32498	36477.5875
2610.99557	36453.1875
2613.66449	36421.7875
2616.33175	36441.9875
2618.99734	36382.9875
2621.66128	36387.7875
2624.32355	36386.1875
2626.98416	36389.8875
2629.64311	36360.9875
2632.30041	36376.7875
2634.95605	36365.4875
2637.61004	36324.0875
2640.26238	36288.0875
2642.91306	36257.7875
2645.56209	36178.1875
2648.20948	36169.9875
2650.85521	36147.5875
2653.4993	36132.4875
2656.14175	36108.5875
2658.78255	36178.4875
2661.42171	36168.2875
2664.05923	36237.7875
2666.6951	36219.1875
2669.32934	36242.1875
2671.96194	36266.6875
2674.59291	36295.0875
2677.22224	36309.4875
2679.84993	36316.2875
2682.476	36288.5875
2685.10043	36239.3875
2687.72324	36193.3875
2690.34441	36160.6875
2692.96396	36136.5875
2695.58188	36146.6875
2698.19818	36156.3875
2700.81285	36135.7875
2703.4259	36085.8875
2706.03733	36162.7875
2708.64714	36118.5875
2711.25533	36127.4875
2713.86191	36155.1875
2716.46687	36227.1875
2719.07021	36234.4875
2721.67194	36250.9875
2724.27206	36203.9875
2726.87057	36296.0875
2729.46747	36271.4875
2732.06276	36251.1875
2734.65644	36227.8875
2737.24852	36302.1875
2739.83899	36224.3875
2742.42786	36303.9875
2745.01513	36291.4875
2747.60079	36249.6875
2750.18486	36173.7875
2752.76733	36184.9875
2755.3482	36144.5875
2757.92747	36077.8875
2760.50515	36024.5875
2763.08123	36075.9875
2765.65573	36065.0875
2768.22863	36094.0875
2770.79994	36016.6875
2773.36967	36072.1875
2775.9378	36080.5875
2778.50435	36108.0875
2781.06932	36041.9875
2783.6327	36003.5875
2786.1945	35994.2875
2788.75471	35948.8875
2791.31335	35877.8875
2793.87041	35835.4875
2796.42589	35772.8875
2798.97979	35703.0875
2801.53212	35646.6875
2804.08288	35610.6875
2806.63206	35540.4875
2809.17967	35434.1875
2811.72571	35344.9875
2814.27018	35309.5875
2816.81308	35216.9875
2819.35442	35159.2875
2821.89419	35129.9875
2824.43239	35142.7875
2826.96904	35126.3875
2829.50412	35129.9875
2832.03763	34995.6875
2834.56959	34944.3875
2837.1	34965.1875
2839.62884	34917.7875
2842.15613	34796.0875
2844.68186	34878.4875
2847.20604	34827.8875
2849.72867	34780.6875
2852.24974	34730.9875
2854.76927	34681.8875
2857.28724	34629.6875
2859.80367	34701.9875
2862.31855	34672.2875
2864.83189	34607.7875
2867.34368	34542.1875
2869.85393	34515.3875
2872.36264	34536.7875
2874.8698	34472.9875
2877.37543	34477.2875
2879.87952	34391.7875
2882.38207	34444.3875
2884.88308	34400.8875
2887.38256	34453.6875
2889.88051	34407.7875
2892.37692	34478.0875
2894.8718	34494.0875
2897.36515	34520.1875
2899.85698	34506.3875
2902.34727	34567.8875
2904.83604	34595.5875
2907.32328	34630.7875
2909.809	34646.7875
2912.29319	34716.9875
2914.77587	34720.0875
2917.25702	34703.9875
2919.73665	34642.5875
2922.21476	34629.2875
2924.69136	34572.4875
2927.16644	34556.3875
2929.64	34490.9875
2932.11205	34450.7875
2934.58258	34363.8875
2937.05161	34437.0875
2939.51912	34488.6875
2941.98513	34452.1875
2944.44962	34407.3875
2946.91261	34348.2875
2949.37409	34458.8875
2951.83407	34335.3875
2954.29254	34352.3875
2956.74951	34323.1875
2959.20498	34313.5875
2961.65895	34283.3875
2964.11142	34311.1875
2966.56239	34270.1875
2969.01186	34270.2875
2971.45984	34130.7875
2973.90632	34106.8875
2976.35131	34055.1875
2978.7948	34015.4875
2981.23681	33944.8875
2983.67732	33884.9875
2986.11635	33782.9875
2988.55388	33731.1875
2990.98993	33689.1875
2993.4245	33656.5875
2995.85758	33542.1875
2998.28917	33414.2875
3000.71928	33380.2875
3003.14791	33308.5875
3005.57506	33342.8875
3008.00073	33220.6875
3010.42493	33211.2875
3012.84764	33080.9875
3015.26888	33074.9875
3017.68865	33037.8875
3020.10694	32975.3875
