Data from AgNPs_FTO_APTES_UA_20uM_CRN_1000uM_R6G_10uM_NaF_0.1M_Addition_RamanShift__9__19-22-15-016.txt Node

Date: Thu Feb 17 19:22:15 GMT 2022
User: TCL
Spectrometer: QEP01345
Trigger mode: 4
Integration Time (sec): 1.000000E1
Scans to average: 7
Electric dark correction enabled: true
Nonlinearity correction enabled: false
Boxcar width: 0
XAxis mode: Raman Shifts
Number of Pixels in Spectrum: 1044
>>>>>Begin Spectral Data<<<<<
46.04893	0.60714
50.45542	-0.82143
54.85868	0.46429
59.25871	-1.96429
63.6555	69.75
68.04907	77.32143
72.43941	74.75
76.82654	83.03571
81.21044	81.46429
85.59113	89.32143
89.96862	97.32143
94.34289	94.60714
98.71396	105.46429
103.08183	103.89286
107.4465	106.89286
111.80798	106.17857
116.16626	105.32143
120.52136	108.17857
124.87327	120.32143
129.222	125.60714
133.56755	127.60714
137.90993	138.60714
142.24913	147.89286
146.58517	168.75
150.91804	186.89286
155.24774	228.75
159.57429	274.32143
163.89768	360.17857
168.21792	470.17857
172.53501	636.17857
176.84895	903.17857
181.15975	1266.75
185.46741	1811.46429
189.77193	2493.03571
194.07331	3365.46429
198.37157	4395.32143
202.6667	5440.75
206.9587	6489.03571
211.24758	7530.75
215.53334	8571.60714
219.81599	9653.03571
224.09553	10838.75
228.37195	12134.17857
232.64527	13631.89286
236.91549	15175.03571
241.18261	16676.32143
245.44663	18105.75
249.70755	19352.46429
253.96539	20415.60714
258.22014	21254.60714
262.4718	22026.03571
266.72039	22469.32143
270.96589	22700.32143
275.20832	22627.89286
279.44768	22442.17857
283.68397	22145.03571
287.91719	21871.75
292.14735	21723.03571
296.37445	21714.46429
300.59849	21805.89286
304.81948	22040.46429
309.03742	22228.03571
313.25231	22236.60714
317.46415	22082.75
321.67296	21636.89286
325.87872	21247.17857
330.08145	21020.46429
334.28114	20966.89286
338.47781	21164.17857
342.67145	21401.60714
346.86207	21817.03571
351.04966	22296.75
355.23424	22768.46429
359.4158	23159.17857
363.59435	23393.03571
367.76989	23599.32143
371.94243	23725.89286
376.11196	23818.46429
380.27849	23886.17857
384.44203	23954.60714
388.60257	24093.75
392.76012	24229.03571
396.91468	24492.60714
401.06626	24750.03571
405.21485	24965.17857
409.36047	24850.17857
413.50311	24483.03571
417.64277	24117.60714
421.77947	23941.46429
425.9132	23956.46429
430.04396	24069.03571
434.17176	24192.32143
438.2966	24403.46429
442.41849	24777.03571
446.53742	25214.46429
450.6534	25702.03571
454.76644	26004.03571
458.87653	26103.03571
462.98368	26046.75
467.08789	25882.60714
471.18916	25664.32143
475.2875	25321.32143
479.38291	25017.75
483.4754	24768.03571
487.56496	24570.32143
491.6516	24522.03571
495.73531	24458.60714
499.81612	24442.75
503.89401	24575.89286
507.96899	24708.46429
512.04106	24784.17857
516.11023	24837.17857
520.1765	24835.75
524.23987	24925.03571
528.30034	24899.46429
532.35792	24823.17857
536.41261	24738.75
540.46441	24469.32143
544.51333	24443.03571
548.55936	24556.32143
552.60252	24882.89286
556.64279	25210.03571
560.6802	25403.89286
564.71473	25465.32143
568.7464	25574.46429
572.7752	25806.17857
576.80114	25933.75
580.82422	26110.03571
584.84444	26457.75
588.86181	26916.75
592.87633	27587.60714
596.888	27965.60714
600.89682	27892.75
604.9028	28385.46429
608.90594	30620.75
612.90624	33629.17857
616.90371	32670.17857
620.89834	27933.75
624.89015	25550.32143
628.87913	25189.60714
632.86528	25299.46429
636.84862	25589.32143
640.82913	25452.75
644.80683	25013.60714
648.78172	24661.60714
652.75379	24636.60714
656.72306	24944.75
660.68952	25311.17857
664.65319	25192.03571
668.61405	24782.75
672.57211	24662.17857
676.52738	24840.17857
680.47986	24968.75
684.42955	24783.17857
688.37646	24693.89286
692.32058	24671.60714
696.26192	24793.75
700.20048	24935.32143
704.13626	25115.17857
708.06928	25103.17857
711.99952	24967.17857
715.927	24875.46429
719.85171	24924.03571
723.77365	24961.60714
727.69284	24844.17857
731.60928	24730.03571
735.52295	24709.32143
739.43388	24702.60714
743.34206	24698.46429
747.24749	24792.17857
751.15017	24872.75
755.05012	25061.32143
758.94733	25518.89286
762.8418	26556.60714
766.73354	28350.32143
770.62254	30180.89286
774.50882	30907.46429
778.39237	30006.03571
782.27321	28234.89286
786.15132	26522.32143
790.02671	25442.03571
793.89938	24850.60714
797.76935	24590.03571
801.6366	24482.60714
805.50115	24393.89286
809.36299	24269.32143
813.22213	24201.17857
817.07857	24183.46429
820.93231	24149.17857
824.78336	24094.32143
828.63172	24109.46429
832.47738	24105.89286
836.32036	24062.46429
840.16066	23984.60714
843.99827	24003.32143
847.8332	24077.89286
851.66546	24115.03571
855.49504	24117.32143
859.32195	24156.32143
863.1462	24160.89286
866.96777	24126.46429
870.78668	24160.46429
874.60293	24218.17857
878.41652	24204.75
882.22745	24324.46429
886.03573	24322.17857
889.84136	24375.46429
893.64433	24312.60714
897.44466	24224.32143
901.24235	24222.46429
905.0374	24099.32143
908.8298	24041.89286
912.61957	23971.75
916.40671	24038.75
920.19121	24119.17857
923.97308	24232.75
927.75233	24340.60714
931.52895	24292.03571
935.30295	24088.60714
939.07433	23862.60714
942.84309	23609.46429
946.60924	23463.32143
950.37278	23379.32143
954.13371	23365.03571
957.89203	23353.17857
961.64774	23307.03571
965.40086	23279.89286
969.15137	23260.75
972.89929	23199.32143
976.64461	23193.03571
980.38733	23212.60714
984.12747	23248.32143
987.86502	23314.60714
991.59999	23371.60714
995.33237	23493.60714
999.06217	23705.46429
1002.78939	23948.46429
1006.51404	24221.75
1010.23611	24527.03571
1013.95561	24736.32143
1017.67255	24811.60714
1021.38692	24726.46429
1025.09872	24550.32143
1028.80796	24283.03571
1032.51465	24114.17857
1036.21877	24142.03571
1039.92035	24186.46429
1043.61937	24252.75
1047.31584	24312.60714
1051.00976	24340.03571
1054.70114	24398.17857
1058.38998	24404.03571
1062.07627	24522.60714
1065.76003	24604.75
1069.44126	24769.32143
1073.11995	25021.46429
1076.79611	25277.17857
1080.46974	25416.75
1084.14085	25640.60714
1087.80943	25791.75
1091.47549	25933.17857
1095.13903	25813.89286
1098.80005	25570.17857
1102.45857	25292.75
1106.11456	25075.60714
1109.76805	25003.32143
1113.41903	25122.60714
1117.06751	25299.75
1120.71348	25654.17857
1124.35696	26004.89286
1127.99793	26331.17857
1131.63641	26453.17857
1135.2724	26232.75
1138.90589	25886.89286
1142.5369	25660.60714
1146.16542	25523.60714
1149.79145	25491.03571
1153.415	25435.89286
1157.03607	25503.46429
1160.65467	25791.32143
1164.27079	26270.60714
1167.88443	27132.46429
1171.49561	28170.60714
1175.10432	29643.32143
1178.71056	31645.32143
1182.31434	33411.89286
1185.91565	34323.32143
1189.51451	34345.32143
1193.11091	33754.17857
1196.70485	32790.60714
1200.29634	31750.17857
1203.88538	30686.75
1207.47197	29731.32143
1211.05612	28790.17857
1214.63782	28144.32143
1218.21708	27769.03571
1221.79391	27543.46429
1225.36829	27543.75
1228.94024	27522.46429
1232.50976	27409.17857
1236.07685	27297.60714
1239.6415	27175.75
1243.20374	27092.03571
1246.76355	27121.03571
1250.32093	27265.75
1253.8759	27509.46429
1257.42845	27924.60714
1260.97859	28414.17857
1264.52631	28934.03571
1268.07163	29478.46429
1271.61453	29971.03571
1275.15503	30307.17857
1278.69312	30611.46429
1282.22882	30939.17857
1285.76211	31378.03571
1289.29301	31998.60714
1292.82151	32826.60714
1296.34761	33725.03571
1299.87133	34892.89286
1303.39266	36418.46429
1306.9116	38236.32143
1310.42815	40080.32143
1313.94233	41148.75
1317.45412	40689.03571
1320.96354	39423.60714
1324.47058	38072.03571
1327.97525	36731.89286
1331.47754	35863.32143
1334.97747	35430.89286
1338.47502	35478.46429
1341.97022	35945.60714
1345.46305	36755.32143
1348.95352	37882.60714
1352.44163	39229.89286
1355.92738	40769.89286
1359.41078	42813.46429
1362.89183	44766.60714
1366.37053	44167.32143
1369.84688	40437.03571
1373.32088	35998.32143
1376.79254	33049.89286
1380.26186	31637.32143
1383.72883	30977.32143
1387.19347	30472.89286
1390.65578	29941.75
1394.11575	29491.03571
1397.57339	29204.32143
1401.0287	29069.60714
1404.48168	29070.75
1407.93234	29016.32143
1411.38068	28887.32143
1414.82669	28732.75
1418.27039	28461.60714
1421.71177	28099.46429
1425.15083	27750.17857
1428.58758	27506.75
1432.02203	27527.46429
1435.45416	27721.89286
1438.88399	27974.32143
1442.31151	28116.75
1445.73673	28206.89286
1449.15965	28236.46429
1452.58027	28305.03571
1455.9986	28252.46429
1459.41463	28329.75
1462.82837	28596.75
1466.23982	29005.17857
1469.64898	29456.46429
1473.05586	29881.60714
1476.46045	30081.32143
1479.86276	30263.03571
1483.26279	30408.89286
1486.66054	30651.60714
1490.05602	31110.46429
1493.44922	31851.17857
1496.84016	32957.46429
1500.22882	34499.32143
1503.61521	36573.17857
1506.99934	38693.03571
1510.38121	40140.17857
1513.76081	40059.60714
1517.13816	38335.03571
1520.51324	35855.32143
1523.88607	33777.75
1527.25665	32612.60714
1530.62498	31932.17857
1533.99105	31660.75
1537.35488	31399.60714
1540.71647	31044.75
1544.07581	30561.75
1547.4329	30157.32143
1550.78776	29741.46429
1554.14038	29465.32143
1557.49077	29354.89286
1560.83892	29403.46429
1564.18484	29629.89286
1567.52853	30025.46429
1570.86999	30429.03571
1574.20922	30692.46429
1577.54624	30805.03571
1580.88103	30243.60714
1584.2136	29466.03571
1587.54395	29094.32143
1590.87208	29319.60714
1594.19801	30234.89286
1597.52172	31493.60714
1600.84321	32103.60714
1604.16251	31694.60714
1607.47959	30704.46429
1610.79447	29437.03571
1614.10715	28104.60714
1617.41763	26886.75
1620.7259	25867.03571
1624.03199	25288.46429
1627.33587	25135.17857
1630.63757	25362.89286
1633.93707	26010.89286
1637.23439	27302.46429
1640.52951	29395.03571
1643.82246	32054.46429
1647.11321	34659.03571
1650.40179	35651.46429
1653.68819	34367.32143
1656.97241	31231.89286
1660.25446	28023.75
1663.53433	25682.03571
1666.81203	24230.75
1670.08756	23336.46429
1673.36092	22718.03571
1676.63211	22380.89286
1679.90115	22073.89286
1683.16801	21854.89286
1686.43272	21631.03571
1689.69527	21453.75
1692.95567	21360.46429
1696.2139	21266.75
1699.46999	21199.03571
1702.72392	21113.17857
1705.97571	21106.03571
1709.22535	21063.03571
1712.47284	21017.89286
1715.71819	21034.03571
1718.96139	20959.46429
1722.20246	20895.17857
1725.44139	20810.46429
1728.67818	20706.89286
1731.91284	20654.17857
1735.14537	20583.32143
1738.37576	20518.46429
1741.60403	20456.46429
1744.83017	20353.46429
1748.05418	20299.75
1751.27607	20300.60714
1754.49584	20272.32143
1757.71349	20241.75
1760.92903	20267.03571
1764.14244	20242.89286
1767.35375	20192.89286
1770.56294	20121.60714
1773.77002	20049.60714
1776.97499	20055.46429
1780.17785	19985.75
1783.37861	19977.89286
1786.57727	19903.17857
1789.77382	19880.89286
1792.96828	19813.60714
1796.16064	19767.46429
1799.3509	19718.60714
1802.53907	19667.60714
1805.72514	19591.89286
1808.90913	19588.32143
1812.09102	19558.03571
1815.27083	19510.03571
1818.44856	19463.46429
1821.6242	19480.89286
1824.79776	19467.17857
1827.96924	19431.32143
1831.13864	19399.32143
1834.30597	19376.60714
1837.47122	19357.32143
1840.6344	19345.46429
1843.7955	19306.46429
1846.95454	19287.75
1850.11151	19290.46429
1853.26642	19247.75
1856.41926	19191.89286
1859.57004	19200.89286
1862.71876	19187.75
1865.86542	19181.75
1869.01003	19129.75
1872.15258	19142.46429
1875.29308	19128.75
1878.43152	19068.60714
1881.56792	19057.46429
1884.70227	19048.60714
1887.83457	19033.89286
1890.96482	18986.32143
1894.09304	18956.60714
1897.21921	18925.60714
1900.34335	18925.75
1903.46544	18881.17857
1906.58551	18890.17857
1909.70353	18803.03571
1912.81953	18782.32143
1915.93349	18776.46429
1919.04543	18749.46429
1922.15534	18732.89286
1925.26322	18637.17857
1928.36908	18628.60714
1931.47292	18626.46429
1934.57473	18579.32143
1937.67453	18529.46429
1940.77232	18468.32143
1943.86808	18429.17857
1946.96184	18338.60714
1950.05358	18324.03571
1953.14331	18323.03571
1956.23103	18218.89286
1959.31675	18219.46429
1962.40046	18146.60714
1965.48217	18067.75
1968.56188	18038.17857
1971.63959	17944.32143
1974.7153	17940.89286
1977.78901	17855.75
1980.86073	17835.89286
1983.93046	17739.03571
1986.99819	17671.75
1990.06394	17662.89286
1993.1277	17634.89286
1996.18947	17544.32143
1999.24925	17474.89286
2002.30706	17416.60714
2005.36288	17350.60714
2008.41672	17307.75
2011.46859	17208.03571
2014.51848	17175.60714
2017.56639	17133.03571
2020.61233	17083.89286
2023.6563	17034.60714
2026.6983	16939.75
2029.73833	16948.03571
2032.7764	16922.03571
2035.8125	16847.32143
2038.84664	16855.46429
2041.87881	16795.89286
2044.90903	16775.17857
2047.93729	16717.46429
2050.96359	16737.03571
2053.98794	16697.17857
2057.01034	16731.17857
2060.03078	16690.03571
2063.04927	16670.46429
2066.06582	16663.03571
2069.08042	16626.60714
2072.09307	16643.32143
2075.10378	16596.17857
2078.11255	16560.46429
2081.11938	16618.46429
2084.12426	16607.46429
2087.12722	16582.60714
2090.12824	16580.32143
2093.12732	16579.32143
2096.12447	16604.46429
2099.11969	16560.75
2102.11299	16537.32143
2105.10435	16529.03571
2108.09379	16559.89286
2111.08131	16575.17857
2114.0669	16567.46429
2117.05057	16605.32143
2120.03233	16632.17857
2123.01216	16606.60714
2125.99008	16659.32143
2128.96609	16697.17857
2131.94018	16694.46429
2134.91236	16674.03571
2137.88263	16666.32143
2140.851	16680.03571
2143.81746	16709.89286
2146.78201	16648.75
2149.74466	16670.75
2152.7054	16711.60714
2155.66425	16687.89286
2158.6212	16672.03571
2161.57625	16643.75
2164.52941	16659.60714
2167.48067	16609.17857
2170.43004	16593.03571
2173.37752	16634.89286
2176.32311	16650.60714
2179.26681	16597.60714
2182.20863	16630.03571
2185.14856	16630.75
2188.08661	16581.60714
2191.02278	16592.75
2193.95707	16571.89286
2196.88948	16517.32143
2199.82001	16544.03571
2202.74867	16521.75
2205.67545	16504.46429
2208.60037	16490.46429
2211.52341	16437.89286
2214.44458	16429.46429
2217.36388	16412.60714
2220.28132	16354.60714
2223.1969	16320.17857
2226.11061	16318.89286
2229.02246	16265.75
2231.93245	16173.46429
2234.84058	16188.32143
2237.74686	16163.89286
2240.65128	16172.60714
2243.55385	16135.32143
2246.45456	16142.60714
2249.35343	16060.89286
2252.25044	16048.32143
2255.14561	16057.46429
2258.03893	16039.89286
2260.93041	15986.89286
2263.82004	15986.60714
2266.70783	15887.17857
2269.59378	15871.17857
2272.4779	15879.75
2275.36017	15804.75
2278.24061	15801.89286
2281.11922	15726.17857
2283.996	15742.32143
2286.87094	15716.75
2289.74405	15715.32143
2292.61534	15636.17857
2295.4848	15630.75
2298.35243	15626.32143
2301.21824	15586.17857
2304.08223	15634.46429
2306.94439	15560.46429
2309.80474	15553.75
2312.66327	15537.60714
2315.51999	15538.32143
2318.37489	15505.03571
2321.22797	15482.46429
2324.07925	15470.32143
2326.92871	15423.75
2329.77637	15383.75
2332.62222	15364.46429
2335.46626	15358.17857
2338.3085	15324.89286
2341.14893	15316.75
2343.98756	15328.60714
2346.8244	15318.46429
2349.65943	15291.17857
2352.49267	15256.89286
2355.32411	15277.60714
2358.15376	15248.60714
2360.98161	15279.17857
2363.80768	15267.60714
2366.63195	15246.60714
2369.45444	15216.03571
2372.27514	15193.89286
2375.09405	15171.46429
2377.91118	15129.60714
2380.72652	15114.32143
2383.54009	15069.46429
2386.35187	15011.89286
2389.16188	15001.89286
2391.97011	14957.89286
2394.77657	14930.75
2397.58125	14921.75
2400.38416	14912.60714
2403.18529	14897.89286
2405.98466	14852.89286
2408.78226	14786.32143
2411.57809	14770.17857
2414.37216	14767.17857
2417.16446	14754.75
2419.955	14759.89286
2422.74378	14715.32143
2425.5308	14707.03571
2428.31606	14708.46429
2431.09956	14722.75
2433.88131	14693.32143
2436.6613	14696.17857
2439.43954	14674.89286
2442.21603	14639.32143
2444.99077	14618.75
2447.76377	14614.32143
2450.53501	14634.17857
2453.30451	14594.32143
2456.07226	14586.46429
2458.83827	14565.75
2461.60254	14541.60714
2464.36507	14541.03571
2467.12586	14553.03571
2469.88492	14514.89286
2472.64224	14486.17857
2475.39782	14470.46429
2478.15167	14477.60714
2480.90379	14480.03571
2483.65417	14479.75
2486.40283	14456.32143
2489.14976	14512.17857
2491.89497	14462.89286
2494.63845	14450.17857
2497.3802	14466.03571
2500.12024	14445.32143
2502.85855	14407.89286
2505.59514	14397.32143
2508.33002	14360.60714
2511.06318	14323.32143
2513.79462	14305.03571
2516.52435	14295.17857
2519.25237	14258.75
2521.97867	14208.75
2524.70327	14222.32143
2527.42616	14179.17857
2530.14734	14208.03571
2532.86681	14159.75
2535.58458	14142.46429
2538.30065	14126.46429
2541.01501	14122.75
2543.72768	14113.03571
2546.43864	14058.03571
2549.14791	14090.46429
2551.85548	14087.75
2554.56136	14024.75
2557.26554	14003.03571
2559.96803	13968.17857
2562.66883	13941.75
2565.36794	13899.03571
2568.06536	13880.32143
2570.7611	13882.89286
2573.45514	13835.89286
2576.14751	13781.32143
2578.83819	13765.17857
2581.52719	13759.32143
2584.21451	13760.60714
2586.90015	13723.32143
2589.58411	13728.89286
2592.2664	13706.60714
2594.94701	13641.46429
2597.62594	13649.03571
2600.30321	13605.17857
2602.9788	13569.60714
2605.65273	13532.89286
2608.32498	13537.17857
2610.99557	13520.46429
2613.66449	13545.75
2616.33175	13539.03571
2618.99734	13511.60714
2621.66128	13476.32143
2624.32355	13443.75
2626.98416	13419.17857
2629.64311	13431.75
2632.30041	13420.32143
2634.95605	13388.32143
2637.61004	13337.89286
2640.26238	13297.60714
2642.91306	13354.03571
2645.56209	13304.46429
2648.20948	13305.17857
2650.85521	13290.17857
2653.4993	13299.32143
2656.14175	13321.60714
2658.78255	13303.89286
2661.42171	13309.60714
2664.05923	13326.75
2666.6951	13308.75
2669.32934	13315.60714
2671.96194	13291.75
2674.59291	13320.46429
2677.22224	13271.46429
2679.84993	13277.75
2682.476	13282.17857
2685.10043	13274.60714
2687.72324	13259.32143
2690.34441	13272.46429
2692.96396	13266.32143
2695.58188	13272.60714
2698.19818	13235.75
2700.81285	13313.89286
2703.4259	13263.32143
2706.03733	13270.89286
2708.64714	13247.32143
2711.25533	13253.03571
2713.86191	13260.17857
2716.46687	13283.46429
2719.07021	13266.75
2721.67194	13269.75
2724.27206	13246.75
2726.87057	13235.03571
2729.46747	13229.17857
2732.06276	13210.32143
2734.65644	13235.46429
2737.24852	13199.60714
2739.83899	13190.32143
2742.42786	13210.03571
2745.01513	13147.75
2747.60079	13132.89286
2750.18486	13094.17857
2752.76733	13107.17857
2755.3482	13100.32143
2757.92747	13111.32143
2760.50515	13088.46429
2763.08123	13062.60714
2765.65573	13023.60714
2768.22863	13020.46429
2770.79994	12983.17857
2773.36967	13015.03571
2775.9378	13008.17857
2778.50435	12961.60714
2781.06932	12971.89286
2783.6327	12920.03571
2786.1945	12922.03571
2788.75471	12859.03571
2791.31335	12854.17857
2793.87041	12814.46429
2796.42589	12816.46429
2798.97979	12815.03571
2801.53212	12773.03571
2804.08288	12751.17857
2806.63206	12670.75
2809.17967	12688.32143
2811.72571	12635.89286
2814.27018	12630.60714
2816.81308	12570.46429
2819.35442	12585.46429
2821.89419	12553.32143
2824.43239	12541.03571
2826.96904	12542.46429
2829.50412	12554.75
2832.03763	12509.89286
2834.56959	12536.89286
2837.1	12504.46429
2839.62884	12513.89286
2842.15613	12463.32143
2844.68186	12499.75
2847.20604	12477.03571
2849.72867	12445.60714
2852.24974	12448.75
2854.76927	12445.60714
2857.28724	12412.89286
2859.80367	12407.60714
2862.31855	12353.46429
2864.83189	12345.60714
2867.34368	12310.89286
2869.85393	12369.32143
2872.36264	12330.89286
2874.8698	12287.32143
2877.37543	12309.75
2879.87952	12312.89286
2882.38207	12308.46429
2884.88308	12258.46429
2887.38256	12265.03571
2889.88051	12286.46429
2892.37692	12303.89286
2894.8718	12279.75
2897.36515	12298.46429
2899.85698	12301.75
2902.34727	12309.89286
2904.83604	12299.89286
2907.32328	12307.46429
2909.809	12323.89286
2912.29319	12356.75
2914.77587	12356.60714
2917.25702	12354.89286
2919.73665	12336.32143
2922.21476	12354.75
2924.69136	12342.32143
2927.16644	12336.32143
2929.64	12323.75
2932.11205	12275.32143
2934.58258	12256.03571
2937.05161	12285.17857
2939.51912	12272.32143
2941.98513	12269.46429
2944.44962	12249.89286
2946.91261	12215.89286
2949.37409	12198.03571
2951.83407	12200.03571
2954.29254	12212.17857
2956.74951	12159.60714
2959.20498	12158.46429
2961.65895	12111.17857
2964.11142	12111.60714
2966.56239	12123.17857
2969.01186	12072.46429
