Data from AgNPs_FTO_APTES_UA_20uM_CRN_2uM_R6G_10uM_NaF_0.1M_Addition_RamanShift__38__13-24-52-119.txt Node

Date: Thu Feb 17 13:24:52 GMT 2022
User: TCL
Spectrometer: QEP01345
Trigger mode: 4
Integration Time (sec): 7.000000E0
Scans to average: 10
Electric dark correction enabled: true
Nonlinearity correction enabled: false
Boxcar width: 0
XAxis mode: Raman Shifts
Number of Pixels in Spectrum: 1044
>>>>>Begin Spectral Data<<<<<
46.04893	0.275
50.45542	-1.225
54.85868	-3.725
59.25871	-2.725
63.6555	144.775
68.04907	146.875
72.43941	151.275
76.82654	153.475
81.21044	162.475
85.59113	163.575
89.96862	170.275
94.34289	176.875
98.71396	176.375
103.08183	181.775
107.4465	192.875
111.80798	194.175
116.16626	200.275
120.52136	211.475
124.87327	222.675
129.222	236.375
133.56755	254.375
137.90993	270.075
142.24913	302.975
146.58517	343.475
150.91804	407.975
155.24774	490.175
159.57429	617.375
163.89768	801.375
168.21792	1075.575
172.53501	1482.675
176.84895	2080.675
181.15975	2942.275
185.46741	4153.075
189.77193	5737.075
194.07331	7700.475
198.37157	9942.275
202.6667	12337.775
206.9587	14696.375
211.24758	16966.475
215.53334	19256.275
219.81599	21667.775
224.09553	24299.475
228.37195	27206.275
232.64527	30468.875
236.91549	33878.675
241.18261	37403.075
245.44663	40729.475
249.70755	43708.875
253.96539	46411.375
258.22014	48612.775
262.4718	50411.075
266.72039	51749.875
270.96589	52459.875
275.20832	52578.375
279.44768	52277.175
283.68397	51766.075
287.91719	51255.575
292.14735	50881.775
296.37445	50708.975
300.59849	50738.875
304.81948	50921.975
309.03742	50965.175
313.25231	50912.775
317.46415	50525.075
321.67296	50055.275
325.87872	49642.075
330.08145	49515.875
334.28114	49661.575
338.47781	49965.675
342.67145	50553.775
346.86207	51336.075
351.04966	52217.775
355.23424	52918.775
359.4158	53522.575
363.59435	54073.375
367.76989	54426.375
371.94243	54764.675
376.11196	55139.175
380.27849	55512.375
384.44203	55860.075
388.60257	56327.375
392.76012	56888.575
396.91468	57426.575
401.06626	58134.775
405.21485	58564.375
409.36047	58563.675
413.50311	58237.475
417.64277	58122.875
421.77947	58256.575
425.9132	58592.175
430.04396	58991.775
434.17176	59425.675
438.2966	60061.275
442.41849	61190.975
446.53742	62733.475
450.6534	64517.075
454.76644	65687.275
458.87653	66041.375
462.98368	65657.175
467.08789	64824.375
471.18916	63936.275
475.2875	63056.575
479.38291	62486.375
483.4754	62058.375
487.56496	61680.075
491.6516	61077.275
495.73531	60510.075
499.81612	59984.775
503.89401	60232.375
507.96899	60521.675
512.04106	60500.275
516.11023	60236.275
520.1765	59981.175
524.23987	59838.375
528.30034	59772.275
532.35792	59565.975
536.41261	59142.775
540.46441	58786.975
544.51333	58619.075
548.55936	59051.175
552.60252	60001.975
556.64279	61296.075
560.6802	62329.075
564.71473	62947.775
568.7464	63635.775
572.7752	65090.575
576.80114	66769.775
580.82422	68420.275
584.84444	70482.175
588.86181	73558.675
592.87633	76777.475
596.888	77056.175
600.89682	73967.775
604.9028	71901.075
608.90594	73508.975
612.90624	75537.975
616.90371	71943.475
620.89834	64863.475
624.89015	61954.375
628.87913	61633.075
632.86528	61852.075
636.84862	61696.975
640.82913	60964.775
644.80683	59993.175
648.78172	59422.875
652.75379	59470.275
656.72306	60047.675
660.68952	60791.475
664.65319	60582.475
668.61405	59928.575
672.57211	59926.475
676.52738	60203.575
680.47986	60296.475
684.42955	60031.175
688.37646	59877.575
692.32058	60207.975
696.26192	60942.375
700.20048	61639.075
704.13626	62129.475
708.06928	62224.375
711.99952	62130.975
715.927	62080.075
719.85171	62274.575
723.77365	62117.575
727.69284	61610.275
731.60928	61016.275
735.52295	60759.175
739.43388	60942.175
743.34206	61194.675
747.24749	61476.375
751.15017	61905.975
755.05012	62680.675
758.94733	63827.775
762.8418	65768.475
766.73354	68775.575
770.62254	71341.675
774.50882	71515.175
778.39237	69217.675
782.27321	66213.675
786.15132	63783.975
790.02671	62295.875
793.89938	61484.775
797.76935	61123.975
801.6366	61008.875
805.50115	60810.775
809.36299	60700.275
813.22213	60499.875
817.07857	60457.275
820.93231	60366.175
824.78336	60193.675
828.63172	60058.875
832.47738	60095.175
836.32036	60137.275
840.16066	60245.275
843.99827	60401.775
847.8332	60498.275
851.66546	60571.675
855.49504	60646.675
859.32195	60731.975
863.1462	60606.675
866.96777	60640.575
870.78668	60533.575
874.60293	60553.675
878.41652	60678.775
882.22745	60840.175
886.03573	60869.875
889.84136	60840.675
893.64433	60658.075
897.44466	60480.375
901.24235	60331.575
905.0374	60196.475
908.8298	60188.775
912.61957	60281.975
916.40671	60754.175
920.19121	61418.375
923.97308	62040.775
927.75233	61897.275
931.52895	61417.075
935.30295	60766.775
939.07433	60078.775
942.84309	59665.375
946.60924	59529.575
950.37278	59571.875
954.13371	59576.575
957.89203	59616.975
961.64774	59491.375
965.40086	59452.975
969.15137	59394.775
972.89929	59293.475
976.64461	59243.575
980.38733	59214.675
984.12747	59364.775
987.86502	59703.375
991.59999	60074.575
995.33237	60637.275
999.06217	61471.775
1002.78939	62596.275
1006.51404	63691.175
1010.23611	64631.475
1013.95561	65291.575
1017.67255	65413.775
1021.38692	64931.775
1025.09872	63925.275
1028.80796	63366.775
1032.51465	63400.075
1036.21877	63787.075
1039.92035	63917.175
1043.61937	63822.575
1047.31584	63526.175
1051.00976	63198.475
1054.70114	63135.275
1058.38998	63380.475
1062.07627	63691.875
1065.76003	64278.975
1069.44126	64958.675
1073.11995	65753.475
1076.79611	66377.575
1080.46974	66812.575
1084.14085	67307.875
1087.80943	67759.675
1091.47549	68182.675
1095.13903	68178.875
1098.80005	67492.075
1102.45857	66605.775
1106.11456	65894.475
1109.76805	65607.475
1113.41903	65702.075
1117.06751	65977.675
1120.71348	66348.875
1124.35696	66734.875
1127.99793	67058.375
1131.63641	67255.075
1135.2724	67173.475
1138.90589	67079.075
1142.5369	67314.875
1146.16542	67751.875
1149.79145	68298.175
1153.415	68863.075
1157.03607	69578.075
1160.65467	70929.775
1164.27079	73139.675
1167.88443	75855.875
1171.49561	79045.675
1175.10432	82723.575
1178.71056	87402.475
1182.31434	91650.575
1185.91565	93304.375
1189.51451	92193.475
1193.11091	90092.075
1196.70485	87896.175
1200.29634	85827.875
1203.88538	84553.675
1207.47197	84053.575
1211.05612	83629.275
1214.63782	82573.575
1218.21708	81162.575
1221.79391	79786.875
1225.36829	79053.375
1228.94024	78396.975
1232.50976	77403.175
1236.07685	76118.075
1239.6415	75264.375
1243.20374	75199.675
1246.76355	75706.875
1250.32093	76640.375
1253.8759	77757.775
1257.42845	79193.875
1260.97859	80836.975
1264.52631	82569.575
1268.07163	84450.875
1271.61453	86273.275
1275.15503	88066.475
1278.69312	90079.075
1282.22882	92104.775
1285.76211	94902.075
1289.29301	98155.775
1292.82151	102121.575
1296.34761	106756.275
1299.87133	112122.275
1303.39266	117650.975
1306.9116	122613.975
1310.42815	126453.875
1313.94233	128466.175
1317.45412	127668.975
1320.96354	125368.775
1324.47058	123016.975
1327.97525	121082.175
1331.47754	119453.575
1334.97747	118113.175
1338.47502	117071.275
1341.97022	115875.575
1345.46305	114339.975
1348.95352	113196.875
1352.44163	112962.475
1355.92738	115017.075
1359.41078	118907.875
1362.89183	121909.875
1366.37053	120452.875
1369.84688	113189.375
1373.32088	103423.775
1376.79254	96726.275
1380.26186	94547.275
1383.72883	95021.175
1387.19347	95595.775
1390.65578	95096.575
1394.11575	94980.175
1397.57339	95679.675
1401.0287	96805.375
1404.48168	97698.975
1407.93234	97494.675
1411.38068	96058.375
1414.82669	93735.575
1418.27039	90911.275
1421.71177	88069.275
1425.15083	85610.375
1428.58758	84479.575
1432.02203	85159.975
1435.45416	87101.875
1438.88399	89392.275
1442.31151	91147.375
1445.73673	91995.575
1449.15965	92242.475
1452.58027	92179.575
1455.9986	91701.475
1459.41463	91867.075
1462.82837	92798.475
1466.23982	94151.975
1469.64898	95629.575
1473.05586	96792.675
1476.46045	97365.675
1479.86276	97105.075
1483.26279	96281.075
1486.66054	95687.275
1490.05602	95899.175
1493.44922	96403.675
1496.84016	96877.375
1500.22882	97514.075
1503.61521	98669.575
1506.99934	100023.575
1510.38121	101062.075
1513.76081	100898.975
1517.13816	99450.375
1520.51324	97695.475
1523.88607	97019.575
1527.25665	97444.875
1530.62498	98466.975
1533.99105	98854.975
1537.35488	98014.775
1540.71647	96259.575
1544.07581	93991.475
1547.4329	91763.375
1550.78776	89736.575
1554.14038	88319.675
1557.49077	87503.375
1560.83892	86943.275
1564.18484	86666.975
1567.52853	86829.775
1570.86999	87432.675
1574.20922	88755.775
1577.54624	89972.975
1580.88103	90480.675
1584.2136	91454.475
1587.54395	94185.275
1590.87208	98477.175
1594.19801	103914.775
1597.52172	108991.075
1600.84321	110548.075
1604.16251	106433.175
1607.47959	99175.375
1610.79447	91397.275
1614.10715	84687.475
1617.41763	79618.375
1620.7259	76442.975
1624.03199	74955.275
1627.33587	75156.175
1630.63757	76871.375
1633.93707	80843.275
1637.23439	87534.675
1640.52951	97577.675
1643.82246	109367.775
1647.11321	118255.475
1650.40179	118835.175
1653.68819	110236.875
1656.97241	97101.875
1660.25446	85098.875
1663.53433	76503.875
1666.81203	71073.775
1670.08756	67759.975
1673.36092	65667.775
1676.63211	64296.775
1679.90115	63239.575
1683.16801	62523.275
1686.43272	61969.075
1689.69527	61555.075
1692.95567	61235.275
1696.2139	61063.175
1699.46999	61028.575
1702.72392	60818.175
1705.97571	60751.575
1709.22535	60659.575
1712.47284	60646.675
1715.71819	60606.975
1718.96139	60464.875
1722.20246	60289.475
1725.44139	60115.875
1728.67818	59874.575
1731.91284	59690.975
1735.14537	59422.475
1738.37576	59199.175
1741.60403	59081.975
1744.83017	58845.475
1748.05418	58732.175
1751.27607	58631.875
1754.49584	58538.275
1757.71349	58607.975
1760.92903	58548.275
1764.14244	58506.575
1767.35375	58416.075
1770.56294	58406.675
1773.77002	58425.375
1776.97499	58420.575
1780.17785	58289.575
1783.37861	58244.875
1786.57727	58068.875
1789.77382	57957.175
1792.96828	57966.175
1796.16064	57892.475
1799.3509	57825.475
1802.53907	57757.375
1805.72514	57657.275
1808.90913	57531.875
1812.09102	57454.975
1815.27083	57298.975
1818.44856	57247.475
1821.6242	57194.675
1824.79776	57158.575
1827.96924	57112.175
1831.13864	57097.375
1834.30597	57078.275
1837.47122	57021.775
1840.6344	56956.175
1843.7955	57004.775
1846.95454	56916.375
1850.11151	56915.375
1853.26642	56858.575
1856.41926	56898.775
1859.57004	56808.075
1862.71876	56716.275
1865.86542	56675.975
1869.01003	56659.775
1872.15258	56582.075
1875.29308	56563.075
1878.43152	56445.175
1881.56792	56516.075
1884.70227	56567.675
1887.83457	56538.175
1890.96482	56540.075
1894.09304	56437.975
1897.21921	56356.975
1900.34335	56277.675
1903.46544	56194.975
1906.58551	56249.675
1909.70353	56226.675
1912.81953	56090.275
1915.93349	56082.275
1919.04543	55942.075
1922.15534	55885.975
1925.26322	55805.675
1928.36908	55719.075
1931.47292	55652.675
1934.57473	55527.375
1937.67453	55494.375
1940.77232	55388.475
1943.86808	55202.275
1946.96184	55040.775
1950.05358	54878.975
1953.14331	54789.475
1956.23103	54697.675
1959.31675	54508.375
1962.40046	54336.275
1965.48217	54176.675
1968.56188	53988.775
1971.63959	53919.475
1974.7153	53789.975
1977.78901	53628.475
1980.86073	53502.375
1983.93046	53370.975
1986.99819	53223.975
1990.06394	53110.475
1993.1277	53056.875
1996.18947	52885.075
1999.24925	52800.375
2002.30706	52607.975
2005.36288	52457.575
2008.41672	52238.275
2011.46859	52132.075
2014.51848	52034.975
2017.56639	51889.475
2020.61233	51733.975
2023.6563	51664.075
2026.6983	51555.775
2029.73833	51466.375
2032.7764	51323.675
2035.8125	51252.075
2038.84664	51233.275
2041.87881	51145.975
2044.90903	51080.575
2047.93729	50944.875
2050.96359	50951.475
2053.98794	50854.575
2057.01034	50880.375
2060.03078	50933.075
2063.04927	50861.575
2066.06582	50852.775
2069.08042	50778.475
2072.09307	50731.675
2075.10378	50724.775
2078.11255	50687.175
2081.11938	50730.375
2084.12426	50667.375
2087.12722	50703.775
2090.12824	50641.575
2093.12732	50669.375
2096.12447	50671.875
2099.11969	50608.775
2102.11299	50638.575
2105.10435	50699.675
2108.09379	50662.375
2111.08131	50722.975
2114.0669	50732.475
2117.05057	50772.375
2120.03233	50795.975
2123.01216	50904.275
2125.99008	50909.875
2128.96609	50988.775
2131.94018	51115.375
2134.91236	51137.075
2137.88263	51193.375
2140.851	51173.575
2143.81746	51211.375
2146.78201	51256.475
2149.74466	51316.775
2152.7054	51289.275
2155.66425	51331.375
2158.6212	51356.675
2161.57625	51242.275
2164.52941	51281.775
2167.48067	51204.175
2170.43004	51198.175
2173.37752	51239.875
2176.32311	51332.775
2179.26681	51329.275
2182.20863	51323.375
2185.14856	51363.675
2188.08661	51324.175
2191.02278	51315.975
2193.95707	51253.875
2196.88948	51218.675
2199.82001	51204.875
2202.74867	51180.275
2205.67545	51093.675
2208.60037	51013.775
2211.52341	50986.975
2214.44458	50928.275
2217.36388	50877.575
2220.28132	50823.375
2223.1969	50712.875
2226.11061	50590.875
2229.02246	50453.875
2231.93245	50432.175
2234.84058	50414.075
2237.74686	50409.775
2240.65128	50439.175
2243.55385	50273.475
2246.45456	50295.475
2249.35343	50173.075
2252.25044	50037.775
2255.14561	49999.575
2258.03893	49928.575
2260.93041	49928.475
2263.82004	49728.775
2266.70783	49579.775
2269.59378	49462.975
2272.4779	49405.175
2275.36017	49305.375
2278.24061	49328.875
2281.11922	49130.075
2283.996	49114.975
2286.87094	49048.675
2289.74405	49075.275
2292.61534	49048.975
2295.4848	48964.675
2298.35243	48966.175
2301.21824	48870.775
2304.08223	48904.275
2306.94439	48911.875
2309.80474	48910.775
2312.66327	48915.375
2315.51999	48826.875
2318.37489	48717.175
2321.22797	48659.175
2324.07925	48727.875
2326.92871	48555.175
2329.77637	48413.175
2332.62222	48395.475
2335.46626	48416.975
2338.3085	48398.975
2341.14893	48358.075
2343.98756	48313.975
2346.8244	48301.375
2349.65943	48337.275
2352.49267	48333.975
2355.32411	48284.675
2358.15376	48218.775
2360.98161	48247.075
2363.80768	48169.775
2366.63195	48175.675
2369.45444	48099.075
2372.27514	48061.075
2375.09405	48085.275
2377.91118	47953.375
2380.72652	47848.675
2383.54009	47734.275
2386.35187	47707.775
2389.16188	47535.275
2391.97011	47521.475
2394.77657	47427.575
2397.58125	47406.775
2400.38416	47327.375
2403.18529	47213.875
2405.98466	47231.775
2408.78226	47137.775
2411.57809	47104.575
2414.37216	47028.775
2417.16446	47039.275
2419.955	47025.675
2422.74378	46999.575
2425.5308	46981.675
2428.31606	46940.675
2431.09956	46931.175
2433.88131	46876.475
2436.6613	46925.975
2439.43954	46868.875
2442.21603	46820.175
2444.99077	46765.475
2447.76377	46766.275
2450.53501	46698.275
2453.30451	46788.675
2456.07226	46723.975
2458.83827	46640.075
2461.60254	46558.875
2464.36507	46538.675
2467.12586	46589.475
2469.88492	46565.475
2472.64224	46565.875
2475.39782	46541.475
2478.15167	46541.475
2480.90379	46555.875
2483.65417	46550.175
2486.40283	46536.175
2489.14976	46555.775
2491.89497	46499.175
2494.63845	46552.975
2497.3802	46521.475
2500.12024	46542.575
2502.85855	46495.475
2505.59514	46472.175
2508.33002	46370.575
2511.06318	46389.475
2513.79462	46359.775
2516.52435	46318.875
2519.25237	46250.175
2521.97867	46294.975
2524.70327	46232.175
2527.42616	46178.475
2530.14734	46191.575
2532.86681	46079.675
2535.58458	46081.375
2538.30065	46073.875
2541.01501	46061.575
2543.72768	46052.375
2546.43864	46012.675
2549.14791	45911.975
2551.85548	45849.175
2554.56136	45754.875
2557.26554	45701.975
2559.96803	45627.675
2562.66883	45558.075
2565.36794	45570.175
2568.06536	45525.075
2570.7611	45421.975
2573.45514	45395.175
2576.14751	45340.275
2578.83819	45307.775
2581.52719	45319.475
2584.21451	45228.775
2586.90015	45202.375
2589.58411	45168.375
2592.2664	45122.275
2594.94701	45055.775
2597.62594	45055.175
2600.30321	45046.275
2602.9788	44998.975
2605.65273	45003.875
2608.32498	44982.675
2610.99557	44975.075
2613.66449	44954.175
2616.33175	44847.975
2618.99734	44796.775
2621.66128	44685.675
2624.32355	44640.075
2626.98416	44622.875
2629.64311	44550.975
2632.30041	44585.175
2634.95605	44486.275
2637.61004	44462.875
2640.26238	44423.075
2642.91306	44407.275
2645.56209	44381.075
2648.20948	44386.175
2650.85521	44408.175
2653.4993	44443.675
2656.14175	44363.975
2658.78255	44502.475
2661.42171	44467.875
2664.05923	44531.975
2666.6951	44522.375
2669.32934	44477.975
2671.96194	44502.575
2674.59291	44573.575
2677.22224	44561.975
2679.84993	44593.075
2682.476	44502.675
2685.10043	44508.975
2687.72324	44409.675
2690.34441	44427.575
2692.96396	44470.375
2695.58188	44488.675
2698.19818	44426.575
2700.81285	44478.575
2703.4259	44432.975
2706.03733	44542.975
2708.64714	44476.175
2711.25533	44485.175
2713.86191	44549.275
2716.46687	44659.875
2719.07021	44595.475
2721.67194	44638.375
2724.27206	44586.475
2726.87057	44633.975
2729.46747	44694.475
2732.06276	44693.175
2734.65644	44698.575
2737.24852	44700.775
2739.83899	44662.275
2742.42786	44682.875
2745.01513	44580.475
2747.60079	44583.375
2750.18486	44518.775
2752.76733	44477.475
2755.3482	44465.375
2757.92747	44425.575
2760.50515	44391.875
2763.08123	44339.175
2765.65573	44350.475
2768.22863	44384.975
2770.79994	44289.475
2773.36967	44329.075
2775.9378	44372.775
2778.50435	44302.775
2781.06932	44262.275
2783.6327	44216.275
2786.1945	44205.275
2788.75471	44138.875
2791.31335	44059.475
2793.87041	44023.575
2796.42589	43820.375
2798.97979	43840.775
2801.53212	43700.975
2804.08288	43606.475
2806.63206	43534.075
2809.17967	43471.075
2811.72571	43374.375
2814.27018	43194.975
2816.81308	43097.975
2819.35442	42996.675
2821.89419	42964.775
2824.43239	42931.975
2826.96904	42932.175
2829.50412	42945.075
2832.03763	42797.475
2834.56959	42804.075
2837.1	42728.775
2839.62884	42731.975
2842.15613	42654.175
2844.68186	42657.775
2847.20604	42611.875
2849.72867	42537.975
2852.24974	42491.575
2854.76927	42389.975
2857.28724	42375.375
2859.80367	42387.375
2862.31855	42328.675
2864.83189	42243.275
2867.34368	42203.675
2869.85393	42156.675
2872.36264	42086.175
2874.8698	42050.075
2877.37543	42003.375
2879.87952	42006.775
2882.38207	42041.575
2884.88308	41966.575
2887.38256	42063.475
2889.88051	42026.975
2892.37692	42016.375
2894.8718	42017.875
2897.36515	42097.975
2899.85698	42070.875
2902.34727	42146.775
2904.83604	42127.475
2907.32328	42181.575
2909.809	42208.675
2912.29319	42227.275
2914.77587	42228.375
2917.25702	42250.575
2919.73665	42165.675
2922.21476	42179.675
2924.69136	42060.075
2927.16644	42137.575
2929.64	42090.075
2932.11205	42053.875
2934.58258	41975.075
2937.05161	42036.275
2939.51912	42035.875
2941.98513	41948.475
2944.44962	41899.475
2946.91261	41833.575
2949.37409	41910.975
2951.83407	41930.175
2954.29254	41854.475
2956.74951	41828.375
2959.20498	41865.575
2961.65895	41882.675
2964.11142	41893.975
2966.56239	41826.975
2969.01186	41781.575
2971.45984	41629.575
2973.90632	41589.475
2976.35131	41571.575
2978.7948	41474.175
2981.23681	41453.875
2983.67732	41396.175
2986.11635	41271.675
2988.55388	41209.575
2990.98993	41126.575
2993.4245	41088.375
2995.85758	40942.575
2998.28917	40819.075
3000.71928	40790.875
3003.14791	40683.375
3005.57506	40666.975
3008.00073	40527.875
3010.42493	40479.175
3012.84764	40393.075
3015.26888	40384.275
3017.68865	40304.775
3020.10694	40254.575
3022.52376	40159.775
3024.9391	40096.175
3027.35298	40082.175
3029.76539	40092.575
3032.17632	40016.175
3034.5858	40011.575
3036.9938	39956.575
3039.40034	39913.675
3041.80542	39896.375
3044.20903	39840.875
3046.61118	39837.075
3049.01187	39652.075
3051.4111	39583.975
3053.80888	39497.175
3056.20519	39483.075
3058.60005	39361.675
3060.99345	39302.075
3063.3854	39205.375
3065.7759	39085.675
3068.16494	38989.975
3070.55254	38850.375
3072.93868	38765.675
3075.32338	38666.575
3077.70662	38622.475
3080.08842	38456.075
3082.46878	38403.975
3084.84769	38319.975
3087.22515	38334.675
3089.60118	38300.875
3091.97576	38271.675
3094.3489	38273.575
3096.72061	38244.775
3099.09087	38212.975
3101.4597	38208.175
3103.82709	38233.175
3106.19305	38183.075
3108.55757	38197.275
3110.92066	38132.975
3113.28232	38043.375
3115.64255	37901.275
3118.00134	37831.875
3120.35871	37719.875
3122.71466	37619.575
