Data from AgNPs_FTO_APTES_UA_20uM_CRN_0uM_R6G_10uM_NaF_0.1M_Addition_RamanShift__58__11-57-22-006.txt Node

Date: Thu Feb 17 11:57:22 GMT 2022
User: TCL
Spectrometer: QEP01345
Trigger mode: 4
Integration Time (sec): 7.000000E0
Scans to average: 10
Electric dark correction enabled: true
Nonlinearity correction enabled: false
Boxcar width: 0
XAxis mode: Raman Shifts
Number of Pixels in Spectrum: 1044
>>>>>Begin Spectral Data<<<<<
46.04893	0.4875
50.45542	-0.6125
54.85868	-2.0125
59.25871	-1.1125
63.6555	69.5875
68.04907	68.3875
72.43941	73.4875
76.82654	73.8875
81.21044	79.3875
85.59113	85.8875
89.96862	81.7875
94.34289	85.4875
98.71396	89.0875
103.08183	91.4875
107.4465	92.0875
111.80798	96.0875
116.16626	97.0875
120.52136	103.4875
124.87327	103.9875
129.222	112.7875
133.56755	119.5875
137.90993	122.9875
142.24913	134.1875
146.58517	151.3875
150.91804	178.7875
155.24774	206.4875
159.57429	257.5875
163.89768	335.2875
168.21792	444.6875
172.53501	597.1875
176.84895	834.6875
181.15975	1172.1875
185.46741	1651.4875
189.77193	2261.6875
194.07331	3049.8875
198.37157	3940.9875
202.6667	4875.9875
206.9587	5813.4875
211.24758	6750.7875
215.53334	7725.3875
219.81599	8798.5875
224.09553	10029.9875
228.37195	11399.6875
232.64527	12894.5875
236.91549	14410.1875
241.18261	15849.5875
245.44663	17067.1875
249.70755	18118.8875
253.96539	18967.5875
258.22014	19665.6875
262.4718	20238.7875
266.72039	20667.1875
270.96589	20869.7875
275.20832	20859.5875
279.44768	20653.0875
283.68397	20471.1875
287.91719	20289.4875
292.14735	20340.8875
296.37445	20657.7875
300.59849	21351.5875
304.81948	22182.4875
309.03742	22810.4875
313.25231	22841.5875
317.46415	21923.1875
321.67296	20469.0875
325.87872	19240.2875
330.08145	18626.7875
334.28114	18601.2875
338.47781	18922.4875
342.67145	19487.8875
346.86207	20257.9875
351.04966	21362.8875
355.23424	22661.6875
359.4158	23669.2875
363.59435	24186.3875
367.76989	24281.7875
371.94243	24241.9875
376.11196	24134.9875
380.27849	24053.4875
384.44203	23849.5875
388.60257	23600.1875
392.76012	23526.8875
396.91468	23808.6875
401.06626	24388.9875
405.21485	24939.3875
409.36047	24695.4875
413.50311	23716.5875
417.64277	22843.7875
421.77947	22389.8875
425.9132	22251.6875
430.04396	22300.3875
434.17176	22506.6875
438.2966	22887.7875
442.41849	23500.3875
446.53742	24302.7875
450.6534	25124.8875
454.76644	25723.4875
458.87653	25787.0875
462.98368	25486.8875
467.08789	24887.0875
471.18916	24181.8875
475.2875	23438.7875
479.38291	22923.3875
483.4754	22594.1875
487.56496	22286.3875
491.6516	22059.1875
495.73531	21939.5875
499.81612	21960.9875
503.89401	22196.3875
507.96899	22476.0875
512.04106	22709.6875
516.11023	22954.3875
520.1765	23151.3875
524.23987	23116.4875
528.30034	22812.9875
532.35792	22469.0875
536.41261	22044.0875
540.46441	21614.4875
544.51333	21396.8875
548.55936	21531.1875
552.60252	22027.5875
556.64279	22562.1875
560.6802	22837.7875
564.71473	23229.3875
568.7464	24188.5875
572.7752	24936.6875
576.80114	24555.8875
580.82422	24011.5875
584.84444	23885.7875
588.86181	23965.6875
592.87633	24219.1875
596.888	24389.4875
600.89682	24918.9875
604.9028	27260.7875
608.90594	33763.9875
612.90624	42110.2875
616.90371	40431.9875
620.89834	29579.9875
624.89015	24452.1875
628.87913	23625.9875
632.86528	23584.1875
636.84862	23626.2875
640.82913	23151.4875
644.80683	22190.3875
648.78172	21567.2875
652.75379	21682.7875
656.72306	22572.9875
660.68952	23610.6875
664.65319	23504.7875
668.61405	22533.8875
672.57211	22044.1875
676.52738	21957.8875
680.47986	21972.9875
684.42955	21875.4875
688.37646	21820.4875
692.32058	21985.3875
696.26192	22163.2875
700.20048	22486.3875
704.13626	22738.4875
708.06928	22730.1875
711.99952	22546.5875
715.927	22458.9875
719.85171	22500.1875
723.77365	22465.9875
727.69284	22259.5875
731.60928	22104.6875
735.52295	22140.8875
739.43388	22287.0875
743.34206	22499.6875
747.24749	22756.9875
751.15017	23030.0875
755.05012	23569.0875
758.94733	24631.0875
762.8418	26877.5875
766.73354	30536.5875
770.62254	34251.6875
774.50882	35926.9875
778.39237	34501.8875
782.27321	30507.2875
786.15132	26563.3875
790.02671	24340.2875
793.89938	23368.2875
797.76935	22975.5875
801.6366	22821.1875
805.50115	22681.3875
809.36299	22584.3875
813.22213	22466.6875
817.07857	22451.2875
820.93231	22495.4875
824.78336	22537.1875
828.63172	22742.7875
832.47738	22806.9875
836.32036	22855.0875
840.16066	22862.3875
843.99827	22860.8875
847.8332	22793.9875
851.66546	22667.5875
855.49504	22663.8875
859.32195	22612.5875
863.1462	22563.1875
866.96777	22480.4875
870.78668	22445.8875
874.60293	22504.6875
878.41652	22596.1875
882.22745	22762.7875
886.03573	22863.6875
889.84136	22816.6875
893.64433	22687.9875
897.44466	22666.6875
901.24235	22659.4875
905.0374	22609.1875
908.8298	22546.8875
912.61957	22544.1875
916.40671	22757.0875
920.19121	23056.8875
923.97308	23335.5875
927.75233	23656.0875
931.52895	23761.4875
935.30295	23438.4875
939.07433	22879.4875
942.84309	22433.1875
946.60924	22260.2875
950.37278	22076.9875
954.13371	21922.4875
957.89203	21788.9875
961.64774	21730.1875
965.40086	21672.0875
969.15137	21633.8875
972.89929	21569.7875
976.64461	21581.5875
980.38733	21616.5875
984.12747	21670.5875
987.86502	21838.0875
991.59999	22098.9875
995.33237	22565.4875
999.06217	23396.0875
1002.78939	24339.1875
1006.51404	24988.9875
1010.23611	25460.7875
1013.95561	25822.0875
1017.67255	25792.9875
1021.38692	25424.7875
1025.09872	25100.2875
1028.80796	25321.3875
1032.51465	26088.8875
1036.21877	26868.2875
1039.92035	26972.3875
1043.61937	26608.6875
1047.31584	25885.6875
1051.00976	25133.9875
1054.70114	24673.7875
1058.38998	24568.1875
1062.07627	24625.0875
1065.76003	24736.1875
1069.44126	24918.6875
1073.11995	25199.7875
1076.79611	25450.9875
1080.46974	25741.6875
1084.14085	26250.1875
1087.80943	26834.7875
1091.47549	26991.2875
1095.13903	26538.7875
1098.80005	25726.9875
1102.45857	25054.7875
1106.11456	24797.0875
1109.76805	24902.3875
1113.41903	25326.7875
1117.06751	26028.5875
1120.71348	26904.0875
1124.35696	27848.4875
1127.99793	28547.7875
1131.63641	28291.3875
1135.2724	27287.1875
1138.90589	26363.1875
1142.5369	25786.6875
1146.16542	25423.3875
1149.79145	25291.6875
1153.415	25322.3875
1157.03607	25602.1875
1160.65467	26035.1875
1164.27079	26809.0875
1167.88443	28048.7875
1171.49561	30153.8875
1175.10432	33477.1875
1178.71056	37726.3875
1182.31434	40974.5875
1185.91565	42036.4875
1189.51451	41305.2875
1193.11091	39109.5875
1196.70485	36364.5875
1200.29634	34258.2875
1203.88538	32675.4875
1207.47197	31053.0875
1211.05612	29760.5875
1214.63782	29131.0875
1218.21708	29185.7875
1221.79391	29400.5875
1225.36829	29495.4875
1228.94024	29346.6875
1232.50976	29044.9875
1236.07685	28963.5875
1239.6415	29048.3875
1243.20374	29235.6875
1246.76355	29502.7875
1250.32093	29931.2875
1253.8759	30737.6875
1257.42845	31806.7875
1260.97859	32736.8875
1264.52631	33480.9875
1268.07163	34240.4875
1271.61453	34944.7875
1275.15503	35805.6875
1278.69312	36524.4875
1282.22882	37173.0875
1285.76211	37980.0875
1289.29301	39024.1875
1292.82151	39980.3875
1296.34761	41249.2875
1299.87133	43135.3875
1303.39266	46244.3875
1306.9116	50805.8875
1310.42815	55786.0875
1313.94233	58517.0875
1317.45412	57314.0875
1320.96354	53862.2875
1324.47058	50190.6875
1327.97525	47250.1875
1331.47754	45716.4875
1334.97747	45563.7875
1338.47502	46430.5875
1341.97022	47923.5875
1345.46305	49149.4875
1348.95352	50387.8875
1352.44163	51996.5875
1355.92738	55218.5875
1359.41078	60991.9875
1362.89183	66318.2875
1366.37053	63971.3875
1369.84688	55523.5875
1373.32088	47207.7875
1376.79254	41856.3875
1380.26186	39004.6875
1383.72883	37568.5875
1387.19347	36596.6875
1390.65578	35751.7875
1394.11575	35231.3875
1397.57339	35276.3875
1401.0287	35747.5875
1404.48168	36529.8875
1407.93234	37577.5875
1411.38068	38572.0875
1414.82669	38850.5875
1418.27039	38099.2875
1421.71177	36836.9875
1425.15083	35720.6875
1428.58758	35309.4875
1432.02203	35477.8875
1435.45416	35779.1875
1438.88399	35903.2875
1442.31151	35922.4875
1445.73673	36034.7875
1449.15965	36294.1875
1452.58027	36227.0875
1455.9986	35767.1875
1459.41463	35623.1875
1462.82837	35906.5875
1466.23982	36573.4875
1469.64898	37315.7875
1473.05586	37921.1875
1476.46045	38382.7875
1479.86276	39104.6875
1483.26279	39992.7875
1486.66054	40989.8875
1490.05602	42374.3875
1493.44922	44033.7875
1496.84016	46122.5875
1500.22882	49094.2875
1503.61521	52939.0875
1506.99934	57310.2875
1510.38121	61185.6875
1513.76081	62431.0875
1517.13816	59446.6875
1520.51324	53549.7875
1523.88607	47983.0875
1527.25665	44208.2875
1530.62498	42141.2875
1533.99105	40840.4875
1537.35488	40076.2875
1540.71647	39754.6875
1544.07581	39543.1875
1547.4329	39301.6875
1550.78776	38909.4875
1554.14038	38525.3875
1557.49077	38471.6875
1560.83892	38714.4875
1564.18484	39264.6875
1567.52853	39807.5875
1570.86999	40109.5875
1574.20922	40264.0875
1577.54624	39996.5875
1580.88103	38601.8875
1584.2136	37028.3875
1587.54395	36778.6875
1590.87208	38260.6875
1594.19801	41333.6875
1597.52172	45018.8875
1600.84321	46938.6875
1604.16251	45708.2875
1607.47959	42251.1875
1610.79447	38348.2875
1614.10715	34906.6875
1617.41763	32399.7875
1620.7259	30925.5875
1624.03199	30283.3875
1627.33587	30412.0875
1630.63757	31276.3875
1633.93707	32899.7875
1637.23439	35200.5875
1640.52951	38203.2875
1643.82246	41822.1875
1647.11321	45611.8875
1650.40179	47599.1875
1653.68819	45716.6875
1656.97241	40284.8875
1660.25446	34519.4875
1663.53433	30401.7875
1666.81203	27974.0875
1670.08756	26551.6875
1673.36092	25664.5875
1676.63211	25123.1875
1679.90115	24724.1875
1683.16801	24407.3875
1686.43272	24247.6875
1689.69527	24086.2875
1692.95567	23997.4875
1696.2139	23944.8875
1699.46999	23923.3875
1702.72392	23912.5875
1705.97571	23843.6875
1709.22535	23828.5875
1712.47284	23864.5875
1715.71819	23888.8875
1718.96139	23906.2875
1722.20246	23885.5875
1725.44139	23771.9875
1728.67818	23630.3875
1731.91284	23515.6875
1735.14537	23407.8875
1738.37576	23264.8875
1741.60403	23229.0875
1744.83017	23143.3875
1748.05418	23111.4875
1751.27607	23083.9875
1754.49584	23062.0875
1757.71349	23080.1875
1760.92903	23041.1875
1764.14244	23051.0875
1767.35375	23041.3875
1770.56294	22987.7875
1773.77002	22981.3875
1776.97499	22977.7875
1780.17785	22937.2875
1783.37861	22924.1875
1786.57727	22878.9875
1789.77382	22873.6875
1792.96828	22907.7875
1796.16064	22865.1875
1799.3509	22840.6875
1802.53907	22848.4875
1805.72514	22801.6875
1808.90913	22735.5875
1812.09102	22716.8875
1815.27083	22671.6875
1818.44856	22608.9875
1821.6242	22608.9875
1824.79776	22582.8875
1827.96924	22558.5875
1831.13864	22547.4875
1834.30597	22529.4875
1837.47122	22491.5875
1840.6344	22504.4875
1843.7955	22489.2875
1846.95454	22477.6875
1850.11151	22515.3875
1853.26642	22513.6875
1856.41926	22545.4875
1859.57004	22560.4875
1862.71876	22558.9875
1865.86542	22562.6875
1869.01003	22547.7875
1872.15258	22528.2875
1875.29308	22563.4875
1878.43152	22573.0875
1881.56792	22529.1875
1884.70227	22592.3875
1887.83457	22587.5875
1890.96482	22591.9875
1894.09304	22585.8875
1897.21921	22579.0875
1900.34335	22528.3875
1903.46544	22534.0875
1906.58551	22598.0875
1909.70353	22606.3875
1912.81953	22620.3875
1915.93349	22580.2875
1919.04543	22547.2875
1922.15534	22517.2875
1925.26322	22520.7875
1928.36908	22507.7875
1931.47292	22425.6875
1934.57473	22398.4875
1937.67453	22337.1875
1940.77232	22287.8875
1943.86808	22165.1875
1946.96184	22121.6875
1950.05358	22090.3875
1953.14331	21991.0875
1956.23103	21910.5875
1959.31675	21851.4875
1962.40046	21777.3875
1965.48217	21742.9875
1968.56188	21708.0875
1971.63959	21630.4875
1974.7153	21596.3875
1977.78901	21510.4875
1980.86073	21460.3875
1983.93046	21401.2875
1986.99819	21324.1875
1990.06394	21281.9875
1993.1277	21256.8875
1996.18947	21157.4875
1999.24925	21126.8875
2002.30706	21059.8875
2005.36288	20987.2875
2008.41672	20905.4875
2011.46859	20875.7875
2014.51848	20859.0875
2017.56639	20777.3875
2020.61233	20709.8875
2023.6563	20669.6875
2026.6983	20649.7875
2029.73833	20592.9875
2032.7764	20547.5875
2035.8125	20540.7875
2038.84664	20497.8875
2041.87881	20503.2875
2044.90903	20456.2875
2047.93729	20413.6875
2050.96359	20405.8875
2053.98794	20372.2875
2057.01034	20351.8875
2060.03078	20341.7875
2063.04927	20347.8875
2066.06582	20342.6875
2069.08042	20272.4875
2072.09307	20299.5875
2075.10378	20232.6875
2078.11255	20231.2875
2081.11938	20235.1875
2084.12426	20177.4875
2087.12722	20140.8875
2090.12824	20164.9875
2093.12732	20179.0875
2096.12447	20162.7875
2099.11969	20107.2875
2102.11299	20174.0875
2105.10435	20143.3875
2108.09379	20180.8875
2111.08131	20217.7875
2114.0669	20164.1875
2117.05057	20197.3875
2120.03233	20201.4875
2123.01216	20247.0875
2125.99008	20254.0875
2128.96609	20319.3875
2131.94018	20275.5875
2134.91236	20335.0875
2137.88263	20368.2875
2140.851	20368.9875
2143.81746	20376.5875
2146.78201	20345.8875
2149.74466	20379.8875
2152.7054	20367.2875
2155.66425	20374.8875
2158.6212	20351.2875
2161.57625	20354.4875
2164.52941	20382.1875
2167.48067	20332.7875
2170.43004	20312.8875
2173.37752	20351.4875
2176.32311	20379.9875
2179.26681	20376.4875
2182.20863	20345.4875
2185.14856	20431.6875
2188.08661	20411.9875
2191.02278	20389.2875
2193.95707	20340.4875
2196.88948	20344.5875
2199.82001	20343.0875
2202.74867	20318.7875
2205.67545	20327.7875
2208.60037	20303.3875
2211.52341	20302.7875
2214.44458	20276.5875
2217.36388	20250.6875
2220.28132	20292.4875
2223.1969	20222.8875
2226.11061	20175.3875
2229.02246	20124.2875
2231.93245	20101.1875
2234.84058	20034.6875
2237.74686	20011.5875
2240.65128	20008.2875
2243.55385	19935.7875
2246.45456	19952.3875
2249.35343	19908.0875
2252.25044	19937.3875
2255.14561	19905.5875
2258.03893	19917.0875
2260.93041	19893.3875
2263.82004	19816.1875
2266.70783	19791.2875
2269.59378	19694.6875
2272.4779	19725.4875
2275.36017	19685.7875
2278.24061	19619.2875
2281.11922	19578.9875
2283.996	19542.1875
2286.87094	19542.1875
2289.74405	19503.4875
2292.61534	19480.4875
2295.4848	19450.2875
2298.35243	19477.4875
2301.21824	19443.0875
2304.08223	19462.9875
2306.94439	19484.9875
2309.80474	19509.9875
2312.66327	19486.8875
2315.51999	19491.6875
2318.37489	19466.4875
2321.22797	19455.5875
2324.07925	19446.1875
2326.92871	19415.7875
2329.77637	19407.7875
2332.62222	19383.0875
2335.46626	19391.9875
2338.3085	19391.8875
2341.14893	19435.9875
2343.98756	19410.9875
2346.8244	19435.0875
2349.65943	19465.1875
2352.49267	19497.4875
2355.32411	19479.3875
2358.15376	19487.3875
2360.98161	19499.4875
2363.80768	19467.3875
2366.63195	19422.8875
2369.45444	19435.4875
2372.27514	19382.2875
2375.09405	19344.2875
2377.91118	19266.1875
2380.72652	19198.2875
2383.54009	19133.5875
2386.35187	19080.7875
2389.16188	19030.7875
2391.97011	18988.6875
2394.77657	18965.8875
2397.58125	18942.3875
2400.38416	18903.3875
2403.18529	18856.9875
2405.98466	18820.0875
2408.78226	18774.8875
2411.57809	18752.9875
2414.37216	18688.0875
2417.16446	18666.7875
2419.955	18638.3875
2422.74378	18641.8875
2425.5308	18639.3875
2428.31606	18621.1875
2431.09956	18629.5875
2433.88131	18629.0875
2436.6613	18670.4875
2439.43954	18617.2875
2442.21603	18611.5875
2444.99077	18592.7875
2447.76377	18586.2875
2450.53501	18575.1875
2453.30451	18576.9875
2456.07226	18548.0875
2458.83827	18525.7875
2461.60254	18506.2875
2464.36507	18515.6875
2467.12586	18507.3875
2469.88492	18521.5875
2472.64224	18533.1875
2475.39782	18538.6875
2478.15167	18577.9875
2480.90379	18578.7875
2483.65417	18619.3875
2486.40283	18646.5875
2489.14976	18664.3875
2491.89497	18680.9875
2494.63845	18717.4875
2497.3802	18646.4875
2500.12024	18670.7875
2502.85855	18649.8875
2505.59514	18620.5875
2508.33002	18533.0875
2511.06318	18504.4875
2513.79462	18454.0875
2516.52435	18461.3875
2519.25237	18405.1875
2521.97867	18386.1875
2524.70327	18360.1875
2527.42616	18313.7875
2530.14734	18315.6875
2532.86681	18282.1875
2535.58458	18340.4875
2538.30065	18297.0875
2541.01501	18293.9875
2543.72768	18277.6875
2546.43864	18278.0875
2549.14791	18251.0875
2551.85548	18230.7875
2554.56136	18212.5875
2557.26554	18155.2875
2559.96803	18141.8875
2562.66883	18130.1875
2565.36794	18116.0875
2568.06536	18114.9875
2570.7611	18069.8875
2573.45514	18042.1875
2576.14751	18063.0875
2578.83819	18022.8875
2581.52719	18020.0875
2584.21451	17987.5875
2586.90015	17992.4875
2589.58411	17983.0875
2592.2664	17989.3875
2594.94701	17976.1875
2597.62594	17994.5875
2600.30321	17980.2875
2602.9788	17976.3875
2605.65273	17945.4875
2608.32498	17971.9875
2610.99557	17932.8875
2613.66449	17977.3875
2616.33175	17953.7875
2618.99734	17916.5875
2621.66128	17962.6875
2624.32355	17935.6875
2626.98416	17977.0875
2629.64311	17941.9875
2632.30041	17947.5875
2634.95605	17909.4875
2637.61004	17865.1875
2640.26238	17871.9875
2642.91306	17808.6875
2645.56209	17783.1875
2648.20948	17756.6875
2650.85521	17719.7875
2653.4993	17714.4875
2656.14175	17724.3875
2658.78255	17764.3875
2661.42171	17756.2875
2664.05923	17776.2875
2666.6951	17812.7875
2669.32934	17850.8875
2671.96194	17811.3875
2674.59291	17846.9875
2677.22224	17846.1875
2679.84993	17868.8875
2682.476	17848.6875
2685.10043	17844.7875
2687.72324	17844.5875
2690.34441	17838.1875
2692.96396	17823.6875
2695.58188	17836.8875
2698.19818	17803.0875
2700.81285	17827.4875
2703.4259	17764.6875
2706.03733	17814.5875
2708.64714	17785.2875
2711.25533	17791.8875
2713.86191	17795.7875
2716.46687	17807.8875
2719.07021	17834.3875
2721.67194	17844.3875
2724.27206	17815.2875
2726.87057	17838.7875
2729.46747	17852.1875
2732.06276	17826.2875
2734.65644	17833.9875
2737.24852	17826.1875
2739.83899	17781.0875
2742.42786	17817.8875
2745.01513	17777.7875
2747.60079	17798.0875
2750.18486	17741.7875
2752.76733	17771.9875
2755.3482	17740.9875
2757.92747	17764.1875
2760.50515	17703.0875
2763.08123	17677.7875
2765.65573	17679.1875
2768.22863	17668.0875
2770.79994	17628.1875
2773.36967	17636.3875
2775.9378	17646.8875
2778.50435	17653.5875
2781.06932	17619.4875
2783.6327	17652.6875
2786.1945	17630.7875
2788.75471	17624.6875
2791.31335	17614.6875
2793.87041	17577.6875
2796.42589	17536.0875
2798.97979	17546.4875
2801.53212	17460.2875
2804.08288	17456.4875
2806.63206	17413.7875
2809.17967	17452.9875
2811.72571	17416.1875
2814.27018	17368.6875
2816.81308	17330.0875
2819.35442	17339.5875
2821.89419	17326.9875
2824.43239	17374.1875
2826.96904	17340.0875
2829.50412	17380.5875
2832.03763	17337.7875
2834.56959	17342.4875
2837.1	17340.1875
2839.62884	17322.9875
2842.15613	17338.0875
2844.68186	17344.2875
2847.20604	17383.2875
2849.72867	17370.9875
2852.24974	17340.8875
2854.76927	17336.4875
2857.28724	17324.2875
2859.80367	17319.4875
2862.31855	17277.3875
2864.83189	17254.8875
2867.34368	17238.1875
2869.85393	17239.6875
2872.36264	17182.8875
2874.8698	17145.9875
2877.37543	17123.8875
2879.87952	17152.6875
2882.38207	17155.7875
2884.88308	17130.6875
2887.38256	17147.5875
2889.88051	17124.0875
2892.37692	17157.9875
2894.8718	17135.9875
2897.36515	17193.1875
2899.85698	17165.8875
2902.34727	17167.5875
2904.83604	17178.2875
2907.32328	17177.6875
2909.809	17169.5875
2912.29319	17201.4875
2914.77587	17192.2875
2917.25702	17152.2875
2919.73665	17113.2875
2922.21476	17134.9875
2924.69136	17115.3875
2927.16644	17091.5875
2929.64	17064.6875
2932.11205	17052.8875
2934.58258	16994.4875
2937.05161	17021.3875
2939.51912	17020.3875
2941.98513	16963.8875
2944.44962	16953.1875
2946.91261	16843.4875
2949.37409	16911.2875
2951.83407	16895.3875
2954.29254	16875.9875
2956.74951	16857.5875
2959.20498	16808.3875
2961.65895	16798.3875
2964.11142	16802.2875
2966.56239	16735.5875
2969.01186	16745.2875
2971.45984	16657.9875
2973.90632	16643.6875
2976.35131	16588.4875
2978.7948	16571.4875
2981.23681	16534.8875
2983.67732	16523.4875
2986.11635	16441.8875
2988.55388	16395.0875
2990.98993	16383.9875
2993.4245	16370.1875
2995.85758	16304.7875
2998.28917	16264.6875
3000.71928	16256.3875
3003.14791	16204.3875
3005.57506	16189.9875
3008.00073	16141.9875
3010.42493	16151.0875
3012.84764	16120.0875
3015.26888	16097.0875
3017.68865	16025.7875
3020.10694	16020.7875
3022.52376	15958.2875
3024.9391	15962.1875
