Data from AgNPs_FTO_APTES_UA_20uM_CRN_1uM_R6G_10uM_NaF_0.1M_Addition_RamanShift__3__12-05-32-016.txt Node

Date: Thu Feb 17 12:05:32 GMT 2022
User: TCL
Spectrometer: QEP01345
Trigger mode: 4
Integration Time (sec): 7.000000E0
Scans to average: 10
Electric dark correction enabled: true
Nonlinearity correction enabled: false
Boxcar width: 0
XAxis mode: Raman Shifts
Number of Pixels in Spectrum: 1044
>>>>>Begin Spectral Data<<<<<
46.04893	0.8875
50.45542	-1.8125
54.85868	-2.7125
59.25871	-0.5125
63.6555	111.0875
68.04907	110.9875
72.43941	116.9875
76.82654	118.8875
81.21044	120.3875
85.59113	128.1875
89.96862	129.8875
94.34289	134.4875
98.71396	137.5875
103.08183	139.3875
107.4465	149.6875
111.80798	146.0875
116.16626	155.9875
120.52136	161.9875
124.87327	165.8875
129.222	180.6875
133.56755	188.6875
137.90993	202.8875
142.24913	223.2875
146.58517	257.3875
150.91804	305.0875
155.24774	359.4875
159.57429	451.6875
163.89768	588.0875
168.21792	786.8875
172.53501	1084.6875
176.84895	1525.2875
181.15975	2152.0875
185.46741	3017.1875
189.77193	4186.4875
194.07331	5607.0875
198.37157	7222.3875
202.6667	8903.4875
206.9587	10602.2875
211.24758	12256.1875
215.53334	13931.8875
219.81599	15714.2875
224.09553	17658.1875
228.37195	19873.2875
232.64527	22218.0875
236.91549	24740.4875
241.18261	27250.8875
245.44663	29559.5875
249.70755	31638.6875
253.96539	33402.7875
258.22014	34976.2875
262.4718	36199.9875
266.72039	37050.5875
270.96589	37540.3875
275.20832	37508.5875
279.44768	37160.1875
283.68397	36725.4875
287.91719	36344.6875
292.14735	36158.7875
296.37445	36039.3875
300.59849	36182.0875
304.81948	36412.3875
309.03742	36636.5875
313.25231	36637.6875
317.46415	36350.2875
321.67296	35903.7875
325.87872	35506.2875
330.08145	35239.5875
334.28114	35279.3875
338.47781	35460.1875
342.67145	36010.3875
346.86207	36631.9875
351.04966	37311.1875
355.23424	38017.0875
359.4158	38576.6875
363.59435	38989.1875
367.76989	39320.0875
371.94243	39541.5875
376.11196	39770.0875
380.27849	39983.8875
384.44203	40254.2875
388.60257	40572.5875
392.76012	40979.7875
396.91468	41463.8875
401.06626	41888.1875
405.21485	42340.4875
409.36047	42286.3875
413.50311	41940.2875
417.64277	41817.1875
421.77947	41977.4875
425.9132	42202.8875
430.04396	42499.6875
434.17176	42712.9875
438.2966	43146.3875
442.41849	43988.8875
446.53742	45494.6875
450.6534	47049.5875
454.76644	48043.9875
458.87653	48170.0875
462.98368	47605.2875
467.08789	46609.0875
471.18916	45642.0875
475.2875	44573.7875
479.38291	43941.6875
483.4754	43434.2875
487.56496	43118.5875
491.6516	42744.1875
495.73531	42436.9875
499.81612	42312.0875
503.89401	42542.0875
507.96899	42736.6875
512.04106	42665.5875
516.11023	42475.8875
520.1765	42227.1875
524.23987	42105.5875
528.30034	42160.7875
532.35792	41970.1875
536.41261	41509.3875
540.46441	40953.3875
544.51333	40831.1875
548.55936	41122.9875
552.60252	41894.5875
556.64279	43032.9875
560.6802	43950.5875
564.71473	44349.4875
568.7464	44879.2875
572.7752	46003.6875
576.80114	47241.2875
580.82422	48616.5875
584.84444	50650.7875
588.86181	53560.0875
592.87633	56459.5875
596.888	56606.6875
600.89682	53475.2875
604.9028	51748.3875
608.90594	54045.4875
612.90624	57063.8875
616.90371	54070.2875
620.89834	46895.5875
624.89015	43673.7875
628.87913	43249.5875
632.86528	43249.1875
636.84862	42993.6875
640.82913	42284.1875
644.80683	41361.8875
648.78172	40896.5875
652.75379	40981.6875
656.72306	41534.5875
660.68952	42214.9875
664.65319	42001.3875
668.61405	41324.4875
672.57211	41333.7875
676.52738	41502.5875
680.47986	41477.1875
684.42955	41185.8875
688.37646	41055.3875
692.32058	41370.5875
696.26192	42126.5875
700.20048	42829.0875
704.13626	43158.1875
708.06928	43007.7875
711.99952	42750.6875
715.927	42844.3875
719.85171	43152.9875
723.77365	43092.0875
727.69284	42534.5875
731.60928	41937.4875
735.52295	41863.2875
739.43388	41929.8875
743.34206	42146.8875
747.24749	42400.7875
751.15017	42762.1875
755.05012	43411.3875
758.94733	44338.7875
762.8418	46083.9875
766.73354	48739.2875
770.62254	51199.0875
774.50882	51563.9875
778.39237	49714.9875
782.27321	47021.6875
786.15132	44761.3875
790.02671	43324.5875
793.89938	42601.9875
797.76935	42305.2875
801.6366	42276.8875
805.50115	42181.0875
809.36299	42069.4875
813.22213	41774.2875
817.07857	41594.4875
820.93231	41389.5875
824.78336	41221.1875
828.63172	41124.8875
832.47738	41125.5875
836.32036	41194.1875
840.16066	41433.4875
843.99827	41600.9875
847.8332	41580.9875
851.66546	41559.1875
855.49504	41490.5875
859.32195	41524.2875
863.1462	41485.7875
866.96777	41446.1875
870.78668	41372.7875
874.60293	41417.1875
878.41652	41511.6875
882.22745	41643.8875
886.03573	41790.1875
889.84136	41782.2875
893.64433	41586.9875
897.44466	41388.4875
901.24235	41247.9875
905.0374	41114.1875
908.8298	41103.7875
912.61957	41117.4875
916.40671	41449.3875
920.19121	41939.0875
923.97308	42483.7875
927.75233	42699.6875
931.52895	42395.5875
935.30295	41857.1875
939.07433	41230.2875
942.84309	40886.3875
946.60924	40794.9875
950.37278	40757.0875
954.13371	40797.4875
957.89203	40649.3875
961.64774	40585.4875
965.40086	40585.6875
969.15137	40580.4875
972.89929	40450.4875
976.64461	40442.6875
980.38733	40536.7875
984.12747	40631.1875
987.86502	41025.7875
991.59999	41469.6875
995.33237	42109.4875
999.06217	43135.6875
1002.78939	44456.3875
1006.51404	45511.7875
1010.23611	46333.1875
1013.95561	46921.7875
1017.67255	46954.9875
1021.38692	46329.4875
1025.09872	45440.0875
1028.80796	45135.0875
1032.51465	45691.8875
1036.21877	46462.3875
1039.92035	46608.5875
1043.61937	46274.5875
1047.31584	45575.2875
1051.00976	44824.5875
1054.70114	44346.4875
1058.38998	44262.2875
1062.07627	44465.3875
1065.76003	44745.5875
1069.44126	45194.6875
1073.11995	45955.2875
1076.79611	46546.2875
1080.46974	47092.5875
1084.14085	47547.3875
1087.80943	48056.6875
1091.47549	48384.1875
1095.13903	48227.8875
1098.80005	47561.7875
1102.45857	46704.2875
1106.11456	46159.0875
1109.76805	45932.4875
1113.41903	46132.8875
1117.06751	46363.1875
1120.71348	46682.7875
1124.35696	47031.8875
1127.99793	47318.2875
1131.63641	47499.4875
1135.2724	47358.2875
1138.90589	47220.0875
1142.5369	47312.2875
1146.16542	47595.6875
1149.79145	47924.9875
1153.415	48244.6875
1157.03607	48888.0875
1160.65467	50070.6875
1164.27079	52149.6875
1167.88443	54678.5875
1171.49561	57620.6875
1175.10432	61316.3875
1178.71056	66028.6875
1182.31434	70518.9875
1185.91565	72274.1875
1189.51451	71104.8875
1193.11091	68526.6875
1196.70485	65945.4875
1200.29634	63664.5875
1203.88538	62106.2875
1207.47197	61435.6875
1211.05612	60768.8875
1214.63782	59818.4875
1218.21708	58923.1875
1221.79391	58251.9875
1225.36829	58012.7875
1228.94024	57500.1875
1232.50976	56334.4875
1236.07685	54911.8875
1239.6415	54072.0875
1243.20374	53879.8875
1246.76355	54333.4875
1250.32093	55174.0875
1253.8759	56343.2875
1257.42845	57837.2875
1260.97859	59431.3875
1264.52631	61179.1875
1268.07163	63122.6875
1271.61453	65007.6875
1275.15503	66755.8875
1278.69312	68531.5875
1282.22882	70270.5875
1285.76211	72428.4875
1289.29301	75129.9875
1292.82151	78102.2875
1296.34761	82031.8875
1299.87133	86958.8875
1303.39266	92519.2875
1306.9116	98048.0875
1310.42815	102832.8875
1313.94233	105391.0875
1317.45412	104453.0875
1320.96354	101383.0875
1324.47058	98224.4875
1327.97525	95711.5875
1331.47754	93656.8875
1334.97747	92132.5875
1338.47502	90662.8875
1341.97022	89012.4875
1345.46305	87224.1875
1348.95352	86233.3875
1352.44163	86902.2875
1355.92738	90255.0875
1359.41078	95505.1875
1362.89183	99523.2875
1366.37053	98355.1875
1369.84688	90748.2875
1373.32088	80780.2875
1376.79254	73923.8875
1380.26186	71536.3875
1383.72883	71554.1875
1387.19347	71635.9875
1390.65578	70907.4875
1394.11575	70657.4875
1397.57339	71442.2875
1401.0287	72827.4875
1404.48168	74066.8875
1407.93234	74347.8875
1411.38068	73452.8875
1414.82669	71689.2875
1418.27039	69368.4875
1421.71177	66932.9875
1425.15083	64894.2875
1428.58758	64147.1875
1432.02203	65126.0875
1435.45416	66960.7875
1438.88399	68994.2875
1442.31151	70184.8875
1445.73673	70680.7875
1449.15965	70597.3875
1452.58027	70080.3875
1455.9986	69387.0875
1459.41463	69427.7875
1462.82837	70418.4875
1466.23982	71930.5875
1469.64898	73384.1875
1473.05586	74398.3875
1476.46045	74797.7875
1479.86276	74565.9875
1483.26279	73803.3875
1486.66054	73376.5875
1490.05602	73689.1875
1493.44922	74144.5875
1496.84016	74377.7875
1500.22882	74897.4875
1503.61521	76158.7875
1506.99934	77531.3875
1510.38121	78720.8875
1513.76081	78762.7875
1517.13816	76957.6875
1520.51324	74526.9875
1523.88607	73033.9875
1527.25665	72835.9875
1530.62498	73333.5875
1533.99105	73546.1875
1537.35488	73085.4875
1540.71647	71832.5875
1544.07581	70260.6875
1547.4329	68539.5875
1550.78776	66851.0875
1554.14038	65494.6875
1557.49077	64714.7875
1560.83892	64201.6875
1564.18484	63975.8875
1567.52853	64165.2875
1570.86999	64625.2875
1574.20922	65564.9875
1577.54624	66424.4875
1580.88103	66640.0875
1584.2136	67372.7875
1587.54395	69934.5875
1590.87208	74548.4875
1594.19801	80447.4875
1597.52172	86140.9875
1600.84321	88047.5875
1604.16251	84301.7875
1607.47959	76907.0875
1610.79447	68989.9875
1614.10715	62280.6875
1617.41763	57589.5875
1620.7259	54710.4875
1624.03199	53531.8875
1627.33587	53887.8875
1630.63757	55680.6875
1633.93707	59378.9875
1637.23439	65556.7875
1640.52951	74758.1875
1643.82246	85553.3875
1647.11321	93514.1875
1650.40179	93347.8875
1653.68819	84704.5875
1656.97241	72353.0875
1660.25446	61602.8875
1663.53433	54251.5875
1666.81203	49905.9875
1670.08756	47304.8875
1673.36092	45680.8875
1676.63211	44609.4875
1679.90115	43829.6875
1683.16801	43177.7875
1686.43272	42804.2875
1689.69527	42420.3875
1692.95567	42161.5875
1696.2139	42059.7875
1699.46999	41982.2875
1702.72392	41881.1875
1705.97571	41811.4875
1709.22535	41724.1875
1712.47284	41742.9875
1715.71819	41736.2875
1718.96139	41695.7875
1722.20246	41549.6875
1725.44139	41418.2875
1728.67818	41184.5875
1731.91284	41009.2875
1735.14537	40773.7875
1738.37576	40628.1875
1741.60403	40505.9875
1744.83017	40340.3875
1748.05418	40282.1875
1751.27607	40201.8875
1754.49584	40206.0875
1757.71349	40144.9875
1760.92903	40151.0875
1764.14244	40097.9875
1767.35375	40112.9875
1770.56294	40044.9875
1773.77002	40013.4875
1776.97499	40016.4875
1780.17785	39957.6875
1783.37861	39877.2875
1786.57727	39792.5875
1789.77382	39722.3875
1792.96828	39741.4875
1796.16064	39731.0875
1799.3509	39597.9875
1802.53907	39554.1875
1805.72514	39507.2875
1808.90913	39392.3875
1812.09102	39362.4875
1815.27083	39325.9875
1818.44856	39276.1875
1821.6242	39201.8875
1824.79776	39171.3875
1827.96924	39203.3875
1831.13864	39228.1875
1834.30597	39211.2875
1837.47122	39135.6875
1840.6344	39088.6875
1843.7955	39085.6875
1846.95454	39145.4875
1850.11151	39095.2875
1853.26642	39106.0875
1856.41926	39123.7875
1859.57004	39135.0875
1862.71876	39012.3875
1865.86542	39036.0875
1869.01003	38922.0875
1872.15258	38941.4875
1875.29308	38917.6875
1878.43152	38930.7875
1881.56792	38912.9875
1884.70227	38936.8875
1887.83457	38965.6875
1890.96482	38885.3875
1894.09304	38798.6875
1897.21921	38765.0875
1900.34335	38694.7875
1903.46544	38718.1875
1906.58551	38742.7875
1909.70353	38727.3875
1912.81953	38690.1875
1915.93349	38577.3875
1919.04543	38494.0875
1922.15534	38451.7875
1925.26322	38419.7875
1928.36908	38378.4875
1931.47292	38314.5875
1934.57473	38168.3875
1937.67453	38134.5875
1940.77232	38043.2875
1943.86808	37941.9875
1946.96184	37854.9875
1950.05358	37731.0875
1953.14331	37626.6875
1956.23103	37590.8875
1959.31675	37429.4875
1962.40046	37401.6875
1965.48217	37205.5875
1968.56188	37156.2875
1971.63959	37101.7875
1974.7153	36981.5875
1977.78901	36876.0875
1980.86073	36799.7875
1983.93046	36719.0875
1986.99819	36579.9875
1990.06394	36565.4875
1993.1277	36493.4875
1996.18947	36373.6875
1999.24925	36285.0875
2002.30706	36195.6875
2005.36288	36063.3875
2008.41672	36023.0875
2011.46859	35939.0875
2014.51848	35834.8875
2017.56639	35766.9875
2020.61233	35682.2875
2023.6563	35579.2875
2026.6983	35549.5875
2029.73833	35477.2875
2032.7764	35446.1875
2035.8125	35394.3875
2038.84664	35309.1875
2041.87881	35324.0875
2044.90903	35227.2875
2047.93729	35175.2875
2050.96359	35178.4875
2053.98794	35115.6875
2057.01034	35139.2875
2060.03078	35164.2875
2063.04927	35140.3875
2066.06582	35137.2875
2069.08042	35103.3875
2072.09307	35091.5875
2075.10378	34937.7875
2078.11255	34902.0875
2081.11938	34987.5875
2084.12426	34988.7875
2087.12722	35007.0875
2090.12824	34936.7875
2093.12732	34960.0875
2096.12447	35018.9875
2099.11969	34898.3875
2102.11299	34973.0875
2105.10435	34993.2875
2108.09379	35035.7875
2111.08131	35087.8875
2114.0669	35052.5875
2117.05057	35080.2875
2120.03233	35075.6875
2123.01216	35110.8875
2125.99008	35207.5875
2128.96609	35267.8875
2131.94018	35274.1875
2134.91236	35337.0875
2137.88263	35350.9875
2140.851	35417.7875
2143.81746	35443.2875
2146.78201	35460.9875
2149.74466	35464.8875
2152.7054	35494.6875
2155.66425	35473.0875
2158.6212	35518.3875
2161.57625	35495.0875
2164.52941	35481.8875
2167.48067	35458.2875
2170.43004	35464.0875
2173.37752	35463.9875
2176.32311	35538.3875
2179.26681	35580.8875
2182.20863	35524.6875
2185.14856	35565.0875
2188.08661	35575.8875
2191.02278	35603.4875
2193.95707	35578.2875
2196.88948	35560.9875
2199.82001	35515.8875
2202.74867	35537.3875
2205.67545	35476.7875
2208.60037	35422.8875
2211.52341	35396.1875
2214.44458	35372.0875
2217.36388	35370.1875
2220.28132	35314.6875
2223.1969	35253.9875
2226.11061	35186.1875
2229.02246	35097.7875
2231.93245	35058.1875
2234.84058	35034.4875
2237.74686	35043.6875
2240.65128	35000.0875
2243.55385	34932.7875
2246.45456	34914.8875
2249.35343	34831.5875
2252.25044	34805.8875
2255.14561	34731.1875
2258.03893	34652.5875
2260.93041	34651.5875
2263.82004	34555.6875
2266.70783	34459.3875
2269.59378	34443.0875
2272.4779	34344.3875
2275.36017	34276.3875
2278.24061	34284.2875
2281.11922	34193.5875
2283.996	34230.3875
2286.87094	34174.8875
2289.74405	34125.5875
2292.61534	34125.7875
2295.4848	34103.3875
2298.35243	34171.1875
2301.21824	34117.8875
2304.08223	34098.8875
2306.94439	34121.1875
2309.80474	34163.0875
2312.66327	34173.5875
2315.51999	34133.5875
2318.37489	34096.5875
2321.22797	34076.7875
2324.07925	34095.6875
2326.92871	34013.3875
2329.77637	33930.7875
2332.62222	33921.3875
2335.46626	33920.2875
2338.3085	33965.5875
2341.14893	33948.6875
2343.98756	33957.8875
2346.8244	33952.2875
2349.65943	33968.4875
2352.49267	33922.4875
2355.32411	33947.1875
2358.15376	33861.2875
2360.98161	33905.1875
2363.80768	33850.8875
2366.63195	33803.9875
2369.45444	33799.8875
2372.27514	33764.8875
2375.09405	33723.2875
2377.91118	33647.6875
2380.72652	33580.2875
2383.54009	33514.3875
2386.35187	33445.9875
2389.16188	33342.1875
2391.97011	33331.4875
2394.77657	33333.1875
2397.58125	33275.5875
2400.38416	33255.2875
2403.18529	33152.3875
2405.98466	33171.2875
2408.78226	33149.5875
2411.57809	33100.5875
2414.37216	33036.4875
2417.16446	33046.2875
2419.955	32993.6875
2422.74378	32991.8875
2425.5308	32968.2875
2428.31606	33021.0875
2431.09956	32998.8875
2433.88131	32981.4875
2436.6613	32992.7875
2439.43954	32971.0875
2442.21603	32957.1875
2444.99077	32948.2875
2447.76377	32944.7875
2450.53501	32904.5875
2453.30451	32946.0875
2456.07226	32860.4875
2458.83827	32865.9875
2461.60254	32878.8875
2464.36507	32880.5875
2467.12586	32872.4875
2469.88492	32863.7875
2472.64224	32924.1875
2475.39782	32926.6875
2478.15167	32961.5875
2480.90379	32948.6875
2483.65417	32983.6875
2486.40283	32937.0875
2489.14976	32977.2875
2491.89497	32983.0875
2494.63845	32989.3875
2497.3802	32970.5875
2500.12024	32987.0875
2502.85855	32986.2875
2505.59514	32929.3875
2508.33002	32901.5875
2511.06318	32899.9875
2513.79462	32893.6875
2516.52435	32849.0875
2519.25237	32853.6875
2521.97867	32861.9875
2524.70327	32845.5875
2527.42616	32765.4875
2530.14734	32759.8875
2532.86681	32739.5875
2535.58458	32728.6875
2538.30065	32712.6875
2541.01501	32781.4875
2543.72768	32771.8875
2546.43864	32726.9875
2549.14791	32657.2875
2551.85548	32616.2875
2554.56136	32614.7875
2557.26554	32532.8875
2559.96803	32535.7875
2562.66883	32509.5875
2565.36794	32521.4875
2568.06536	32516.0875
2570.7611	32453.2875
2573.45514	32395.9875
2576.14751	32423.4875
2578.83819	32380.6875
2581.52719	32422.6875
2584.21451	32352.8875
2586.90015	32405.6875
2589.58411	32319.4875
2592.2664	32319.3875
2594.94701	32290.3875
2597.62594	32346.7875
2600.30321	32285.2875
2602.9788	32321.4875
2605.65273	32263.6875
2608.32498	32283.4875
2610.99557	32262.3875
2613.66449	32348.5875
2616.33175	32302.0875
2618.99734	32243.8875
2621.66128	32172.5875
2624.32355	32158.2875
2626.98416	32133.8875
2629.64311	32110.8875
2632.30041	32086.3875
2634.95605	32077.1875
2637.61004	32091.6875
2640.26238	32088.6875
2642.91306	32047.5875
2645.56209	31960.1875
2648.20948	31984.3875
2650.85521	32023.9875
2653.4993	32033.3875
2656.14175	32070.5875
2658.78255	32109.7875
2661.42171	32074.3875
2664.05923	32179.4875
2666.6951	32210.4875
2669.32934	32190.2875
2671.96194	32185.7875
2674.59291	32231.1875
2677.22224	32210.5875
2679.84993	32241.3875
2682.476	32172.8875
2685.10043	32141.2875
2687.72324	32093.3875
2690.34441	32116.5875
2692.96396	32113.6875
2695.58188	32150.5875
2698.19818	32140.5875
2700.81285	32145.0875
2703.4259	32125.7875
2706.03733	32145.0875
2708.64714	32144.7875
2711.25533	32192.5875
2713.86191	32200.9875
2716.46687	32289.4875
2719.07021	32285.8875
2721.67194	32363.4875
2724.27206	32296.0875
2726.87057	32354.2875
2729.46747	32379.2875
2732.06276	32388.1875
2734.65644	32343.5875
2737.24852	32407.7875
2739.83899	32328.0875
2742.42786	32380.7875
2745.01513	32329.8875
2747.60079	32321.4875
2750.18486	32308.3875
2752.76733	32359.3875
2755.3482	32291.3875
2757.92747	32278.9875
2760.50515	32251.0875
2763.08123	32217.2875
2765.65573	32200.2875
2768.22863	32214.3875
2770.79994	32148.1875
2773.36967	32156.0875
2775.9378	32242.8875
2778.50435	32191.9875
2781.06932	32213.2875
2783.6327	32189.0875
2786.1945	32195.0875
2788.75471	32123.2875
2791.31335	32059.8875
2793.87041	31980.7875
2796.42589	31947.5875
2798.97979	31946.4875
2801.53212	31865.0875
2804.08288	31811.4875
2806.63206	31747.7875
2809.17967	31716.9875
2811.72571	31685.1875
2814.27018	31526.2875
2816.81308	31431.2875
2819.35442	31442.4875
2821.89419	31411.5875
2824.43239	31394.5875
2826.96904	31404.1875
2829.50412	31381.8875
2832.03763	31344.3875
2834.56959	31333.4875
2837.1	31265.0875
2839.62884	31227.1875
2842.15613	31230.6875
2844.68186	31276.2875
2847.20604	31225.3875
2849.72867	31212.9875
2852.24974	31196.9875
2854.76927	31134.5875
2857.28724	31120.6875
2859.80367	31101.9875
2862.31855	31088.0875
2864.83189	31049.1875
2867.34368	30977.7875
2869.85393	30978.8875
2872.36264	30930.9875
2874.8698	30911.6875
2877.37543	30855.1875
2879.87952	30883.8875
2882.38207	30919.5875
2884.88308	30895.6875
2887.38256	30925.2875
2889.88051	30886.1875
2892.37692	30943.6875
2894.8718	30954.1875
2897.36515	31035.0875
2899.85698	31031.5875
2902.34727	31091.4875
2904.83604	31064.6875
2907.32328	31089.9875
2909.809	31124.9875
2912.29319	31204.4875
2914.77587	31164.2875
2917.25702	31182.2875
2919.73665	31147.2875
2922.21476	31185.3875
2924.69136	31057.9875
2927.16644	31115.6875
2929.64	31061.8875
2932.11205	31030.8875
2934.58258	30920.6875
2937.05161	31062.3875
2939.51912	31022.7875
2941.98513	30983.4875
2944.44962	30907.7875
2946.91261	30896.4875
2949.37409	30921.7875
2951.83407	30901.2875
2954.29254	30885.4875
2956.74951	30886.8875
2959.20498	30906.0875
2961.65895	30881.9875
2964.11142	30887.6875
2966.56239	30887.8875
2969.01186	30853.1875
2971.45984	30712.1875
2973.90632	30730.3875
2976.35131	30627.1875
2978.7948	30644.9875
2981.23681	30546.9875
2983.67732	30506.4875
2986.11635	30409.6875
2988.55388	30401.6875
2990.98993	30314.8875
2993.4245	30263.2875
2995.85758	30206.4875
2998.28917	30092.2875
3000.71928	30023.1875
3003.14791	29991.9875
3005.57506	30002.8875
3008.00073	29884.6875
3010.42493	29903.4875
3012.84764	29867.9875
3015.26888	29836.8875
3017.68865	29785.7875
3020.10694	29719.4875
3022.52376	29683.2875
