Data from AgNPs_FTO_APTES_UA_20uM_CRN_1000uM_R6G_10uM_NaF_0.1M_Addition_RamanShift__22__19-37-25-035.txt Node

Date: Thu Feb 17 19:37:25 GMT 2022
User: TCL
Spectrometer: QEP01345
Trigger mode: 4
Integration Time (sec): 1.000000E1
Scans to average: 7
Electric dark correction enabled: true
Nonlinearity correction enabled: false
Boxcar width: 0
XAxis mode: Raman Shifts
Number of Pixels in Spectrum: 1044
>>>>>Begin Spectral Data<<<<<
46.04893	0.26786
50.45542	-0.58929
54.85868	0.55357
59.25871	-1.44643
63.6555	64.98214
68.04907	61.41071
72.43941	65.55357
76.82654	68.98214
81.21044	70.83929
85.59113	73.26786
89.96862	80.83929
94.34289	72.83929
98.71396	84.125
103.08183	81.69643
107.4465	86.83929
111.80798	88.83929
116.16626	88.69643
120.52136	93.125
124.87327	100.83929
129.222	107.69643
133.56755	101.98214
137.90993	111.83929
142.24913	124.83929
146.58517	135.125
150.91804	157.125
155.24774	188.83929
159.57429	229.41071
163.89768	293.69643
168.21792	386.83929
172.53501	514.41071
176.84895	726.125
181.15975	1030.41071
185.46741	1451.125
189.77193	1996.55357
194.07331	2701.98214
198.37157	3520.26786
202.6667	4377.41071
206.9587	5219.98214
211.24758	6120.26786
215.53334	6967.83929
219.81599	7910.69643
224.09553	8920.55357
228.37195	10054.55357
232.64527	11324.41071
236.91549	12613.41071
241.18261	13821.125
245.44663	14951.98214
249.70755	15901.41071
253.96539	16665.69643
258.22014	17284.69643
262.4718	17777.83929
266.72039	18095.98214
270.96589	18249.98214
275.20832	18158.83929
279.44768	17855.41071
283.68397	17545.125
287.91719	17270.41071
292.14735	17103.41071
296.37445	17138.69643
300.59849	17330.69643
304.81948	17623.69643
309.03742	17847.98214
313.25231	17796.98214
317.46415	17462.55357
321.67296	16915.41071
325.87872	16383.98214
330.08145	16209.98214
334.28114	16276.55357
338.47781	16414.125
342.67145	16709.55357
346.86207	17025.41071
351.04966	17577.26786
355.23424	18174.69643
359.4158	18735.41071
363.59435	19073.69643
367.76989	19283.83929
371.94243	19383.26786
376.11196	19420.41071
380.27849	19544.41071
384.44203	19563.125
388.60257	19459.26786
392.76012	19450.55357
396.91468	19535.83929
401.06626	19757.83929
405.21485	19994.26786
409.36047	19870.41071
413.50311	19467.41071
417.64277	19041.26786
421.77947	18797.83929
425.9132	18721.98214
430.04396	18726.55357
434.17176	18904.41071
438.2966	19133.41071
442.41849	19471.98214
446.53742	19937.98214
450.6534	20395.55357
454.76644	20736.26786
458.87653	20870.98214
462.98368	20698.41071
467.08789	20502.83929
471.18916	20204.26786
475.2875	19900.26786
479.38291	19652.125
483.4754	19467.26786
487.56496	19294.55357
491.6516	19217.98214
495.73531	19153.41071
499.81612	19177.55357
503.89401	19287.125
507.96899	19365.26786
512.04106	19507.98214
516.11023	19624.55357
520.1765	19774.83929
524.23987	19802.26786
528.30034	19771.69643
532.35792	19736.69643
536.41261	19612.83929
540.46441	19444.41071
544.51333	19300.83929
548.55936	19322.69643
552.60252	19476.69643
556.64279	19701.98214
560.6802	19844.98214
564.71473	19982.69643
568.7464	20201.55357
572.7752	20367.98214
576.80114	20198.83929
580.82422	20043.55357
584.84444	20068.125
588.86181	20290.69643
592.87633	20777.55357
596.888	21051.83929
600.89682	21212.83929
604.9028	22113.98214
608.90594	24863.98214
612.90624	28331.55357
616.90371	27487.98214
620.89834	22799.26786
624.89015	20494.125
628.87913	20039.83929
632.86528	20151.26786
636.84862	20308.26786
640.82913	20176.83929
644.80683	19752.55357
648.78172	19344.69643
652.75379	19314.83929
656.72306	19600.55357
660.68952	20020.55357
664.65319	19992.55357
668.61405	19650.26786
672.57211	19593.69643
676.52738	19733.69643
680.47986	19838.98214
684.42955	19705.41071
688.37646	19517.83929
692.32058	19491.55357
696.26192	19494.98214
700.20048	19578.55357
704.13626	19676.125
708.06928	19578.83929
711.99952	19357.83929
715.927	19271.69643
719.85171	19285.41071
723.77365	19333.26786
727.69284	19303.55357
731.60928	19280.98214
735.52295	19259.26786
739.43388	19281.26786
743.34206	19293.125
747.24749	19322.41071
751.15017	19291.55357
755.05012	19429.69643
758.94733	19736.125
762.8418	20671.26786
766.73354	22290.55357
770.62254	24045.83929
774.50882	24952.83929
778.39237	24405.26786
782.27321	22600.55357
786.15132	20806.98214
790.02671	19692.98214
793.89938	19161.98214
797.76935	18901.83929
801.6366	18851.55357
805.50115	18806.125
809.36299	18799.26786
813.22213	18701.26786
817.07857	18629.83929
820.93231	18614.125
824.78336	18586.98214
828.63172	18539.41071
832.47738	18550.55357
836.32036	18567.41071
840.16066	18519.98214
843.99827	18553.125
847.8332	18580.83929
851.66546	18533.83929
855.49504	18559.55357
859.32195	18664.98214
863.1462	18685.98214
866.96777	18724.41071
870.78668	18712.125
874.60293	18684.98214
878.41652	18702.69643
882.22745	18674.125
886.03573	18733.41071
889.84136	18717.69643
893.64433	18672.26786
897.44466	18572.41071
901.24235	18453.98214
905.0374	18348.125
908.8298	18221.41071
912.61957	18211.55357
916.40671	18193.83929
920.19121	18304.98214
923.97308	18435.26786
927.75233	18549.125
931.52895	18671.55357
935.30295	18623.98214
939.07433	18415.26786
942.84309	18185.98214
946.60924	17981.55357
950.37278	17861.125
954.13371	17765.26786
957.89203	17723.55357
961.64774	17671.41071
965.40086	17603.41071
969.15137	17535.83929
972.89929	17471.41071
976.64461	17468.125
980.38733	17495.125
984.12747	17550.41071
987.86502	17616.83929
991.59999	17719.125
995.33237	17910.125
999.06217	18176.26786
1002.78939	18488.83929
1006.51404	18729.98214
1010.23611	18885.26786
1013.95561	19038.98214
1017.67255	19047.98214
1021.38692	19016.98214
1025.09872	18864.98214
1028.80796	18798.41071
1032.51465	18919.41071
1036.21877	19096.55357
1039.92035	19157.83929
1043.61937	19100.69643
1047.31584	18911.125
1051.00976	18777.41071
1054.70114	18635.69643
1058.38998	18584.83929
1062.07627	18559.55357
1065.76003	18588.55357
1069.44126	18601.55357
1073.11995	18679.55357
1076.79611	18761.83929
1080.46974	18918.69643
1084.14085	19104.26786
1087.80943	19255.26786
1091.47549	19382.41071
1095.13903	19261.83929
1098.80005	19014.83929
1102.45857	18803.55357
1106.11456	18785.26786
1109.76805	18863.26786
1113.41903	19086.55357
1117.06751	19379.125
1120.71348	19738.41071
1124.35696	20174.55357
1127.99793	20511.41071
1131.63641	20574.26786
1135.2724	20250.69643
1138.90589	19790.125
1142.5369	19471.98214
1146.16542	19254.55357
1149.79145	19035.26786
1153.415	18946.83929
1157.03607	19023.55357
1160.65467	19208.41071
1164.27079	19568.26786
1167.88443	20163.26786
1171.49561	21054.98214
1175.10432	22245.26786
1178.71056	23909.83929
1182.31434	25529.26786
1185.91565	26194.55357
1189.51451	25859.41071
1193.11091	24874.83929
1196.70485	23767.41071
1200.29634	23003.69643
1203.88538	22393.55357
1207.47197	21659.83929
1211.05612	21020.83929
1214.63782	20559.26786
1218.21708	20461.41071
1221.79391	20465.98214
1225.36829	20506.26786
1228.94024	20422.83929
1232.50976	20200.26786
1236.07685	20044.55357
1239.6415	19993.125
1243.20374	20076.98214
1246.76355	20187.125
1250.32093	20317.69643
1253.8759	20616.69643
1257.42845	20979.41071
1260.97859	21306.98214
1264.52631	21662.125
1268.07163	22019.41071
1271.61453	22440.41071
1275.15503	22780.69643
1278.69312	23086.26786
1282.22882	23368.69643
1285.76211	23697.125
1289.29301	24064.83929
1292.82151	24601.83929
1296.34761	25279.98214
1299.87133	26291.55357
1303.39266	27681.41071
1306.9116	29638.55357
1310.42815	31737.41071
1313.94233	32751.69643
1317.45412	31957.125
1320.96354	30471.41071
1324.47058	28877.69643
1327.97525	27522.69643
1331.47754	26591.55357
1334.97747	26279.55357
1338.47502	26472.55357
1341.97022	26867.69643
1345.46305	27493.26786
1348.95352	28387.26786
1352.44163	29686.69643
1355.92738	31469.69643
1359.41078	34012.83929
1362.89183	36392.83929
1366.37053	35643.69643
1369.84688	31710.125
1373.32088	27647.98214
1376.79254	25117.125
1380.26186	23821.41071
1383.72883	23131.41071
1387.19347	22660.125
1390.65578	22145.69643
1394.11575	21781.125
1397.57339	21724.55357
1401.0287	21885.55357
1404.48168	22087.26786
1407.93234	22307.83929
1411.38068	22474.26786
1414.82669	22499.55357
1418.27039	22394.125
1421.71177	22139.55357
1425.15083	21760.55357
1428.58758	21571.26786
1432.02203	21578.98214
1435.45416	21713.55357
1438.88399	21852.26786
1442.31151	21894.125
1445.73673	21954.98214
1449.15965	22047.98214
1452.58027	22047.125
1455.9986	21932.83929
1459.41463	21879.98214
1462.82837	22035.41071
1466.23982	22356.69643
1469.64898	22738.26786
1473.05586	23092.69643
1476.46045	23254.69643
1479.86276	23368.26786
1483.26279	23498.26786
1486.66054	23651.83929
1490.05602	23946.26786
1493.44922	24335.69643
1496.84016	24973.26786
1500.22882	26022.41071
1503.61521	27793.55357
1506.99934	29923.26786
1510.38121	31552.26786
1513.76081	31595.26786
1517.13816	30034.26786
1520.51324	27575.83929
1523.88607	25345.41071
1527.25665	24059.98214
1530.62498	23325.125
1533.99105	22899.125
1537.35488	22718.55357
1540.71647	22629.83929
1544.07581	22542.55357
1547.4329	22492.69643
1550.78776	22409.26786
1554.14038	22383.125
1557.49077	22437.69643
1560.83892	22539.26786
1564.18484	22770.55357
1567.52853	23039.83929
1570.86999	23311.125
1574.20922	23474.41071
1577.54624	23426.125
1580.88103	22952.41071
1584.2136	22257.98214
1587.54395	21936.125
1590.87208	22232.98214
1594.19801	23140.69643
1597.52172	24414.69643
1600.84321	25080.69643
1604.16251	24742.69643
1607.47959	23748.69643
1610.79447	22440.98214
1614.10715	21194.26786
1617.41763	20219.41071
1620.7259	19551.83929
1624.03199	19208.83929
1627.33587	19138.83929
1630.63757	19394.55357
1633.93707	19984.125
1637.23439	20992.26786
1640.52951	22428.55357
1643.82246	24386.41071
1647.11321	26318.83929
1650.40179	27281.83929
1653.68819	26246.41071
1656.97241	23769.125
1660.25446	21195.26786
1663.53433	19376.98214
1666.81203	18313.26786
1670.08756	17697.41071
1673.36092	17228.69643
1676.63211	16927.26786
1679.90115	16712.69643
1683.16801	16520.26786
1686.43272	16401.55357
1689.69527	16248.26786
1692.95567	16182.125
1696.2139	16115.125
1699.46999	16073.69643
1702.72392	16012.69643
1705.97571	15970.69643
1709.22535	15970.26786
1712.47284	15941.125
1715.71819	15942.125
1718.96139	15865.41071
1722.20246	15806.83929
1725.44139	15778.41071
1728.67818	15700.83929
1731.91284	15627.55357
1735.14537	15583.55357
1738.37576	15565.125
1741.60403	15524.41071
1744.83017	15501.69643
1748.05418	15479.55357
1751.27607	15494.98214
1754.49584	15443.125
1757.71349	15422.125
1760.92903	15410.125
1764.14244	15386.55357
1767.35375	15331.41071
1770.56294	15283.98214
1773.77002	15217.125
1776.97499	15194.41071
1780.17785	15117.41071
1783.37861	15106.41071
1786.57727	15071.69643
1789.77382	15054.26786
1792.96828	15003.125
1796.16064	14945.55357
1799.3509	14905.41071
1802.53907	14844.26786
1805.72514	14866.26786
1808.90913	14823.26786
1812.09102	14791.55357
1815.27083	14773.41071
1818.44856	14748.125
1821.6242	14730.26786
1824.79776	14724.26786
1827.96924	14686.55357
1831.13864	14649.83929
1834.30597	14648.83929
1837.47122	14593.26786
1840.6344	14630.98214
1843.7955	14607.41071
1846.95454	14566.98214
1850.11151	14559.41071
1853.26642	14576.41071
1856.41926	14540.55357
1859.57004	14567.98214
1862.71876	14531.69643
1865.86542	14523.41071
1869.01003	14532.55357
1872.15258	14509.55357
1875.29308	14520.26786
1878.43152	14520.69643
1881.56792	14483.98214
1884.70227	14493.69643
1887.83457	14483.125
1890.96482	14468.41071
1894.09304	14420.125
1897.21921	14422.69643
1900.34335	14401.98214
1903.46544	14420.55357
1906.58551	14395.55357
1909.70353	14341.125
1912.81953	14320.83929
1915.93349	14291.41071
1919.04543	14305.55357
1922.15534	14303.125
1925.26322	14269.69643
1928.36908	14268.26786
1931.47292	14223.26786
1934.57473	14202.55357
1937.67453	14162.69643
1940.77232	14138.98214
1943.86808	14100.125
1946.96184	14007.83929
1950.05358	14000.69643
1953.14331	13970.125
1956.23103	13983.26786
1959.31675	13938.69643
1962.40046	13906.83929
1965.48217	13841.125
1968.56188	13796.69643
1971.63959	13732.41071
1974.7153	13761.41071
1977.78901	13719.69643
1980.86073	13696.83929
1983.93046	13623.69643
1986.99819	13540.41071
1990.06394	13508.41071
1993.1277	13484.55357
1996.18947	13436.98214
1999.24925	13398.55357
2002.30706	13339.125
2005.36288	13309.98214
2008.41672	13275.83929
2011.46859	13250.125
2014.51848	13204.55357
2017.56639	13143.55357
2020.61233	13129.69643
2023.6563	13105.69643
2026.6983	13045.41071
2029.73833	13038.125
2032.7764	13022.26786
2035.8125	13024.98214
2038.84664	12976.125
2041.87881	12966.26786
2044.90903	12941.55357
2047.93729	12934.98214
2050.96359	12894.26786
2053.98794	12896.41071
2057.01034	12840.98214
2060.03078	12876.41071
2063.04927	12835.83929
2066.06582	12842.98214
2069.08042	12868.98214
2072.09307	12817.41071
2075.10378	12836.125
2078.11255	12824.125
2081.11938	12852.98214
2084.12426	12831.125
2087.12722	12829.125
2090.12824	12815.41071
2093.12732	12819.98214
2096.12447	12820.83929
2099.11969	12781.69643
2102.11299	12776.26786
2105.10435	12786.125
2108.09379	12825.98214
2111.08131	12818.98214
2114.0669	12870.41071
2117.05057	12864.98214
2120.03233	12824.69643
2123.01216	12888.55357
2125.99008	12888.26786
2128.96609	12922.69643
2131.94018	12938.41071
2134.91236	12928.98214
2137.88263	12934.41071
2140.851	12942.125
2143.81746	12945.69643
2146.78201	12957.125
2149.74466	12953.98214
2152.7054	12951.125
2155.66425	12907.26786
2158.6212	12922.125
2161.57625	12913.55357
2164.52941	12948.41071
2167.48067	12950.69643
2170.43004	12912.26786
2173.37752	12897.26786
2176.32311	12960.69643
2179.26681	12918.26786
2182.20863	12912.26786
2185.14856	12944.41071
2188.08661	12922.83929
2191.02278	12889.69643
2193.95707	12903.98214
2196.88948	12904.98214
2199.82001	12890.55357
2202.74867	12899.26786
2205.67545	12864.26786
2208.60037	12867.55357
2211.52341	12835.125
2214.44458	12853.125
2217.36388	12814.125
2220.28132	12780.69643
2223.1969	12736.55357
2226.11061	12759.69643
2229.02246	12721.98214
2231.93245	12691.41071
2234.84058	12658.55357
2237.74686	12666.98214
2240.65128	12665.125
2243.55385	12660.55357
2246.45456	12613.125
2249.35343	12608.125
2252.25044	12584.26786
2255.14561	12605.55357
2258.03893	12557.98214
2260.93041	12569.55357
2263.82004	12547.69643
2266.70783	12503.125
2269.59378	12481.125
2272.4779	12442.26786
2275.36017	12416.69643
2278.24061	12373.83929
2281.11922	12356.26786
2283.996	12355.83929
2286.87094	12373.98214
2289.74405	12314.125
2292.61534	12316.69643
2295.4848	12269.69643
2298.35243	12312.125
2301.21824	12313.41071
2304.08223	12283.41071
2306.94439	12277.26786
2309.80474	12265.55357
2312.66327	12282.83929
2315.51999	12296.41071
2318.37489	12226.98214
2321.22797	12218.125
2324.07925	12229.69643
2326.92871	12185.55357
2329.77637	12177.55357
2332.62222	12169.26786
2335.46626	12161.69643
2338.3085	12159.55357
2341.14893	12169.26786
2343.98756	12167.41071
2346.8244	12154.83929
2349.65943	12124.26786
2352.49267	12144.83929
2355.32411	12125.83929
2358.15376	12130.55357
2360.98161	12108.98214
2363.80768	12140.98214
2366.63195	12151.55357
2369.45444	12092.125
2372.27514	12094.125
2375.09405	12036.98214
2377.91118	12042.83929
2380.72652	12034.83929
2383.54009	11991.41071
2386.35187	11988.125
2389.16188	11913.83929
2391.97011	11934.26786
2394.77657	11889.41071
2397.58125	11847.55357
2400.38416	11832.55357
2403.18529	11878.125
2405.98466	11853.55357
2408.78226	11800.83929
2411.57809	11785.69643
2414.37216	11772.69643
2417.16446	11742.69643
2419.955	11757.83929
2422.74378	11708.41071
2425.5308	11710.26786
2428.31606	11731.41071
2431.09956	11737.125
2433.88131	11714.26786
2436.6613	11696.26786
2439.43954	11722.41071
2442.21603	11685.98214
2444.99077	11667.125
2447.76377	11677.125
2450.53501	11672.26786
2453.30451	11673.41071
2456.07226	11678.98214
2458.83827	11635.98214
2461.60254	11638.55357
2464.36507	11616.55357
2467.12586	11573.83929
2469.88492	11591.125
2472.64224	11587.69643
2475.39782	11592.83929
2478.15167	11611.69643
2480.90379	11618.83929
2483.65417	11639.69643
2486.40283	11616.98214
2489.14976	11585.83929
2491.89497	11642.83929
2494.63845	11622.41071
2497.3802	11609.26786
2500.12024	11616.55357
2502.85855	11591.98214
2505.59514	11564.41071
2508.33002	11551.125
2511.06318	11543.55357
2513.79462	11496.125
2516.52435	11500.55357
2519.25237	11493.98214
2521.97867	11430.41071
2524.70327	11465.98214
2527.42616	11449.55357
2530.14734	11454.98214
2532.86681	11400.26786
2535.58458	11451.55357
2538.30065	11405.55357
2541.01501	11417.26786
2543.72768	11377.98214
2546.43864	11389.55357
2549.14791	11381.69643
2551.85548	11357.55357
2554.56136	11332.98214
2557.26554	11328.83929
2559.96803	11329.55357
2562.66883	11283.55357
2565.36794	11278.41071
2568.06536	11230.83929
2570.7611	11207.98214
2573.45514	11206.26786
2576.14751	11201.26786
2578.83819	11166.55357
2581.52719	11178.69643
2584.21451	11158.55357
2586.90015	11151.26786
2589.58411	11145.125
2592.2664	11161.26786
2594.94701	11135.83929
2597.62594	11103.69643
2600.30321	11062.41071
2602.9788	11075.83929
2605.65273	11044.69643
2608.32498	11028.69643
2610.99557	11035.69643
2613.66449	11056.98214
2616.33175	11054.83929
2618.99734	11030.98214
2621.66128	11013.41071
2624.32355	10972.55357
2626.98416	10980.125
2629.64311	10977.98214
2632.30041	10951.26786
2634.95605	10946.26786
2637.61004	10937.98214
2640.26238	10936.98214
2642.91306	10948.125
2645.56209	10937.83929
2648.20948	10921.41071
2650.85521	10910.98214
2653.4993	10909.98214
2656.14175	10907.125
2658.78255	10922.98214
2661.42171	10901.83929
2664.05923	10931.83929
2666.6951	10938.55357
2669.32934	10950.41071
2671.96194	10940.55357
2674.59291	10977.83929
2677.22224	10946.98214
2679.84993	10923.55357
2682.476	10929.125
2685.10043	10929.125
2687.72324	10935.55357
2690.34441	10917.83929
2692.96396	10901.125
2695.58188	10935.55357
2698.19818	10934.55357
2700.81285	10936.125
2703.4259	10930.69643
2706.03733	10897.83929
2708.64714	10933.98214
2711.25533	10916.41071
2713.86191	10920.55357
2716.46687	10956.125
2719.07021	10932.55357
2721.67194	10959.125
2724.27206	10972.26786
2726.87057	10917.83929
2729.46747	10907.69643
2732.06276	10951.26786
2734.65644	10933.41071
2737.24852	10945.55357
2739.83899	10925.26786
2742.42786	10931.83929
2745.01513	10907.125
2747.60079	10882.55357
2750.18486	10870.98214
2752.76733	10874.69643
2755.3482	10867.125
2757.92747	10866.69643
2760.50515	10879.83929
2763.08123	10854.83929
2765.65573	10819.98214
2768.22863	10795.98214
2770.79994	10808.125
2773.36967	10828.83929
2775.9378	10830.98214
2778.50435	10800.69643
2781.06932	10788.83929
2783.6327	10794.83929
2786.1945	10777.125
2788.75471	10758.125
2791.31335	10740.26786
2793.87041	10719.98214
2796.42589	10732.55357
2798.97979	10719.98214
2801.53212	10695.41071
2804.08288	10671.69643
2806.63206	10625.26786
2809.17967	10631.69643
2811.72571	10595.83929
2814.27018	10637.55357
2816.81308	10600.69643
2819.35442	10581.125
2821.89419	10596.41071
2824.43239	10562.55357
2826.96904	10585.98214
2829.50412	10564.83929
2832.03763	10547.26786
2834.56959	10591.98214
2837.1	10557.125
2839.62884	10536.83929
2842.15613	10511.55357
2844.68186	10543.125
2847.20604	10555.26786
2849.72867	10516.41071
2852.24974	10511.98214
2854.76927	10489.55357
2857.28724	10473.98214
2859.80367	10469.69643
2862.31855	10442.125
2864.83189	10433.41071
2867.34368	10442.83929
2869.85393	10483.26786
2872.36264	10438.98214
2874.8698	10467.55357
2877.37543	10459.41071
2879.87952	10493.83929
2882.38207	10477.26786
2884.88308	10458.26786
2887.38256	10479.26786
2889.88051	10483.41071
2892.37692	10489.26786
2894.8718	10534.55357
2897.36515	10556.69643
2899.85698	10530.83929
2902.34727	10578.41071
2904.83604	10573.41071
2907.32328	10605.41071
2909.809	10608.98214
2912.29319	10641.26786
2914.77587	10675.125
2917.25702	10673.69643
2919.73665	10678.83929
2922.21476	10655.41071
2924.69136	10642.41071
2927.16644	10659.55357
2929.64	10688.69643
2932.11205	10638.55357
2934.58258	10635.83929
2937.05161	10594.55357
2939.51912	10631.125
2941.98513	10629.98214
2944.44962	10602.41071
2946.91261	10574.83929
2949.37409	10603.69643
2951.83407	10551.55357
2954.29254	10564.83929
