Data from AgNPs_FTO_APTES_UA_20uM_CRN_1uM_R6G_10uM_NaF_0.1M_Addition_RamanShift__16__12-20-42-038.txt Node

Date: Thu Feb 17 12:20:42 GMT 2022
User: TCL
Spectrometer: QEP01345
Trigger mode: 4
Integration Time (sec): 7.000000E0
Scans to average: 10
Electric dark correction enabled: true
Nonlinearity correction enabled: false
Boxcar width: 0
XAxis mode: Raman Shifts
Number of Pixels in Spectrum: 1044
>>>>>Begin Spectral Data<<<<<
46.04893	-0.675
50.45542	-0.875
54.85868	-1.975
59.25871	-1.375
63.6555	114.625
68.04907	118.425
72.43941	126.125
76.82654	129.825
81.21044	132.625
85.59113	136.925
89.96862	142.525
94.34289	146.625
98.71396	149.225
103.08183	152.525
107.4465	158.825
111.80798	161.725
116.16626	167.725
120.52136	173.325
124.87327	183.525
129.222	196.825
133.56755	209.725
137.90993	223.525
142.24913	253.325
146.58517	286.325
150.91804	339.025
155.24774	405.825
159.57429	503.625
163.89768	662.725
168.21792	890.525
172.53501	1229.425
176.84895	1722.025
181.15975	2427.825
185.46741	3448.025
189.77193	4757.625
194.07331	6391.025
198.37157	8224.725
202.6667	10195.125
206.9587	12126.625
211.24758	14035.225
215.53334	15936.325
219.81599	17951.125
224.09553	20159.225
228.37195	22664.725
232.64527	25377.025
236.91549	28240.325
241.18261	31151.325
245.44663	33872.325
249.70755	36328.925
253.96539	38545.225
258.22014	40358.425
262.4718	41814.225
266.72039	42979.125
270.96589	43591.925
275.20832	43683.525
279.44768	43431.525
283.68397	43054.725
287.91719	42656.525
292.14735	42465.325
296.37445	42337.025
300.59849	42431.825
304.81948	42576.425
309.03742	42575.425
313.25231	42381.825
317.46415	41666.525
321.67296	40817.225
325.87872	40083.725
330.08145	39808.025
334.28114	39821.725
338.47781	40182.925
342.67145	40701.025
346.86207	41375.025
351.04966	42139.425
355.23424	42977.825
359.4158	43696.925
363.59435	44296.525
367.76989	44664.425
371.94243	44969.625
376.11196	45302.925
380.27849	45505.325
384.44203	45791.325
388.60257	46004.725
392.76012	46421.125
396.91468	46954.625
401.06626	47518.625
405.21485	47972.425
409.36047	47922.525
413.50311	47495.925
417.64277	47023.925
421.77947	47022.225
425.9132	47192.225
430.04396	47511.625
434.17176	47757.625
438.2966	48179.825
442.41849	48935.625
446.53742	50120.925
450.6534	51399.225
454.76644	52379.125
458.87653	52768.725
462.98368	52578.425
467.08789	51990.625
471.18916	51297.525
475.2875	50689.525
479.38291	50297.125
483.4754	50017.525
487.56496	49594.625
491.6516	49100.825
495.73531	48588.825
499.81612	48405.425
503.89401	48627.825
507.96899	48783.125
512.04106	48748.125
516.11023	48543.925
520.1765	48225.225
524.23987	47941.525
528.30034	47750.725
532.35792	47462.225
536.41261	47038.225
540.46441	46670.825
544.51333	46679.525
548.55936	47078.025
552.60252	47871.025
556.64279	48947.925
560.6802	49685.125
564.71473	50182.325
568.7464	50881.425
572.7752	52055.925
576.80114	53035.725
580.82422	53903.825
584.84444	54752.325
588.86181	55627.425
592.87633	56274.425
596.888	56097.025
600.89682	55309.925
604.9028	56285.425
608.90594	60265.325
612.90624	64170.025
616.90371	60892.625
620.89834	52827.725
624.89015	49232.425
628.87913	48683.225
632.86528	48808.325
636.84862	48789.525
640.82913	48273.425
644.80683	47341.825
648.78172	46657.125
652.75379	46575.025
656.72306	47185.125
660.68952	47924.725
664.65319	47796.725
668.61405	47114.025
672.57211	47011.925
676.52738	47173.025
680.47986	47125.025
684.42955	46950.125
688.37646	46844.325
692.32058	47098.125
696.26192	47610.925
700.20048	48219.625
704.13626	48554.025
708.06928	48465.825
711.99952	48141.425
715.927	48086.625
719.85171	48273.025
723.77365	48268.725
727.69284	47845.525
731.60928	47403.325
735.52295	47198.625
739.43388	47268.525
743.34206	47476.425
747.24749	47649.425
751.15017	48035.825
755.05012	48627.825
758.94733	49688.225
762.8418	51746.625
766.73354	54853.325
770.62254	57839.825
774.50882	58244.425
778.39237	56153.625
782.27321	52912.825
786.15132	50278.525
790.02671	48631.625
793.89938	47805.525
797.76935	47467.925
801.6366	47427.625
805.50115	47267.025
809.36299	47145.325
813.22213	46868.825
817.07857	46686.325
820.93231	46605.125
824.78336	46397.125
828.63172	46251.025
832.47738	46295.525
836.32036	46336.525
840.16066	46430.525
843.99827	46557.025
847.8332	46548.325
851.66546	46530.025
855.49504	46557.925
859.32195	46527.425
863.1462	46510.325
866.96777	46522.725
870.78668	46461.525
874.60293	46453.425
878.41652	46524.125
882.22745	46577.125
886.03573	46761.625
889.84136	46740.125
893.64433	46602.425
897.44466	46418.325
901.24235	46256.125
905.0374	46060.725
908.8298	45958.225
912.61957	45997.425
916.40671	46341.125
920.19121	46809.425
923.97308	47225.425
927.75233	47304.625
931.52895	47000.425
935.30295	46528.225
939.07433	45919.525
942.84309	45528.325
946.60924	45388.025
950.37278	45446.725
954.13371	45465.625
957.89203	45348.325
961.64774	45155.225
965.40086	45131.125
969.15137	45090.825
972.89929	44928.025
976.64461	44842.225
980.38733	44852.525
984.12747	45014.625
987.86502	45370.625
991.59999	45930.425
995.33237	46599.825
999.06217	47552.725
1002.78939	48554.725
1006.51404	49430.425
1010.23611	50122.025
1013.95561	50577.325
1017.67255	50530.925
1021.38692	49944.425
1025.09872	49405.325
1028.80796	49071.925
1032.51465	49472.625
1036.21877	49977.825
1039.92035	50066.625
1043.61937	49884.525
1047.31584	49393.625
1051.00976	48795.825
1054.70114	48551.925
1058.38998	48684.525
1062.07627	49021.325
1065.76003	49428.525
1069.44126	49925.825
1073.11995	50524.125
1076.79611	51125.725
1080.46974	51597.425
1084.14085	52027.225
1087.80943	52581.825
1091.47549	52964.925
1095.13903	52857.925
1098.80005	52360.425
1102.45857	51532.125
1106.11456	50916.025
1109.76805	50763.225
1113.41903	50842.325
1117.06751	51148.525
1120.71348	51539.625
1124.35696	51881.425
1127.99793	52275.025
1131.63641	52362.725
1135.2724	52071.425
1138.90589	51799.125
1142.5369	51705.425
1146.16542	51699.425
1149.79145	51914.025
1153.415	52233.225
1157.03607	52789.225
1160.65467	53858.625
1164.27079	55651.825
1167.88443	57999.725
1171.49561	61039.825
1175.10432	64703.525
1178.71056	69262.525
1182.31434	73597.025
1185.91565	75728.725
1189.51451	75545.825
1193.11091	73736.325
1196.70485	71178.125
1200.29634	68666.625
1203.88538	66787.125
1207.47197	65500.325
1211.05612	64385.025
1214.63782	63349.325
1218.21708	62491.925
1221.79391	62084.125
1225.36829	61747.725
1228.94024	61139.625
1232.50976	60037.925
1236.07685	59013.925
1239.6415	58539.525
1243.20374	58485.125
1246.76355	58787.225
1250.32093	59518.425
1253.8759	60542.325
1257.42845	61957.125
1260.97859	63425.825
1264.52631	64996.225
1268.07163	66605.825
1271.61453	68303.825
1275.15503	69902.325
1278.69312	71481.725
1282.22882	72762.325
1285.76211	74279.425
1289.29301	76030.825
1292.82151	78264.825
1296.34761	81189.825
1299.87133	85030.625
1303.39266	89431.925
1306.9116	94297.725
1310.42815	98977.425
1313.94233	102088.325
1317.45412	102435.825
1320.96354	101090.925
1324.47058	99512.225
1327.97525	97996.825
1331.47754	96910.125
1334.97747	96221.425
1338.47502	96119.125
1341.97022	95942.825
1345.46305	95137.225
1348.95352	94007.525
1352.44163	92991.025
1355.92738	93670.825
1359.41078	96352.525
1362.89183	98783.825
1366.37053	96958.225
1369.84688	90100.925
1373.32088	81936.725
1376.79254	76437.725
1380.26186	74015.425
1383.72883	73661.325
1387.19347	73569.725
1390.65578	73106.725
1394.11575	73034.925
1397.57339	73806.225
1401.0287	75030.425
1404.48168	76398.025
1407.93234	76944.825
1411.38068	76280.125
1414.82669	74693.325
1418.27039	72213.025
1421.71177	69652.625
1425.15083	67547.025
1428.58758	66569.725
1432.02203	66881.925
1435.45416	68328.825
1438.88399	69978.125
1442.31151	71431.425
1445.73673	72436.225
1449.15965	73195.525
1452.58027	73514.525
1455.9986	73594.225
1459.41463	74163.225
1462.82837	75291.425
1466.23982	76581.625
1469.64898	77747.725
1473.05586	78410.025
1476.46045	78429.625
1479.86276	77823.525
1483.26279	76959.225
1486.66054	76397.725
1490.05602	76457.125
1493.44922	76682.825
1496.84016	77041.725
1500.22882	78127.025
1503.61521	80047.925
1506.99934	82436.925
1510.38121	84242.625
1513.76081	84304.925
1517.13816	82252.225
1520.51324	79164.125
1523.88607	76672.725
1527.25665	75574.925
1530.62498	75326.725
1533.99105	75419.025
1537.35488	75178.425
1540.71647	74601.425
1544.07581	73664.025
1547.4329	72480.525
1550.78776	71340.625
1554.14038	70299.725
1557.49077	69744.925
1560.83892	69371.525
1564.18484	69308.425
1567.52853	69370.925
1570.86999	69771.325
1574.20922	70400.825
1577.54624	70867.625
1580.88103	70748.425
1584.2136	70903.625
1587.54395	72429.325
1590.87208	75709.925
1594.19801	80289.225
1597.52172	84998.825
1600.84321	86749.025
1604.16251	83927.325
1607.47959	78463.425
1610.79447	72609.725
1614.10715	67072.925
1617.41763	62432.625
1620.7259	59127.025
1624.03199	57440.925
1627.33587	57211.525
1630.63757	58546.225
1633.93707	61694.525
1637.23439	66962.525
1640.52951	74445.125
1643.82246	82890.725
1647.11321	89012.625
1650.40179	89335.025
1653.68819	83235.225
1656.97241	73329.925
1660.25446	63915.025
1663.53433	57194.525
1666.81203	52913.225
1670.08756	50191.625
1673.36092	48585.925
1676.63211	47384.825
1679.90115	46541.525
1683.16801	45873.125
1686.43272	45433.825
1689.69527	45065.125
1692.95567	44797.825
1696.2139	44658.025
1699.46999	44544.625
1702.72392	44401.625
1705.97571	44340.925
1709.22535	44243.825
1712.47284	44191.625
1715.71819	44202.525
1718.96139	44146.725
1722.20246	43982.625
1725.44139	43815.025
1728.67818	43647.825
1731.91284	43403.025
1735.14537	43135.325
1738.37576	43022.625
1741.60403	42862.225
1744.83017	42717.125
1748.05418	42584.425
1751.27607	42518.625
1754.49584	42465.725
1757.71349	42468.225
1760.92903	42439.225
1764.14244	42382.725
1767.35375	42385.825
1770.56294	42332.525
1773.77002	42307.625
1776.97499	42275.025
1780.17785	42198.925
1783.37861	42155.225
1786.57727	42047.025
1789.77382	41952.925
1792.96828	41975.725
1796.16064	41829.025
1799.3509	41805.625
1802.53907	41735.025
1805.72514	41692.125
1808.90913	41532.725
1812.09102	41497.725
1815.27083	41396.725
1818.44856	41406.125
1821.6242	41294.325
1824.79776	41266.325
1827.96924	41234.625
1831.13864	41248.525
1834.30597	41239.125
1837.47122	41172.225
1840.6344	41085.125
1843.7955	41199.825
1846.95454	41146.325
1850.11151	41163.825
1853.26642	41150.525
1856.41926	41112.125
1859.57004	41134.125
1862.71876	41053.625
1865.86542	40974.325
1869.01003	40971.125
1872.15258	40970.125
1875.29308	40975.525
1878.43152	40813.025
1881.56792	40880.825
1884.70227	40889.725
1887.83457	40848.525
1890.96482	40861.025
1894.09304	40770.825
1897.21921	40638.925
1900.34335	40626.025
1903.46544	40564.525
1906.58551	40597.325
1909.70353	40597.425
1912.81953	40540.625
1915.93349	40491.325
1919.04543	40350.925
1922.15534	40291.825
1925.26322	40220.025
1928.36908	40154.725
1931.47292	40078.825
1934.57473	39962.425
1937.67453	39952.225
1940.77232	39731.925
1943.86808	39647.225
1946.96184	39496.625
1950.05358	39437.425
1953.14331	39307.625
1956.23103	39208.525
1959.31675	39080.425
1962.40046	38944.425
1965.48217	38773.325
1968.56188	38734.125
1971.63959	38709.125
1974.7153	38587.125
1977.78901	38462.025
1980.86073	38335.925
1983.93046	38236.125
1986.99819	38159.625
1990.06394	38066.425
1993.1277	38031.325
1996.18947	37886.025
1999.24925	37746.025
2002.30706	37681.925
2005.36288	37488.625
2008.41672	37424.425
2011.46859	37367.625
2014.51848	37252.625
2017.56639	37150.025
2020.61233	37074.125
2023.6563	36982.225
2026.6983	36848.325
2029.73833	36837.825
2032.7764	36731.325
2035.8125	36696.525
2038.84664	36638.825
2041.87881	36610.125
2044.90903	36495.225
2047.93729	36414.025
2050.96359	36402.025
2053.98794	36385.725
2057.01034	36418.125
2060.03078	36375.325
2063.04927	36392.325
2066.06582	36370.425
2069.08042	36336.425
2072.09307	36232.125
2075.10378	36204.025
2078.11255	36169.825
2081.11938	36177.625
2084.12426	36159.125
2087.12722	36142.525
2090.12824	36109.425
2093.12732	36150.625
2096.12447	36097.625
2099.11969	36130.625
2102.11299	36141.025
2105.10435	36125.125
2108.09379	36167.725
2111.08131	36190.325
2114.0669	36172.025
2117.05057	36162.825
2120.03233	36218.225
2123.01216	36198.025
2125.99008	36270.625
2128.96609	36349.825
2131.94018	36409.525
2134.91236	36407.225
2137.88263	36469.025
2140.851	36499.825
2143.81746	36502.325
2146.78201	36496.725
2149.74466	36505.825
2152.7054	36518.725
2155.66425	36554.225
2158.6212	36566.425
2161.57625	36510.225
2164.52941	36506.325
2167.48067	36477.325
2170.43004	36424.425
2173.37752	36513.525
2176.32311	36519.425
2179.26681	36529.925
2182.20863	36488.325
2185.14856	36523.725
2188.08661	36509.925
2191.02278	36511.025
2193.95707	36424.225
2196.88948	36424.125
2199.82001	36445.925
2202.74867	36385.325
2205.67545	36362.025
2208.60037	36279.625
2211.52341	36304.025
2214.44458	36296.125
2217.36388	36247.025
2220.28132	36196.925
2223.1969	36110.525
2226.11061	36045.625
2229.02246	35919.025
2231.93245	35844.125
2234.84058	35807.825
2237.74686	35789.625
2240.65128	35785.925
2243.55385	35685.525
2246.45456	35677.525
2249.35343	35626.625
2252.25044	35559.025
2255.14561	35478.825
2258.03893	35463.525
2260.93041	35434.725
2263.82004	35297.925
2266.70783	35231.825
2269.59378	35111.925
2272.4779	35082.325
2275.36017	35015.225
2278.24061	34950.825
2281.11922	34872.925
2283.996	34866.725
2286.87094	34793.325
2289.74405	34765.425
2292.61534	34763.525
2295.4848	34695.725
2298.35243	34716.225
2301.21824	34700.225
2304.08223	34698.025
2306.94439	34638.825
2309.80474	34685.725
2312.66327	34724.125
2315.51999	34673.025
2318.37489	34614.325
2321.22797	34560.925
2324.07925	34617.125
2326.92871	34514.325
2329.77637	34435.225
2332.62222	34394.825
2335.46626	34425.225
2338.3085	34430.925
2341.14893	34403.225
2343.98756	34373.425
2346.8244	34410.025
2349.65943	34403.125
2352.49267	34411.425
2355.32411	34401.425
2358.15376	34346.025
2360.98161	34333.925
2363.80768	34279.025
2366.63195	34240.025
2369.45444	34224.625
2372.27514	34159.925
2375.09405	34137.925
2377.91118	34088.125
2380.72652	33992.125
2383.54009	33946.125
2386.35187	33868.425
2389.16188	33728.925
2391.97011	33692.825
2394.77657	33653.025
2397.58125	33652.225
2400.38416	33584.025
2403.18529	33485.725
2405.98466	33501.225
2408.78226	33440.125
2411.57809	33405.725
2414.37216	33321.325
2417.16446	33300.225
2419.955	33271.325
2422.74378	33230.725
2425.5308	33267.925
2428.31606	33258.025
2431.09956	33256.525
2433.88131	33180.625
2436.6613	33268.725
2439.43954	33179.425
2442.21603	33130.225
2444.99077	33153.325
2447.76377	33139.525
2450.53501	33103.525
2453.30451	33115.525
2456.07226	33056.625
2458.83827	33055.025
2461.60254	32988.925
2464.36507	33041.825
2467.12586	33031.825
2469.88492	33028.325
2472.64224	33033.225
2475.39782	33060.925
2478.15167	33065.925
2480.90379	33031.825
2483.65417	33070.025
2486.40283	33045.225
2489.14976	33051.225
2491.89497	33021.325
2494.63845	33043.925
2497.3802	33027.925
2500.12024	33060.725
2502.85855	33036.425
2505.59514	32990.225
2508.33002	32919.725
2511.06318	32920.025
2513.79462	32904.825
2516.52435	32868.725
2519.25237	32831.425
2521.97867	32807.425
2524.70327	32784.925
2527.42616	32715.025
2530.14734	32750.925
2532.86681	32734.425
2535.58458	32713.925
2538.30065	32721.625
2541.01501	32692.325
2543.72768	32737.025
2546.43864	32666.125
2549.14791	32559.925
2551.85548	32538.925
2554.56136	32461.025
2557.26554	32388.525
2559.96803	32385.025
2562.66883	32339.425
2565.36794	32330.125
2568.06536	32281.425
2570.7611	32216.225
2573.45514	32232.225
2576.14751	32195.625
2578.83819	32140.825
2581.52719	32162.625
2584.21451	32164.925
2586.90015	32091.725
2589.58411	32056.425
2592.2664	32073.925
2594.94701	32030.425
2597.62594	32020.925
2600.30321	31994.625
2602.9788	31988.125
2605.65273	31977.925
2608.32498	31960.725
2610.99557	31924.325
2613.66449	32018.025
2616.33175	31968.025
2618.99734	31901.025
2621.66128	31842.225
2624.32355	31841.725
2626.98416	31844.425
2629.64311	31756.325
2632.30041	31749.125
2634.95605	31776.125
2637.61004	31721.225
2640.26238	31740.925
2642.91306	31716.125
2645.56209	31613.825
2648.20948	31641.925
2650.85521	31653.825
2653.4993	31687.125
2656.14175	31642.625
2658.78255	31724.625
2661.42171	31737.125
2664.05923	31743.525
2666.6951	31750.225
2669.32934	31829.725
2671.96194	31738.125
2674.59291	31785.025
2677.22224	31770.425
2679.84993	31784.525
2682.476	31663.925
2685.10043	31699.525
2687.72324	31689.625
2690.34441	31667.625
2692.96396	31639.925
2695.58188	31667.825
2698.19818	31640.125
2700.81285	31661.725
2703.4259	31610.025
2706.03733	31667.125
2708.64714	31635.925
2711.25533	31686.125
2713.86191	31700.225
2716.46687	31795.125
2719.07021	31751.025
2721.67194	31763.825
2724.27206	31714.725
2726.87057	31772.525
2729.46747	31769.225
2732.06276	31778.925
2734.65644	31794.425
2737.24852	31793.725
2739.83899	31752.125
2742.42786	31789.625
2745.01513	31700.025
2747.60079	31722.225
2750.18486	31689.225
2752.76733	31689.725
2755.3482	31674.325
2757.92747	31589.225
2760.50515	31569.125
2763.08123	31549.825
2765.65573	31548.725
2768.22863	31587.125
2770.79994	31448.925
2773.36967	31488.925
2775.9378	31529.225
2778.50435	31504.425
2781.06932	31461.325
2783.6327	31471.725
2786.1945	31461.425
2788.75471	31404.525
2791.31335	31309.125
2793.87041	31249.525
2796.42589	31229.125
2798.97979	31198.425
2801.53212	31107.125
2804.08288	31048.125
2806.63206	30993.725
2809.17967	30985.025
2811.72571	30863.825
2814.27018	30768.625
2816.81308	30675.725
2819.35442	30672.925
2821.89419	30588.225
2824.43239	30608.925
2826.96904	30598.125
2829.50412	30563.725
2832.03763	30522.325
2834.56959	30454.325
2837.1	30447.725
2839.62884	30391.925
2842.15613	30394.925
2844.68186	30375.025
2847.20604	30382.025
2849.72867	30339.425
2852.24974	30290.125
2854.76927	30233.025
2857.28724	30213.125
2859.80367	30195.325
2862.31855	30176.225
2864.83189	30133.325
2867.34368	30095.225
2869.85393	30076.225
2872.36264	30044.525
2874.8698	29986.525
2877.37543	29968.825
2879.87952	29984.425
2882.38207	29962.525
2884.88308	29986.025
2887.38256	30007.925
2889.88051	30011.625
2892.37692	29986.525
2894.8718	29995.125
2897.36515	30010.925
2899.85698	30010.525
2902.34727	30112.725
2904.83604	30091.325
2907.32328	30113.225
2909.809	30116.525
2912.29319	30180.525
2914.77587	30120.025
2917.25702	30145.525
2919.73665	30085.425
2922.21476	30127.825
2924.69136	30105.625
2927.16644	30044.725
2929.64	30057.725
2932.11205	30002.125
2934.58258	29917.525
2937.05161	29942.625
2939.51912	29955.625
2941.98513	29900.225
2944.44962	29853.625
2946.91261	29795.225
2949.37409	29825.625
2951.83407	29811.225
2954.29254	29775.025
2956.74951	29773.425
2959.20498	29773.125
2961.65895	29747.425
2964.11142	29775.625
2966.56239	29681.625
2969.01186	29703.925
2971.45984	29557.325
2973.90632	29577.325
2976.35131	29491.925
2978.7948	29466.325
2981.23681	29440.325
2983.67732	29347.725
2986.11635	29284.425
2988.55388	29219.225
2990.98993	29153.025
2993.4245	29136.225
2995.85758	29054.025
2998.28917	28938.325
3000.71928	28863.525
3003.14791	28793.525
3005.57506	28822.525
3008.00073	28729.525
3010.42493	28718.725
3012.84764	28652.525
3015.26888	28684.725
3017.68865	28598.925
3020.10694	28482.625
3022.52376	28458.125
3024.9391	28450.725
3027.35298	28396.625
3029.76539	28356.025
3032.17632	28380.525
3034.5858	28347.325
3036.9938	28300.325
3039.40034	28259.425
3041.80542	28274.825
3044.20903	28273.625
3046.61118	28194.825
3049.01187	28120.625
3051.4111	28131.925
3053.80888	28024.025
3056.20519	28006.525
3058.60005	27874.025
3060.99345	27843.525
3063.3854	27766.225
3065.7759	27721.325
3068.16494	27622.425
3070.55254	27493.225
3072.93868	27440.225
3075.32338	27391.025
3077.70662	27367.725
3080.08842	27247.125
3082.46878	27217.325
3084.84769	27121.025
3087.22515	27089.325
3089.60118	27083.225
3091.97576	27048.225
3094.3489	27066.325
3096.72061	27033.725
3099.09087	27048.325
3101.4597	27000.025
3103.82709	27022.425
3106.19305	27025.225
3108.55757	26995.225
3110.92066	26881.425
3113.28232	26879.325
3115.64255	26743.225
3118.00134	26712.025
3120.35871	26613.625
3122.71466	26579.025
3125.06917	26523.825
