Data from AgNPs_FTO_APTES_UA_20uM_CRN_1000uM_R6G_10uM_NaF_0.1M_Addition_RamanShift__16__19-30-25-026.txt Node

Date: Thu Feb 17 19:30:25 GMT 2022
User: TCL
Spectrometer: QEP01345
Trigger mode: 4
Integration Time (sec): 1.000000E1
Scans to average: 7
Electric dark correction enabled: true
Nonlinearity correction enabled: false
Boxcar width: 0
XAxis mode: Raman Shifts
Number of Pixels in Spectrum: 1044
>>>>>Begin Spectral Data<<<<<
46.04893	-0.17857
50.45542	-1.17857
54.85868	-0.89286
59.25871	0.10714
63.6555	56.96429
68.04907	58.96429
72.43941	56.96429
76.82654	63.25
81.21044	66.96429
85.59113	70.96429
89.96862	74.67857
94.34289	74.10714
98.71396	77.82143
103.08183	77.82143
107.4465	83.82143
111.80798	85.82143
116.16626	79.25
120.52136	88.39286
124.87327	87.67857
129.222	89.67857
133.56755	93.82143
137.90993	104.53571
142.24913	111.82143
146.58517	120.53571
150.91804	135.39286
155.24774	166.10714
159.57429	200.82143
163.89768	256.67857
168.21792	342.67857
172.53501	461.10714
176.84895	637.25
181.15975	900.10714
185.46741	1268.10714
189.77193	1769.53571
194.07331	2386.10714
198.37157	3098.67857
202.6667	3855.53571
206.9587	4616.82143
211.24758	5370.39286
215.53334	6102.39286
219.81599	6889.96429
224.09553	7715.10714
228.37195	8629.96429
232.64527	9616.39286
236.91549	10683.39286
241.18261	11763.25
245.44663	12775.82143
249.70755	13699.25
253.96539	14469.10714
258.22014	15076.25
262.4718	15559.25
266.72039	15887.53571
270.96589	15997.82143
275.20832	15968.10714
279.44768	15770.82143
283.68397	15571.53571
287.91719	15311.96429
292.14735	15147.39286
296.37445	15074.67857
300.59849	14996.67857
304.81948	15076.39286
309.03742	15131.10714
313.25231	15066.25
317.46415	14921.25
321.67296	14660.96429
325.87872	14492.53571
330.08145	14418.67857
334.28114	14426.53571
338.47781	14603.82143
342.67145	14788.39286
346.86207	15000.53571
351.04966	15324.67857
355.23424	15625.96429
359.4158	15929.39286
363.59435	16151.53571
367.76989	16374.39286
371.94243	16495.67857
376.11196	16597.25
380.27849	16720.96429
384.44203	16795.96429
388.60257	16860.82143
392.76012	16952.39286
396.91468	17081.10714
401.06626	17227.10714
405.21485	17371.53571
409.36047	17358.96429
413.50311	17172.82143
417.64277	17012.67857
421.77947	16884.25
425.9132	16878.39286
430.04396	16921.39286
434.17176	17006.82143
438.2966	17188.25
442.41849	17389.39286
446.53742	17677.39286
450.6534	17954.10714
454.76644	18168.96429
458.87653	18269.53571
462.98368	18266.10714
467.08789	18240.53571
471.18916	18149.10714
475.2875	17982.82143
479.38291	17854.10714
483.4754	17797.25
487.56496	17637.10714
491.6516	17655.10714
495.73531	17657.67857
499.81612	17667.82143
503.89401	17720.39286
507.96899	17802.96429
512.04106	17843.53571
516.11023	17913.53571
520.1765	17947.39286
524.23987	18001.25
528.30034	17972.39286
532.35792	17998.10714
536.41261	17964.10714
540.46441	17829.67857
544.51333	17788.39286
548.55936	17824.82143
552.60252	17879.67857
556.64279	18078.53571
560.6802	18098.10714
564.71473	18186.10714
568.7464	18209.82143
572.7752	18317.10714
576.80114	18290.96429
580.82422	18263.53571
584.84444	18318.53571
588.86181	18438.82143
592.87633	18644.67857
596.888	18832.10714
600.89682	18964.53571
604.9028	19525.39286
608.90594	21020.96429
612.90624	22792.25
616.90371	22220.82143
620.89834	19769.96429
624.89015	18499.96429
628.87913	18377.82143
632.86528	18469.96429
636.84862	18628.96429
640.82913	18515.25
644.80683	18292.96429
648.78172	18121.10714
652.75379	18118.82143
656.72306	18296.25
660.68952	18517.67857
664.65319	18490.25
668.61405	18363.39286
672.57211	18422.67857
676.52738	18650.53571
680.47986	18775.25
684.42955	18709.82143
688.37646	18551.10714
692.32058	18459.67857
696.26192	18494.53571
700.20048	18534.25
704.13626	18559.82143
708.06928	18478.53571
711.99952	18374.67857
715.927	18297.25
719.85171	18308.82143
723.77365	18314.96429
727.69284	18314.82143
731.60928	18272.10714
735.52295	18244.82143
739.43388	18239.96429
743.34206	18225.82143
747.24749	18218.96429
751.15017	18240.67857
755.05012	18294.67857
758.94733	18493.10714
762.8418	18904.67857
766.73354	19739.25
770.62254	20700.67857
774.50882	21289.39286
778.39237	20988.96429
782.27321	20060.10714
786.15132	19100.39286
790.02671	18465.39286
793.89938	18092.96429
797.76935	17950.82143
801.6366	17926.67857
805.50115	17907.96429
809.36299	17862.67857
813.22213	17780.96429
817.07857	17778.25
820.93231	17723.25
824.78336	17727.53571
828.63172	17708.10714
832.47738	17749.39286
836.32036	17757.67857
840.16066	17728.96429
843.99827	17751.82143
847.8332	17718.67857
851.66546	17766.82143
855.49504	17752.67857
859.32195	17785.96429
863.1462	17866.82143
866.96777	17930.67857
870.78668	17872.96429
874.60293	17900.96429
878.41652	17921.96429
882.22745	17910.25
886.03573	17932.39286
889.84136	17982.39286
893.64433	17934.96429
897.44466	17834.39286
901.24235	17756.96429
905.0374	17678.82143
908.8298	17619.25
912.61957	17558.10714
916.40671	17552.67857
920.19121	17625.96429
923.97308	17693.39286
927.75233	17737.67857
931.52895	17737.67857
935.30295	17735.25
939.07433	17590.10714
942.84309	17484.25
946.60924	17388.39286
950.37278	17312.82143
954.13371	17271.53571
957.89203	17203.96429
961.64774	17156.96429
965.40086	17114.53571
969.15137	17116.53571
972.89929	17044.53571
976.64461	17042.96429
980.38733	17048.39286
984.12747	17070.67857
987.86502	17145.39286
991.59999	17243.67857
995.33237	17299.53571
999.06217	17455.25
1002.78939	17656.10714
1006.51404	17729.39286
1010.23611	17795.67857
1013.95561	17891.96429
1017.67255	17968.25
1021.38692	17922.67857
1025.09872	17885.82143
1028.80796	17755.96429
1032.51465	17816.53571
1036.21877	17870.67857
1039.92035	17873.25
1043.61937	17914.82143
1047.31584	17899.10714
1051.00976	17825.39286
1054.70114	17847.25
1058.38998	17804.39286
1062.07627	17858.10714
1065.76003	17896.67857
1069.44126	17937.67857
1073.11995	17990.96429
1076.79611	18098.25
1080.46974	18174.10714
1084.14085	18257.39286
1087.80943	18310.82143
1091.47549	18351.39286
1095.13903	18279.53571
1098.80005	18194.82143
1102.45857	18065.82143
1106.11456	18040.10714
1109.76805	18054.10714
1113.41903	18127.82143
1117.06751	18182.39286
1120.71348	18367.39286
1124.35696	18537.96429
1127.99793	18709.39286
1131.63641	18819.82143
1135.2724	18723.10714
1138.90589	18535.53571
1142.5369	18350.25
1146.16542	18171.67857
1149.79145	18076.25
1153.415	18023.82143
1157.03607	18025.96429
1160.65467	18082.10714
1164.27079	18299.25
1167.88443	18685.25
1171.49561	19239.25
1175.10432	19874.10714
1178.71056	20761.82143
1182.31434	21628.53571
1185.91565	22067.96429
1189.51451	22065.96429
1193.11091	21670.82143
1196.70485	21088.82143
1200.29634	20640.25
1203.88538	20145.96429
1207.47197	19730.25
1211.05612	19266.53571
1214.63782	18961.96429
1218.21708	18831.67857
1221.79391	18775.25
1225.36829	18836.53571
1228.94024	18836.67857
1232.50976	18744.53571
1236.07685	18642.25
1239.6415	18644.10714
1243.20374	18653.96429
1246.76355	18774.39286
1250.32093	18826.39286
1253.8759	18973.96429
1257.42845	19166.39286
1260.97859	19383.10714
1264.52631	19542.67857
1268.07163	19821.25
1271.61453	20058.39286
1275.15503	20252.10714
1278.69312	20443.53571
1282.22882	20565.25
1285.76211	20708.39286
1289.29301	20939.82143
1292.82151	21158.39286
1296.34761	21422.96429
1299.87133	21940.53571
1303.39266	22555.67857
1306.9116	23385.39286
1310.42815	24407.53571
1313.94233	25009.39286
1317.45412	24832.67857
1320.96354	24241.10714
1324.47058	23564.67857
1327.97525	22853.53571
1331.47754	22356.25
1334.97747	22155.96429
1338.47502	22133.53571
1341.97022	22349.39286
1345.46305	22753.39286
1348.95352	23304.53571
1352.44163	24088.53571
1355.92738	25007.53571
1359.41078	26134.67857
1362.89183	27068.82143
1366.37053	26731.25
1369.84688	24789.82143
1373.32088	22685.10714
1376.79254	21261.96429
1380.26186	20462.67857
1383.72883	20077.39286
1387.19347	19748.96429
1390.65578	19424.39286
1394.11575	19115.82143
1397.57339	18964.82143
1401.0287	18909.67857
1404.48168	18931.96429
1407.93234	19009.96429
1411.38068	19008.10714
1414.82669	18987.25
1418.27039	18977.39286
1421.71177	18893.82143
1425.15083	18748.53571
1428.58758	18602.10714
1432.02203	18543.82143
1435.45416	18631.39286
1438.88399	18709.96429
1442.31151	18758.25
1445.73673	18733.96429
1449.15965	18771.39286
1452.58027	18769.10714
1455.9986	18762.10714
1459.41463	18748.82143
1462.82837	18905.53571
1466.23982	19072.39286
1469.64898	19315.10714
1473.05586	19510.10714
1476.46045	19635.67857
1479.86276	19725.25
1483.26279	19740.67857
1486.66054	19826.53571
1490.05602	19994.39286
1493.44922	20215.67857
1496.84016	20620.53571
1500.22882	21267.96429
1503.61521	22156.96429
1506.99934	23130.53571
1510.38121	23924.39286
1513.76081	24064.67857
1517.13816	23373.10714
1520.51324	22286.39286
1523.88607	21166.82143
1527.25665	20451.39286
1530.62498	20068.82143
1533.99105	19863.96429
1537.35488	19706.39286
1540.71647	19652.67857
1544.07581	19536.39286
1547.4329	19461.39286
1550.78776	19431.10714
1554.14038	19334.96429
1557.49077	19379.96429
1560.83892	19445.82143
1564.18484	19513.82143
1567.52853	19671.82143
1570.86999	19882.10714
1574.20922	19973.82143
1577.54624	19976.25
1580.88103	19728.10714
1584.2136	19346.10714
1587.54395	19126.10714
1590.87208	19173.96429
1594.19801	19543.39286
1597.52172	20152.53571
1600.84321	20531.82143
1604.16251	20351.82143
1607.47959	19916.82143
1610.79447	19360.82143
1614.10715	18723.39286
1617.41763	18178.96429
1620.7259	17758.10714
1624.03199	17485.39286
1627.33587	17364.67857
1630.63757	17436.25
1633.93707	17749.82143
1637.23439	18265.39286
1640.52951	18972.82143
1643.82246	20034.25
1647.11321	21037.82143
1650.40179	21540.67857
1653.68819	21080.67857
1656.97241	19797.53571
1660.25446	18478.25
1663.53433	17504.82143
1666.81203	16909.53571
1670.08756	16476.53571
1673.36092	16226.53571
1676.63211	16072.67857
1679.90115	15927.10714
1683.16801	15787.53571
1686.43272	15677.82143
1689.69527	15628.25
1692.95567	15533.67857
1696.2139	15461.82143
1699.46999	15466.10714
1702.72392	15433.10714
1705.97571	15400.39286
1709.22535	15381.53571
1712.47284	15318.96429
1715.71819	15366.25
1718.96139	15282.96429
1722.20246	15269.10714
1725.44139	15223.39286
1728.67818	15190.82143
1731.91284	15158.67857
1735.14537	15100.82143
1738.37576	15091.25
1741.60403	15035.39286
1744.83017	15003.67857
1748.05418	15020.96429
1751.27607	15020.25
1754.49584	14984.53571
1757.71349	14999.96429
1760.92903	14987.67857
1764.14244	14968.10714
1767.35375	14917.10714
1770.56294	14833.53571
1773.77002	14766.10714
1776.97499	14728.53571
1780.17785	14710.82143
1783.37861	14661.39286
1786.57727	14636.82143
1789.77382	14608.67857
1792.96828	14577.82143
1796.16064	14495.96429
1799.3509	14464.67857
1802.53907	14442.96429
1805.72514	14396.96429
1808.90913	14342.25
1812.09102	14334.67857
1815.27083	14309.96429
1818.44856	14312.53571
1821.6242	14278.10714
1824.79776	14262.96429
1827.96924	14251.82143
1831.13864	14243.96429
1834.30597	14205.39286
1837.47122	14172.82143
1840.6344	14169.96429
1843.7955	14172.10714
1846.95454	14118.39286
1850.11151	14129.53571
1853.26642	14112.96429
1856.41926	14087.67857
1859.57004	14088.10714
1862.71876	14063.53571
1865.86542	14089.53571
1869.01003	14088.96429
1872.15258	14064.10714
1875.29308	14051.82143
1878.43152	14012.10714
1881.56792	14024.96429
1884.70227	14012.96429
1887.83457	13986.39286
1890.96482	13942.53571
1894.09304	13943.67857
1897.21921	13888.10714
1900.34335	13918.67857
1903.46544	13910.10714
1906.58551	13904.53571
1909.70353	13822.10714
1912.81953	13832.67857
1915.93349	13823.39286
1919.04543	13804.25
1922.15534	13755.67857
1925.26322	13754.25
1928.36908	13712.25
1931.47292	13689.67857
1934.57473	13688.39286
1937.67453	13685.96429
1940.77232	13651.53571
1943.86808	13578.10714
1946.96184	13534.96429
1950.05358	13512.39286
1953.14331	13497.39286
1956.23103	13483.96429
1959.31675	13459.96429
1962.40046	13390.39286
1965.48217	13361.96429
1968.56188	13342.10714
1971.63959	13281.39286
1974.7153	13259.39286
1977.78901	13227.10714
1980.86073	13172.82143
1983.93046	13114.10714
1986.99819	13078.82143
1990.06394	13057.25
1993.1277	13029.25
1996.18947	12960.96429
1999.24925	12930.39286
2002.30706	12882.25
2005.36288	12821.67857
2008.41672	12791.82143
2011.46859	12773.25
2014.51848	12715.82143
2017.56639	12683.82143
2020.61233	12667.96429
2023.6563	12624.25
2026.6983	12611.53571
2029.73833	12565.96429
2032.7764	12528.96429
2035.8125	12522.39286
2038.84664	12477.39286
2041.87881	12454.39286
2044.90903	12426.39286
2047.93729	12404.67857
2050.96359	12421.25
2053.98794	12372.25
2057.01034	12415.67857
2060.03078	12390.82143
2063.04927	12347.96429
2066.06582	12364.53571
2069.08042	12335.82143
2072.09307	12338.67857
2075.10378	12341.96429
2078.11255	12341.82143
2081.11938	12317.39286
2084.12426	12322.96429
2087.12722	12313.39286
2090.12824	12311.96429
2093.12732	12303.53571
2096.12447	12323.82143
2099.11969	12296.25
2102.11299	12326.53571
2105.10435	12328.96429
2108.09379	12334.96429
2111.08131	12311.25
2114.0669	12326.82143
2117.05057	12342.67857
2120.03233	12370.67857
2123.01216	12375.53571
2125.99008	12399.96429
2128.96609	12400.25
2131.94018	12445.53571
2134.91236	12432.96429
2137.88263	12411.25
2140.851	12439.96429
2143.81746	12445.10714
2146.78201	12456.10714
2149.74466	12473.82143
2152.7054	12457.10714
2155.66425	12436.10714
2158.6212	12456.10714
2161.57625	12429.39286
2164.52941	12416.25
2167.48067	12412.82143
2170.43004	12415.25
2173.37752	12407.53571
2176.32311	12419.39286
2179.26681	12404.39286
2182.20863	12390.39286
2185.14856	12416.39286
2188.08661	12394.96429
2191.02278	12402.96429
2193.95707	12402.82143
2196.88948	12356.25
2199.82001	12385.25
2202.74867	12338.53571
2205.67545	12356.25
2208.60037	12361.67857
2211.52341	12305.53571
2214.44458	12294.53571
2217.36388	12300.67857
2220.28132	12259.67857
2223.1969	12243.10714
2226.11061	12209.25
2229.02246	12183.39286
2231.93245	12156.53571
2234.84058	12117.39286
2237.74686	12109.10714
2240.65128	12137.53571
2243.55385	12114.82143
2246.45456	12067.96429
2249.35343	12037.67857
2252.25044	12054.10714
2255.14561	12043.25
2258.03893	12038.25
2260.93041	12022.82143
2263.82004	12004.25
2266.70783	11941.82143
2269.59378	11937.53571
2272.4779	11894.96429
2275.36017	11859.96429
2278.24061	11830.10714
2281.11922	11824.82143
2283.996	11821.53571
2286.87094	11804.25
2289.74405	11771.53571
2292.61534	11764.39286
2295.4848	11763.25
2298.35243	11730.67857
2301.21824	11751.39286
2304.08223	11737.82143
2306.94439	11679.25
2309.80474	11682.82143
2312.66327	11695.53571
2315.51999	11699.25
2318.37489	11653.67857
2321.22797	11659.53571
2324.07925	11620.82143
2326.92871	11604.67857
2329.77637	11589.53571
2332.62222	11560.53571
2335.46626	11574.96429
2338.3085	11547.67857
2341.14893	11554.96429
2343.98756	11555.96429
2346.8244	11521.39286
2349.65943	11520.10714
2352.49267	11480.82143
2355.32411	11503.53571
2358.15376	11507.96429
2360.98161	11488.10714
2363.80768	11470.82143
2366.63195	11460.10714
2369.45444	11440.67857
2372.27514	11433.67857
2375.09405	11414.39286
2377.91118	11421.53571
2380.72652	11394.53571
2383.54009	11342.96429
2386.35187	11326.39286
2389.16188	11291.10714
2391.97011	11274.67857
2394.77657	11262.39286
2397.58125	11268.39286
2400.38416	11291.39286
2403.18529	11253.25
2405.98466	11218.82143
2408.78226	11178.25
2411.57809	11174.82143
2414.37216	11119.25
2417.16446	11158.39286
2419.955	11118.67857
2422.74378	11150.96429
2425.5308	11122.96429
2428.31606	11110.39286
2431.09956	11131.53571
2433.88131	11088.67857
2436.6613	11086.39286
2439.43954	11074.67857
2442.21603	11077.82143
2444.99077	11044.53571
2447.76377	11053.10714
2450.53501	11031.53571
2453.30451	11023.53571
2456.07226	11026.39286
2458.83827	10971.67857
2461.60254	10967.10714
2464.36507	10941.25
2467.12586	10939.96429
2469.88492	10922.82143
2472.64224	10938.25
2475.39782	10930.25
2478.15167	10918.25
2480.90379	10927.25
2483.65417	10921.67857
2486.40283	10923.96429
2489.14976	10931.25
2491.89497	10918.67857
2494.63845	10946.67857
2497.3802	10924.25
2500.12024	10907.67857
2502.85855	10895.25
2505.59514	10855.25
2508.33002	10845.96429
2511.06318	10823.39286
2513.79462	10799.53571
2516.52435	10808.39286
2519.25237	10769.10714
2521.97867	10723.39286
2524.70327	10761.67857
2527.42616	10766.53571
2530.14734	10766.39286
2532.86681	10725.10714
2535.58458	10705.82143
2538.30065	10699.39286
2541.01501	10676.39286
2543.72768	10678.39286
2546.43864	10658.82143
2549.14791	10658.96429
2551.85548	10633.53571
2554.56136	10600.82143
2557.26554	10596.53571
2559.96803	10593.10714
2562.66883	10526.10714
2565.36794	10521.67857
2568.06536	10505.67857
2570.7611	10475.67857
2573.45514	10493.96429
2576.14751	10459.53571
2578.83819	10443.96429
2581.52719	10413.53571
2584.21451	10421.25
2586.90015	10387.10714
2589.58411	10412.82143
2592.2664	10388.25
2594.94701	10363.39286
2597.62594	10319.53571
2600.30321	10302.67857
2602.9788	10282.25
2605.65273	10260.67857
2608.32498	10281.96429
2610.99557	10271.82143
2613.66449	10259.82143
2616.33175	10281.10714
2618.99734	10255.96429
2621.66128	10215.53571
2624.32355	10191.67857
2626.98416	10180.10714
2629.64311	10156.10714
2632.30041	10182.25
2634.95605	10135.67857
2637.61004	10105.96429
2640.26238	10114.82143
2642.91306	10109.53571
2645.56209	10112.96429
2648.20948	10119.39286
2650.85521	10087.82143
2653.4993	10103.67857
2656.14175	10087.82143
2658.78255	10099.53571
2661.42171	10109.25
2664.05923	10131.82143
2666.6951	10109.96429
2669.32934	10100.10714
2671.96194	10097.96429
2674.59291	10116.25
2677.22224	10069.67857
2679.84993	10088.82143
2682.476	10062.10714
2685.10043	10101.39286
2687.72324	10071.53571
2690.34441	10069.25
2692.96396	10086.53571
2695.58188	10063.96429
2698.19818	10091.39286
2700.81285	10090.25
2703.4259	10064.39286
2706.03733	10049.25
2708.64714	10077.96429
2711.25533	10102.10714
2713.86191	10065.53571
2716.46687	10085.10714
2719.07021	10064.25
2721.67194	10085.53571
2724.27206	10067.82143
2726.87057	10097.10714
2729.46747	10062.25
2732.06276	10059.96429
2734.65644	10064.10714
2737.24852	10018.39286
2739.83899	10012.96429
2742.42786	10037.82143
2745.01513	10021.10714
2747.60079	10005.82143
2750.18486	9978.10714
2752.76733	9991.67857
2755.3482	9957.39286
2757.92747	9963.82143
2760.50515	9968.67857
2763.08123	9954.67857
2765.65573	9936.82143
2768.22863	9923.96429
2770.79994	9905.10714
2773.36967	9917.10714
2775.9378	9903.10714
2778.50435	9898.25
2781.06932	9898.25
2783.6327	9845.82143
2786.1945	9842.82143
2788.75471	9815.82143
2791.31335	9808.96429
2793.87041	9782.39286
2796.42589	9791.25
2798.97979	9778.53571
2801.53212	9749.53571
2804.08288	9746.10714
2806.63206	9710.53571
2809.17967	9699.82143
2811.72571	9673.53571
2814.27018	9680.53571
2816.81308	9642.39286
2819.35442	9625.39286
2821.89419	9609.25
2824.43239	9609.82143
2826.96904	9592.82143
2829.50412	9595.82143
2832.03763	9588.96429
2834.56959	9585.39286
2837.1	9607.39286
2839.62884	9557.10714
2842.15613	9541.96429
2844.68186	9543.82143
2847.20604	9541.39286
2849.72867	9529.67857
2852.24974	9522.82143
2854.76927	9491.10714
2857.28724	9480.39286
2859.80367	9462.53571
2862.31855	9455.96429
2864.83189	9436.39286
2867.34368	9438.10714
2869.85393	9460.96429
2872.36264	9462.82143
2874.8698	9429.10714
2877.37543	9428.96429
2879.87952	9444.96429
2882.38207	9459.53571
2884.88308	9439.39286
2887.38256	9451.25
2889.88051	9455.10714
2892.37692	9477.67857
2894.8718	9471.39286
2897.36515	9485.96429
2899.85698	9509.67857
2902.34727	9525.25
2904.83604	9520.96429
2907.32328	9505.39286
2909.809	9527.53571
2912.29319	9585.10714
2914.77587	9558.25
2917.25702	9584.67857
2919.73665	9578.39286
2922.21476	9603.53571
2924.69136	9565.39286
2927.16644	9554.39286
2929.64	9548.96429
2932.11205	9574.53571
2934.58258	9538.67857
2937.05161	9563.96429
2939.51912	9549.82143
2941.98513	9548.96429
2944.44962	9533.67857
2946.91261	9525.67857
2949.37409	9566.25
2951.83407	9510.82143
2954.29254	9516.82143
2956.74951	9487.82143
2959.20498	9476.96429
2961.65895	9478.10714
2964.11142	9462.39286
2966.56239	9439.25
2969.01186	9436.10714
2971.45984	9410.53571
2973.90632	9390.82143
2976.35131	9370.67857
