Data from AgNPs_FTO_APTES_UA_20uM_CRN_10uM_R6G_10uM_NaF_0.1M_Addition_RamanShift__14__14-26-42-201.txt Node

Date: Thu Feb 17 14:26:42 GMT 2022
User: TCL
Spectrometer: QEP01345
Trigger mode: 4
Integration Time (sec): 7.000000E0
Scans to average: 10
Electric dark correction enabled: true
Nonlinearity correction enabled: false
Boxcar width: 0
XAxis mode: Raman Shifts
Number of Pixels in Spectrum: 1044
>>>>>Begin Spectral Data<<<<<
46.04893	-0.15
50.45542	-1.95
54.85868	-4.05
59.25871	-0.65
63.6555	131.15
68.04907	132.35
72.43941	134.05
76.82654	137.05
81.21044	140.85
85.59113	144.95
89.96862	147.95
94.34289	150.95
98.71396	157.65
103.08183	163.65
107.4465	170.65
111.80798	171.85
116.16626	181.25
120.52136	185.15
124.87327	190.85
129.222	208.15
133.56755	221.25
137.90993	236.05
142.24913	262.75
146.58517	297.65
150.91804	351.95
155.24774	414.75
159.57429	519.95
163.89768	673.15
168.21792	896.45
172.53501	1238.45
176.84895	1738.05
181.15975	2465.35
185.46741	3480.05
189.77193	4822.75
194.07331	6510.15
198.37157	8442.65
202.6667	10492.35
206.9587	12513.85
211.24758	14475.25
215.53334	16429.75
219.81599	18430.35
224.09553	20606.95
228.37195	23045.85
232.64527	25704.65
236.91549	28591.55
241.18261	31642.95
245.44663	34599.95
249.70755	37365.25
253.96539	39908.65
258.22014	42035.35
262.4718	43692.25
266.72039	44868.35
270.96589	45483.05
275.20832	45644.85
279.44768	45483.75
283.68397	45113.55
287.91719	44734.15
292.14735	44364.25
296.37445	44199.45
300.59849	43988.35
304.81948	43955.35
309.03742	43801.15
313.25231	43684.05
317.46415	43319.75
321.67296	42933.85
325.87872	42581.05
330.08145	42573.45
334.28114	42748.35
338.47781	43112.35
342.67145	43598.55
346.86207	44121.45
351.04966	44719.85
355.23424	45292.25
359.4158	45879.75
363.59435	46368.45
367.76989	46763.45
371.94243	47092.35
376.11196	47482.45
380.27849	47799.05
384.44203	48120.75
388.60257	48537.05
392.76012	48923.05
396.91468	49422.85
401.06626	50001.45
405.21485	50456.65
409.36047	50635.55
413.50311	50468.05
417.64277	50284.45
421.77947	50338.85
425.9132	50567.05
430.04396	50968.95
434.17176	51196.25
438.2966	51555.45
442.41849	51981.65
446.53742	52591.05
450.6534	53232.55
454.76644	53837.95
458.87653	54189.55
462.98368	54337.55
467.08789	54374.55
471.18916	54221.25
475.2875	54033.55
479.38291	53825.25
483.4754	53590.75
487.56496	53388.45
491.6516	53318.95
495.73531	53273.25
499.81612	53207.85
503.89401	53423.85
507.96899	53600.15
512.04106	53707.15
516.11023	53778.95
520.1765	53765.45
524.23987	53755.25
528.30034	53659.25
532.35792	53604.05
536.41261	53429.85
540.46441	53364.75
544.51333	53418.25
548.55936	53702.35
552.60252	54174.05
556.64279	54655.25
560.6802	55057.45
564.71473	55239.25
568.7464	55439.95
572.7752	55930.75
576.80114	56538.35
580.82422	57329.15
584.84444	58038.65
588.86181	58439.35
592.87633	58570.35
596.888	58682.95
600.89682	58906.95
604.9028	59736.65
608.90594	61788.05
612.90624	63902.55
616.90371	62051.05
620.89834	58062.05
624.89015	56182.35
628.87913	55939.65
632.86528	56318.55
636.84862	56529.75
640.82913	56365.95
644.80683	55903.75
648.78172	55490.65
652.75379	55477.75
656.72306	55852.95
660.68952	56338.55
664.65319	56463.95
668.61405	56156.55
672.57211	56241.05
676.52738	56476.75
680.47986	56533.45
684.42955	56366.85
688.37646	56367.35
692.32058	56526.05
696.26192	56884.95
700.20048	57244.95
704.13626	57545.45
708.06928	57731.45
711.99952	57604.45
715.927	57474.95
719.85171	57498.45
723.77365	57500.75
727.69284	57395.15
731.60928	57090.65
735.52295	56865.95
739.43388	56959.75
743.34206	57143.95
747.24749	57280.15
751.15017	57443.75
755.05012	57801.15
758.94733	58385.45
762.8418	59421.15
766.73354	61288.85
770.62254	63083.85
774.50882	63547.45
778.39237	62556.75
782.27321	60854.85
786.15132	59348.65
790.02671	58373.05
793.89938	57845.25
797.76935	57565.25
801.6366	57420.85
805.50115	57302.35
809.36299	57263.65
813.22213	57204.85
817.07857	57178.65
820.93231	57239.55
824.78336	57286.45
828.63172	57380.95
832.47738	57387.55
836.32036	57409.25
840.16066	57459.55
843.99827	57474.25
847.8332	57605.35
851.66546	57663.55
855.49504	57733.85
859.32195	57827.85
863.1462	57839.45
866.96777	57976.25
870.78668	58096.75
874.60293	58222.85
878.41652	58229.45
882.22745	58342.05
886.03573	58422.75
889.84136	58446.05
893.64433	58327.05
897.44466	58216.35
901.24235	58156.25
905.0374	58220.25
908.8298	58112.65
912.61957	58151.85
916.40671	58360.15
920.19121	58546.75
923.97308	58705.25
927.75233	58622.25
931.52895	58444.45
935.30295	58255.05
939.07433	58011.85
942.84309	57714.95
946.60924	57533.25
950.37278	57502.85
954.13371	57558.35
957.89203	57539.05
961.64774	57557.35
965.40086	57493.85
969.15137	57396.95
972.89929	57272.15
976.64461	57304.95
980.38733	57253.25
984.12747	57309.85
987.86502	57488.25
991.59999	57685.55
995.33237	57873.45
999.06217	58194.65
1002.78939	58594.95
1006.51404	59150.75
1010.23611	59624.25
1013.95561	59999.05
1017.67255	60141.05
1021.38692	59917.95
1025.09872	59652.05
1028.80796	59372.95
1032.51465	59073.35
1036.21877	59103.35
1039.92035	59147.35
1043.61937	59303.75
1047.31584	59477.15
1051.00976	59628.05
1054.70114	59850.95
1058.38998	60065.55
1062.07627	60323.35
1065.76003	60811.45
1069.44126	61276.05
1073.11995	61830.35
1076.79611	62296.55
1080.46974	62572.35
1084.14085	62722.15
1087.80943	62783.55
1091.47549	63022.45
1095.13903	63147.85
1098.80005	63016.35
1102.45857	62607.95
1106.11456	62216.85
1109.76805	61827.65
1113.41903	61727.15
1117.06751	61687.15
1120.71348	61804.35
1124.35696	62105.45
1127.99793	62308.35
1131.63641	62413.35
1135.2724	62275.55
1138.90589	62076.85
1142.5369	62169.35
1146.16542	62104.75
1149.79145	62203.75
1153.415	62280.35
1157.03607	62367.35
1160.65467	62726.85
1164.27079	63405.95
1167.88443	64480.15
1171.49561	65672.95
1175.10432	67245.95
1178.71056	69131.95
1182.31434	71075.25
1185.91565	72393.55
1189.51451	73044.35
1193.11091	73134.25
1196.70485	72427.35
1200.29634	71433.25
1203.88538	70292.35
1207.47197	69349.85
1211.05612	68428.55
1214.63782	67719.35
1218.21708	66993.25
1221.79391	66371.85
1225.36829	66043.85
1228.94024	65865.95
1232.50976	65701.45
1236.07685	65565.25
1239.6415	65612.05
1243.20374	65718.75
1246.76355	66016.25
1250.32093	66353.55
1253.8759	66874.95
1257.42845	67651.95
1260.97859	68412.85
1264.52631	69166.65
1268.07163	69851.45
1271.61453	70393.15
1275.15503	70859.55
1278.69312	71352.95
1282.22882	71719.45
1285.76211	72241.35
1289.29301	72915.95
1292.82151	73542.15
1296.34761	74486.95
1299.87133	75688.15
1303.39266	76983.15
1306.9116	78545.75
1310.42815	80047.15
1313.94233	81053.55
1317.45412	81079.35
1320.96354	80700.55
1324.47058	80351.05
1327.97525	79867.25
1331.47754	79684.25
1334.97747	79922.55
1338.47502	80742.45
1341.97022	81844.85
1345.46305	83190.25
1348.95352	84221.95
1352.44163	84539.15
1355.92738	84500.95
1359.41078	84455.25
1362.89183	84310.95
1366.37053	82817.35
1369.84688	79557.05
1373.32088	75944.85
1376.79254	73269.65
1380.26186	71630.55
1383.72883	70878.05
1387.19347	70360.25
1390.65578	69694.55
1394.11575	69062.65
1397.57339	68572.25
1401.0287	68422.05
1404.48168	68433.55
1407.93234	68417.25
1411.38068	68338.15
1414.82669	68008.05
1418.27039	67448.95
1421.71177	66714.35
1425.15083	66022.15
1428.58758	65740.75
1432.02203	65683.95
1435.45416	65879.35
1438.88399	66314.45
1442.31151	66746.25
1445.73673	67038.35
1449.15965	67389.85
1452.58027	67681.85
1455.9986	67891.45
1459.41463	68225.55
1462.82837	68886.95
1466.23982	69601.65
1469.64898	70502.15
1473.05586	71225.75
1476.46045	71706.75
1479.86276	72051.95
1483.26279	72091.85
1486.66054	72058.75
1490.05602	72441.05
1493.44922	73017.15
1496.84016	73873.75
1500.22882	75147.65
1503.61521	76913.25
1506.99934	78641.75
1510.38121	79522.85
1513.76081	79245.75
1517.13816	77847.25
1520.51324	76146.55
1523.88607	74845.45
1527.25665	74057.35
1530.62498	73667.55
1533.99105	73412.65
1537.35488	72970.35
1540.71647	72490.55
1544.07581	71980.25
1547.4329	71572.65
1550.78776	71086.25
1554.14038	70708.95
1557.49077	70526.35
1560.83892	70459.25
1564.18484	70477.45
1567.52853	70656.75
1570.86999	70883.45
1574.20922	70977.35
1577.54624	70982.25
1580.88103	70394.05
1584.2136	69791.15
1587.54395	69822.85
1590.87208	70575.05
1594.19801	71863.85
1597.52172	73462.05
1600.84321	74230.75
1604.16251	73693.75
1607.47959	72448.75
1610.79447	70837.55
1614.10715	68885.15
1617.41763	66878.75
1620.7259	65227.05
1624.03199	64054.15
1627.33587	63654.45
1630.63757	63757.75
1633.93707	64667.25
1637.23439	66451.45
1640.52951	69207.45
1643.82246	72565.45
1647.11321	75598.05
1650.40179	76754.55
1653.68819	75426.65
1656.97241	71877.55
1660.25446	67915.35
1663.53433	64563.05
1666.81203	62284.15
1670.08756	60770.55
1673.36092	59747.65
1676.63211	59007.85
1679.90115	58476.75
1683.16801	57998.75
1686.43272	57694.95
1689.69527	57564.15
1692.95567	57347.35
1696.2139	57301.45
1699.46999	57225.95
1702.72392	57118.45
1705.97571	57113.65
1709.22535	56967.85
1712.47284	57020.95
1715.71819	57014.85
1718.96139	57002.85
1722.20246	56887.85
1725.44139	56797.05
1728.67818	56646.75
1731.91284	56444.45
1735.14537	56330.55
1738.37576	56219.05
1741.60403	56073.85
1744.83017	55856.95
1748.05418	55803.15
1751.27607	55717.25
1754.49584	55730.05
1757.71349	55773.45
1760.92903	55733.55
1764.14244	55662.05
1767.35375	55607.25
1770.56294	55571.45
1773.77002	55547.65
1776.97499	55493.95
1780.17785	55426.45
1783.37861	55347.55
1786.57727	55303.25
1789.77382	55226.95
1792.96828	55211.95
1796.16064	55122.85
1799.3509	55051.45
1802.53907	54955.85
1805.72514	54912.15
1808.90913	54762.55
1812.09102	54695.45
1815.27083	54587.85
1818.44856	54593.65
1821.6242	54441.15
1824.79776	54457.45
1827.96924	54441.25
1831.13864	54348.85
1834.30597	54350.55
1837.47122	54304.65
1840.6344	54173.25
1843.7955	54198.55
1846.95454	54193.75
1850.11151	54153.15
1853.26642	54187.55
1856.41926	54164.25
1859.57004	54135.25
1862.71876	54109.75
1865.86542	54077.35
1869.01003	53978.05
1872.15258	53883.15
1875.29308	53839.05
1878.43152	53734.55
1881.56792	53722.75
1884.70227	53712.75
1887.83457	53639.05
1890.96482	53606.35
1894.09304	53510.05
1897.21921	53385.95
1900.34335	53341.45
1903.46544	53210.45
1906.58551	53236.05
1909.70353	53226.75
1912.81953	53196.15
1915.93349	53102.65
1919.04543	52993.85
1922.15534	52936.95
1925.26322	52853.65
1928.36908	52766.15
1931.47292	52716.65
1934.57473	52605.85
1937.67453	52551.75
1940.77232	52419.15
1943.86808	52277.95
1946.96184	52157.75
1950.05358	51993.45
1953.14331	51852.65
1956.23103	51758.45
1959.31675	51578.55
1962.40046	51495.65
1965.48217	51281.25
1968.56188	51149.95
1971.63959	50966.45
1974.7153	50862.65
1977.78901	50700.35
1980.86073	50593.05
1983.93046	50458.85
1986.99819	50302.85
1990.06394	50184.55
1993.1277	50077.45
1996.18947	49945.75
1999.24925	49834.15
2002.30706	49712.15
2005.36288	49571.35
2008.41672	49379.65
2011.46859	49273.65
2014.51848	49181.25
2017.56639	48993.45
2020.61233	48872.85
2023.6563	48718.25
2026.6983	48631.55
2029.73833	48470.15
2032.7764	48361.05
2035.8125	48263.15
2038.84664	48164.45
2041.87881	48108.35
2044.90903	48048.85
2047.93729	48005.45
2050.96359	47923.45
2053.98794	47875.45
2057.01034	47834.55
2060.03078	47832.25
2063.04927	47771.05
2066.06582	47735.05
2069.08042	47707.45
2072.09307	47676.45
2075.10378	47569.45
2078.11255	47564.15
2081.11938	47629.15
2084.12426	47579.95
2087.12722	47611.85
2090.12824	47583.85
2093.12732	47595.85
2096.12447	47598.45
2099.11969	47546.45
2102.11299	47564.55
2105.10435	47513.55
2108.09379	47605.55
2111.08131	47653.65
2114.0669	47572.35
2117.05057	47676.15
2120.03233	47765.45
2123.01216	47803.05
2125.99008	47890.25
2128.96609	47916.45
2131.94018	47951.75
2134.91236	47993.25
2137.88263	48034.05
2140.851	48022.65
2143.81746	48111.45
2146.78201	48122.05
2149.74466	48169.95
2152.7054	48158.15
2155.66425	48102.85
2158.6212	48127.45
2161.57625	48083.75
2164.52941	48077.45
2167.48067	48068.95
2170.43004	48028.45
2173.37752	47973.95
2176.32311	48036.15
2179.26681	48031.25
2182.20863	47959.25
2185.14856	48091.85
2188.08661	48053.35
2191.02278	47996.55
2193.95707	47908.45
2196.88948	47896.85
2199.82001	47915.55
2202.74867	47813.35
2205.67545	47738.15
2208.60037	47628.85
2211.52341	47603.45
2214.44458	47578.45
2217.36388	47482.25
2220.28132	47452.95
2223.1969	47255.55
2226.11061	47168.95
2229.02246	47028.85
2231.93245	47011.45
2234.84058	46932.15
2237.74686	46781.95
2240.65128	46808.35
2243.55385	46724.35
2246.45456	46823.95
2249.35343	46799.45
2252.25044	46685.25
2255.14561	46580.55
2258.03893	46502.45
2260.93041	46385.75
2263.82004	46333.85
2266.70783	46229.35
2269.59378	46169.25
2272.4779	46105.25
2275.36017	46012.25
2278.24061	45924.45
2281.11922	45842.95
2283.996	45707.15
2286.87094	45656.55
2289.74405	45610.65
2292.61534	45573.45
2295.4848	45423.05
2298.35243	45437.85
2301.21824	45369.95
2304.08223	45347.95
2306.94439	45321.75
2309.80474	45304.25
2312.66327	45302.35
2315.51999	45237.65
2318.37489	45155.65
2321.22797	45135.25
2324.07925	45069.15
2326.92871	44925.75
2329.77637	44873.65
2332.62222	44762.45
2335.46626	44685.05
2338.3085	44614.35
2341.14893	44608.95
2343.98756	44503.05
2346.8244	44548.15
2349.65943	44506.65
2352.49267	44431.75
2355.32411	44465.05
2358.15376	44433.15
2360.98161	44449.55
2363.80768	44336.15
2366.63195	44310.05
2369.45444	44252.35
2372.27514	44297.65
2375.09405	44195.55
2377.91118	44168.95
2380.72652	44055.35
2383.54009	43927.75
2386.35187	43902.55
2389.16188	43729.35
2391.97011	43651.15
2394.77657	43596.85
2397.58125	43502.15
2400.38416	43458.55
2403.18529	43361.65
2405.98466	43329.75
2408.78226	43255.05
2411.57809	43183.85
2414.37216	43131.05
2417.16446	43137.25
2419.955	43056.65
2422.74378	43050.65
2425.5308	43027.55
2428.31606	43016.95
2431.09956	42945.95
2433.88131	42865.45
2436.6613	42891.65
2439.43954	42845.35
2442.21603	42798.85
2444.99077	42695.85
2447.76377	42681.05
2450.53501	42593.75
2453.30451	42608.05
2456.07226	42555.15
2458.83827	42461.75
2461.60254	42384.85
2464.36507	42440.25
2467.12586	42329.85
2469.88492	42362.05
2472.64224	42316.45
2475.39782	42234.85
2478.15167	42299.95
2480.90379	42218.55
2483.65417	42292.75
2486.40283	42218.15
2489.14976	42155.25
2491.89497	42045.25
2494.63845	42096.85
2497.3802	42043.85
2500.12024	42018.35
2502.85855	42010.75
2505.59514	41943.45
2508.33002	41871.45
2511.06318	41824.15
2513.79462	41758.85
2516.52435	41699.25
2519.25237	41626.45
2521.97867	41665.55
2524.70327	41677.15
2527.42616	41513.15
2530.14734	41532.85
2532.86681	41428.35
2535.58458	41397.75
2538.30065	41292.45
2541.01501	41236.15
2543.72768	41284.75
2546.43864	41221.05
2549.14791	41088.55
2551.85548	40996.05
2554.56136	40908.65
2557.26554	40788.05
2559.96803	40744.55
2562.66883	40667.45
2565.36794	40619.65
2568.06536	40570.55
2570.7611	40454.55
2573.45514	40353.15
2576.14751	40300.05
2578.83819	40248.95
2581.52719	40158.75
2584.21451	40159.15
2586.90015	40101.25
2589.58411	39936.65
2592.2664	39894.25
2594.94701	39804.55
2597.62594	39739.05
2600.30321	39702.45
2602.9788	39671.75
2605.65273	39577.85
2608.32498	39587.95
2610.99557	39521.25
2613.66449	39521.85
2616.33175	39401.65
2618.99734	39392.65
2621.66128	39271.55
2624.32355	39193.95
2626.98416	39116.95
2629.64311	39118.75
2632.30041	39066.15
2634.95605	39025.25
2637.61004	38939.25
2640.26238	38915.75
2642.91306	38857.85
2645.56209	38762.85
2648.20948	38815.85
2650.85521	38791.45
2653.4993	38742.55
2656.14175	38726.05
2658.78255	38766.75
2661.42171	38740.05
2664.05923	38740.35
2666.6951	38713.35
2669.32934	38734.45
2671.96194	38719.15
2674.59291	38741.15
2677.22224	38717.25
2679.84993	38722.55
2682.476	38665.35
2685.10043	38629.15
2687.72324	38650.75
2690.34441	38648.05
2692.96396	38628.45
2695.58188	38638.65
2698.19818	38617.45
2700.81285	38545.95
2703.4259	38517.35
2706.03733	38626.45
2708.64714	38589.55
2711.25533	38559.45
2713.86191	38544.95
2716.46687	38667.25
2719.07021	38590.25
2721.67194	38533.95
2724.27206	38489.45
2726.87057	38519.05
2729.46747	38510.55
2732.06276	38473.35
2734.65644	38449.05
2737.24852	38498.05
2739.83899	38468.75
2742.42786	38458.75
2745.01513	38455.25
2747.60079	38369.05
2750.18486	38306.65
2752.76733	38233.55
2755.3482	38139.75
2757.92747	38099.55
2760.50515	37993.35
2763.08123	38023.65
2765.65573	37989.55
2768.22863	37981.05
2770.79994	37869.25
2773.36967	37829.55
2775.9378	37864.35
2778.50435	37799.15
2781.06932	37758.15
2783.6327	37653.65
2786.1945	37586.75
2788.75471	37539.95
2791.31335	37417.95
2793.87041	37413.15
2796.42589	37256.65
2798.97979	37253.55
2801.53212	37162.55
2804.08288	37115.15
2806.63206	36971.45
2809.17967	36832.65
2811.72571	36720.75
2814.27018	36641.85
2816.81308	36480.35
2819.35442	36402.15
2821.89419	36374.45
2824.43239	36354.45
2826.96904	36329.45
2829.50412	36376.75
2832.03763	36209.75
2834.56959	36170.35
2837.1	36155.55
2839.62884	36052.85
2842.15613	35969.75
2844.68186	35961.75
2847.20604	35909.85
2849.72867	35868.65
2852.24974	35801.05
2854.76927	35722.25
2857.28724	35750.65
2859.80367	35725.75
2862.31855	35626.85
2864.83189	35566.05
2867.34368	35462.15
2869.85393	35451.95
2872.36264	35401.25
2874.8698	35391.05
2877.37543	35339.35
2879.87952	35276.75
2882.38207	35263.45
2884.88308	35223.25
2887.38256	35226.35
2889.88051	35214.45
2892.37692	35241.95
2894.8718	35214.05
2897.36515	35218.05
2899.85698	35225.35
2902.34727	35223.85
2904.83604	35179.15
2907.32328	35211.95
2909.809	35192.65
2912.29319	35244.15
2914.77587	35216.95
2917.25702	35219.85
2919.73665	35110.45
2922.21476	35158.55
2924.69136	35104.45
2927.16644	35059.05
2929.64	34999.65
2932.11205	34979.55
2934.58258	34884.15
2937.05161	34941.75
2939.51912	34980.45
2941.98513	34928.75
2944.44962	34874.85
2946.91261	34839.15
2949.37409	34918.85
2951.83407	34830.75
2954.29254	34838.05
2956.74951	34845.05
2959.20498	34822.55
2961.65895	34780.95
2964.11142	34744.55
2966.56239	34750.85
2969.01186	34729.35
2971.45984	34634.45
2973.90632	34596.75
2976.35131	34590.75
2978.7948	34542.15
2981.23681	34453.35
2983.67732	34444.75
2986.11635	34365.05
2988.55388	34311.85
2990.98993	34259.45
2993.4245	34177.75
2995.85758	34164.95
2998.28917	34049.55
3000.71928	33953.95
3003.14791	33885.55
3005.57506	33899.75
3008.00073	33792.45
3010.42493	33736.45
3012.84764	33658.25
3015.26888	33685.75
3017.68865	33581.75
3020.10694	33576.15
3022.52376	33486.65
3024.9391	33487.35
3027.35298	33406.25
3029.76539	33362.35
3032.17632	33313.75
3034.5858	33239.95
3036.9938	33217.75
3039.40034	33124.35
3041.80542	33129.05
3044.20903	33025.95
3046.61118	32989.55
3049.01187	32899.05
3051.4111	32838.85
3053.80888	32749.55
3056.20519	32725.85
3058.60005	32654.35
3060.99345	32642.65
3063.3854	32541.15
3065.7759	32428.25
3068.16494	32332.25
3070.55254	32210.55
3072.93868	32204.85
3075.32338	32100.45
3077.70662	32036.45
3080.08842	31891.35
3082.46878	31933.65
3084.84769	31883.95
3087.22515	31834.45
3089.60118	31789.45
3091.97576	31769.25
3094.3489	31737.75
3096.72061	31775.65
3099.09087	31747.05
3101.4597	31703.75
3103.82709	31704.35
3106.19305	31688.45
3108.55757	31674.75
3110.92066	31601.05
3113.28232	31556.15
3115.64255	31459.25
3118.00134	31372.05
3120.35871	31257.65
3122.71466	31181.15
3125.06917	31112.75
3127.42226	31095.45
3129.77393	31086.55
3132.12417	31044.95
3134.47299	30986.15
3136.82039	30947.35
3139.16636	30987.95
3141.51092	30952.75
3143.85406	30912.45
3146.19579	30890.75
3148.53609	30940.35
3150.87499	30965.95
3153.21246	30883.45
3155.54853	30940.65
3157.88318	30950.45
3160.21642	30964.05
3162.54826	30859.75
3164.87868	30803.35
3167.2077	30802.55
3169.5353	30731.85
3171.86151	30730.55
3174.18631	30713.75
3176.5097	30658.55
3178.83169	30577.65
3181.15228	30553.05
3183.47147	30474.75
3185.78926	30414.35
3188.10565	30407.25
3190.42065	30376.35
3192.73424	30342.95
3195.04645	30240.45
3197.35725	30273.55
3199.66667	30220.95
3201.97469	30239.05
3204.28132	30203.75
3206.58656	30163.45
3208.8904	30175.45
3211.19287	30162.05
3213.49394	30168.85
3215.79363	30162.65
3218.09193	30195.75
3220.38884	30173.65
3222.68438	30152.25
3224.97853	30093.35
3227.2713	30027.85
3229.56269	29959.85
3231.8527	30002.65
3234.14133	29931.05
3236.42858	29866.05
