Data from AgNPs_FTO_APTES_UA_20uM_CRN_1uM_R6G_10uM_NaF_0.1M_Addition_RamanShift__25__12-31-12-049.txt Node

Date: Thu Feb 17 12:31:12 GMT 2022
User: TCL
Spectrometer: QEP01345
Trigger mode: 4
Integration Time (sec): 7.000000E0
Scans to average: 10
Electric dark correction enabled: true
Nonlinearity correction enabled: false
Boxcar width: 0
XAxis mode: Raman Shifts
Number of Pixels in Spectrum: 1044
>>>>>Begin Spectral Data<<<<<
46.04893	0.2125
50.45542	-2.0875
54.85868	-3.9875
59.25871	-1.1875
63.6555	121.0125
68.04907	117.4125
72.43941	125.8125
76.82654	130.3125
81.21044	135.8125
85.59113	140.2125
89.96862	141.4125
94.34289	145.7125
98.71396	148.0125
103.08183	154.0125
107.4465	161.5125
111.80798	161.8125
116.16626	168.0125
120.52136	175.8125
124.87327	180.3125
129.222	195.3125
133.56755	202.5125
137.90993	223.0125
142.24913	243.5125
146.58517	277.5125
150.91804	323.3125
155.24774	384.1125
159.57429	485.4125
163.89768	622.1125
168.21792	830.1125
172.53501	1136.0125
176.84895	1592.1125
181.15975	2237.1125
185.46741	3156.9125
189.77193	4367.4125
194.07331	5853.0125
198.37157	7550.4125
202.6667	9346.1125
206.9587	11156.4125
211.24758	12920.7125
215.53334	14715.4125
219.81599	16609.5125
224.09553	18766.9125
228.37195	21100.5125
232.64527	23740.1125
236.91549	26473.2125
241.18261	29179.8125
245.44663	31732.1125
249.70755	33980.5125
253.96539	36040.8125
258.22014	37744.4125
262.4718	39122.4125
266.72039	40155.6125
270.96589	40770.2125
275.20832	40878.1125
279.44768	40631.9125
283.68397	40370.1125
287.91719	40058.9125
292.14735	39958.5125
296.37445	40017.8125
300.59849	40374.9125
304.81948	40690.4125
309.03742	40852.9125
313.25231	40587.2125
317.46415	39723.6125
321.67296	38467.9125
325.87872	37484.2125
330.08145	37098.9125
334.28114	37156.4125
338.47781	37647.0125
342.67145	38313.7125
346.86207	39145.8125
351.04966	40329.1125
355.23424	41530.9125
359.4158	42550.9125
363.59435	43291.8125
367.76989	43662.2125
371.94243	43989.0125
376.11196	44205.8125
380.27849	44405.8125
384.44203	44529.2125
388.60257	44626.2125
392.76012	44835.8125
396.91468	45352.5125
401.06626	46203.2125
405.21485	46909.9125
409.36047	46848.0125
413.50311	46222.3125
417.64277	45653.6125
421.77947	45504.7125
425.9132	45708.1125
430.04396	46027.9125
434.17176	46391.1125
438.2966	46955.0125
442.41849	47926.1125
446.53742	49233.0125
450.6534	50816.5125
454.76644	51978.6125
458.87653	52509.1125
462.98368	52299.2125
467.08789	51435.8125
471.18916	50382.2125
475.2875	49339.5125
479.38291	48691.1125
483.4754	48229.2125
487.56496	47654.8125
491.6516	47115.5125
495.73531	46605.5125
499.81612	46352.8125
503.89401	46580.5125
507.96899	46734.9125
512.04106	46755.1125
516.11023	46810.4125
520.1765	46771.1125
524.23987	46700.9125
528.30034	46337.3125
532.35792	46003.3125
536.41261	45455.4125
540.46441	45055.0125
544.51333	45031.0125
548.55936	45400.0125
552.60252	46279.1125
556.64279	47275.2125
560.6802	47839.1125
564.71473	48232.1125
568.7464	49166.9125
572.7752	50185.5125
576.80114	50494.0125
580.82422	50557.9125
584.84444	50963.8125
588.86181	51432.1125
592.87633	52307.5125
596.888	52775.0125
600.89682	53095.9125
604.9028	55492.8125
608.90594	61833.9125
612.90624	68692.6125
616.90371	65270.6125
620.89834	54504.8125
624.89015	49824.0125
628.87913	49168.8125
632.86528	48977.7125
636.84862	48468.3125
640.82913	47613.6125
644.80683	46379.6125
648.78172	45602.2125
652.75379	45601.4125
656.72306	46526.7125
660.68952	47720.9125
664.65319	47624.8125
668.61405	46756.3125
672.57211	46425.6125
676.52738	46352.9125
680.47986	46344.8125
684.42955	46404.2125
688.37646	46395.2125
692.32058	46633.1125
696.26192	47064.5125
700.20048	47613.8125
704.13626	47986.5125
708.06928	47778.0125
711.99952	47435.3125
715.927	47300.5125
719.85171	47442.2125
723.77365	47263.9125
727.69284	46969.9125
731.60928	46590.7125
735.52295	46586.9125
739.43388	46856.3125
743.34206	47093.0125
747.24749	47426.0125
751.15017	47961.7125
755.05012	48816.3125
758.94733	50278.3125
762.8418	52835.5125
766.73354	56904.7125
770.62254	60704.2125
774.50882	61744.6125
778.39237	59184.2125
782.27321	54809.9125
786.15132	50989.5125
790.02671	48859.8125
793.89938	47847.5125
797.76935	47513.3125
801.6366	47391.5125
805.50115	47238.9125
809.36299	47083.0125
813.22213	46824.3125
817.07857	46787.7125
820.93231	46845.9125
824.78336	46915.6125
828.63172	46978.2125
832.47738	47078.0125
836.32036	47301.6125
840.16066	47483.8125
843.99827	47696.3125
847.8332	47611.4125
851.66546	47388.5125
855.49504	47216.7125
859.32195	47213.7125
863.1462	47067.2125
866.96777	46913.2125
870.78668	46794.0125
874.60293	46878.8125
878.41652	46905.7125
882.22745	47098.5125
886.03573	47272.8125
889.84136	47225.8125
893.64433	47060.7125
897.44466	46960.0125
901.24235	46819.6125
905.0374	46780.6125
908.8298	46741.6125
912.61957	46874.6125
916.40671	47278.4125
920.19121	47879.1125
923.97308	48518.1125
927.75233	48810.1125
931.52895	48779.1125
935.30295	48256.3125
939.07433	47448.9125
942.84309	46979.8125
946.60924	46851.8125
950.37278	46657.6125
954.13371	46400.5125
957.89203	46041.4125
961.64774	45919.8125
965.40086	45758.5125
969.15137	45674.6125
972.89929	45485.5125
976.64461	45438.0125
980.38733	45522.8125
984.12747	45663.2125
987.86502	46114.0125
991.59999	46755.4125
995.33237	47897.2125
999.06217	49662.9125
1002.78939	51679.1125
1006.51404	53116.5125
1010.23611	53852.7125
1013.95561	54343.0125
1017.67255	54404.3125
1021.38692	53904.7125
1025.09872	53667.7125
1028.80796	54502.7125
1032.51465	56470.1125
1036.21877	58132.8125
1039.92035	58231.1125
1043.61937	57073.4125
1047.31584	55154.0125
1051.00976	53021.1125
1054.70114	51821.6125
1058.38998	51517.7125
1062.07627	51551.5125
1065.76003	51706.6125
1069.44126	51938.7125
1073.11995	52293.2125
1076.79611	52656.5125
1080.46974	53006.6125
1084.14085	53503.1125
1087.80943	54093.4125
1091.47549	54271.7125
1095.13903	53794.8125
1098.80005	52917.7125
1102.45857	52086.9125
1106.11456	51689.6125
1109.76805	51760.0125
1113.41903	52315.6125
1117.06751	52930.7125
1120.71348	53614.5125
1124.35696	54273.4125
1127.99793	54748.2125
1131.63641	54777.0125
1135.2724	54036.3125
1138.90589	53393.2125
1142.5369	52997.2125
1146.16542	52793.7125
1149.79145	52780.5125
1153.415	53211.2125
1157.03607	53737.1125
1160.65467	54671.6125
1164.27079	56106.1125
1167.88443	58335.6125
1171.49561	61573.0125
1175.10432	66159.5125
1178.71056	72052.2125
1182.31434	77424.7125
1185.91565	80208.9125
1189.51451	79966.4125
1193.11091	77249.1125
1196.70485	73488.3125
1200.29634	70304.4125
1203.88538	67836.8125
1207.47197	65799.0125
1211.05612	64134.6125
1214.63782	63313.9125
1218.21708	63418.4125
1221.79391	63869.3125
1225.36829	64017.5125
1228.94024	63406.1125
1232.50976	62324.5125
1236.07685	61614.3125
1239.6415	61381.0125
1243.20374	61508.2125
1246.76355	61963.5125
1250.32093	62920.9125
1253.8759	64400.0125
1257.42845	66178.1125
1260.97859	67813.3125
1264.52631	68932.9125
1268.07163	70343.5125
1271.61453	71972.3125
1275.15503	73904.3125
1278.69312	75994.9125
1282.22882	77708.1125
1285.76211	79181.5125
1289.29301	80634.5125
1292.82151	82356.4125
1296.34761	84919.2125
1299.87133	88576.3125
1303.39266	93667.2125
1306.9116	100339.5125
1310.42815	107190.4125
1313.94233	111412.7125
1317.45412	110968.9125
1320.96354	107740.9125
1324.47058	103810.0125
1327.97525	100338.9125
1331.47754	98309.7125
1334.97747	98114.3125
1338.47502	99499.2125
1341.97022	101066.5125
1345.46305	101472.8125
1348.95352	100713.7125
1352.44163	100053.8125
1355.92738	101820.2125
1359.41078	107051.3125
1362.89183	111774.1125
1366.37053	109011.9125
1369.84688	99045.9125
1373.32088	88737.3125
1376.79254	81839.8125
1380.26186	78442.0125
1383.72883	77001.9125
1387.19347	76176.3125
1390.65578	75545.2125
1394.11575	75591.5125
1397.57339	76563.6125
1401.0287	78219.4125
1404.48168	80236.7125
1407.93234	82281.2125
1411.38068	83533.5125
1414.82669	83375.7125
1418.27039	81288.8125
1421.71177	78251.8125
1425.15083	75526.3125
1428.58758	74147.3125
1432.02203	74041.2125
1435.45416	74694.1125
1438.88399	75384.9125
1442.31151	76129.0125
1445.73673	76833.0125
1449.15965	77552.0125
1452.58027	77859.5125
1455.9986	77599.5125
1459.41463	77592.2125
1462.82837	78439.4125
1466.23982	79735.6125
1469.64898	81204.1125
1473.05586	82244.7125
1476.46045	82895.7125
1479.86276	83456.5125
1483.26279	84024.5125
1486.66054	84667.1125
1490.05602	85874.5125
1493.44922	87164.7125
1496.84016	88210.3125
1500.22882	89614.3125
1503.61521	91855.0125
1506.99934	94996.1125
1510.38121	97861.2125
1513.76081	98558.0125
1517.13816	95798.1125
1520.51324	91029.6125
1523.88607	86725.2125
1527.25665	83972.3125
1530.62498	82426.2125
1533.99105	81613.4125
1537.35488	81100.6125
1540.71647	80783.9125
1544.07581	80433.0125
1547.4329	79725.2125
1550.78776	78777.1125
1554.14038	77958.7125
1557.49077	77565.4125
1560.83892	77368.9125
1564.18484	77309.1125
1567.52853	77010.1125
1570.86999	76761.1125
1574.20922	76724.1125
1577.54624	76726.9125
1580.88103	76062.8125
1584.2136	75804.0125
1587.54395	77291.5125
1590.87208	81321.2125
1594.19801	87363.2125
1597.52172	93801.7125
1600.84321	96764.2125
1604.16251	94031.1125
1607.47959	87403.9125
1610.79447	80171.5125
1614.10715	73626.0125
1617.41763	68398.8125
1620.7259	65213.3125
1624.03199	63680.9125
1627.33587	63767.0125
1630.63757	65440.4125
1633.93707	68743.0125
1637.23439	73396.7125
1640.52951	79171.4125
1643.82246	85191.6125
1647.11321	89908.1125
1650.40179	90680.1125
1653.68819	85703.8125
1656.97241	76713.2125
1660.25446	67770.4125
1663.53433	61353.1125
1666.81203	57193.1125
1670.08756	54619.0125
1673.36092	53069.8125
1676.63211	51916.5125
1679.90115	51077.2125
1683.16801	50433.7125
1686.43272	50125.5125
1689.69527	49799.4125
1692.95567	49527.5125
1696.2139	49426.5125
1699.46999	49376.3125
1702.72392	49286.7125
1705.97571	49271.5125
1709.22535	49176.9125
1712.47284	49195.5125
1715.71819	49223.9125
1718.96139	49187.4125
1722.20246	49062.3125
1725.44139	48927.1125
1728.67818	48677.7125
1731.91284	48460.3125
1735.14537	48242.5125
1738.37576	48124.9125
1741.60403	47994.7125
1744.83017	47852.0125
1748.05418	47690.4125
1751.27607	47711.0125
1754.49584	47634.3125
1757.71349	47707.4125
1760.92903	47680.0125
1764.14244	47607.9125
1767.35375	47678.3125
1770.56294	47582.8125
1773.77002	47594.0125
1776.97499	47624.9125
1780.17785	47591.8125
1783.37861	47465.8125
1786.57727	47426.1125
1789.77382	47374.9125
1792.96828	47366.9125
1796.16064	47355.8125
1799.3509	47354.6125
1802.53907	47330.2125
1805.72514	47234.2125
1808.90913	47154.3125
1812.09102	47067.4125
1815.27083	47034.3125
1818.44856	46962.2125
1821.6242	46919.6125
1824.79776	46887.6125
1827.96924	46814.3125
1831.13864	46852.8125
1834.30597	46914.1125
1837.47122	46765.4125
1840.6344	46724.7125
1843.7955	46819.9125
1846.95454	46821.3125
1850.11151	46841.9125
1853.26642	46846.7125
1856.41926	46849.7125
1859.57004	46901.1125
1862.71876	46851.1125
1865.86542	46847.8125
1869.01003	46859.8125
1872.15258	46881.8125
1875.29308	46862.2125
1878.43152	46870.1125
1881.56792	46927.4125
1884.70227	46951.4125
1887.83457	46945.9125
1890.96482	46996.4125
1894.09304	46932.0125
1897.21921	46841.2125
1900.34335	46851.3125
1903.46544	46859.0125
1906.58551	46951.8125
1909.70353	46973.2125
1912.81953	46952.4125
1915.93349	46970.1125
1919.04543	46809.9125
1922.15534	46808.7125
1925.26322	46709.2125
1928.36908	46710.9125
1931.47292	46557.2125
1934.57473	46447.6125
1937.67453	46351.7125
1940.77232	46230.1125
1943.86808	46052.4125
1946.96184	45971.5125
1950.05358	45762.2125
1953.14331	45665.2125
1956.23103	45589.9125
1959.31675	45423.5125
1962.40046	45250.5125
1965.48217	45078.8125
1968.56188	45033.9125
1971.63959	44935.2125
1974.7153	44821.8125
1977.78901	44679.8125
1980.86073	44553.5125
1983.93046	44480.8125
1986.99819	44328.5125
1990.06394	44226.7125
1993.1277	44162.3125
1996.18947	44037.6125
1999.24925	43912.9125
2002.30706	43795.2125
2005.36288	43689.5125
2008.41672	43597.3125
2011.46859	43483.4125
2014.51848	43332.8125
2017.56639	43260.3125
2020.61233	43187.0125
2023.6563	43066.3125
2026.6983	43013.5125
2029.73833	42947.5125
2032.7764	42895.0125
2035.8125	42799.0125
2038.84664	42791.5125
2041.87881	42759.6125
2044.90903	42665.2125
2047.93729	42591.7125
2050.96359	42600.4125
2053.98794	42473.5125
2057.01034	42516.4125
2060.03078	42566.9125
2063.04927	42508.1125
2066.06582	42512.0125
2069.08042	42440.0125
2072.09307	42362.3125
2075.10378	42281.9125
2078.11255	42249.5125
2081.11938	42240.8125
2084.12426	42224.5125
2087.12722	42185.6125
2090.12824	42218.6125
2093.12732	42211.9125
2096.12447	42233.6125
2099.11969	42143.5125
2102.11299	42190.3125
2105.10435	42240.6125
2108.09379	42241.6125
2111.08131	42238.8125
2114.0669	42225.7125
2117.05057	42273.1125
2120.03233	42320.0125
2123.01216	42352.1125
2125.99008	42413.4125
2128.96609	42505.8125
2131.94018	42548.9125
2134.91236	42586.0125
2137.88263	42637.1125
2140.851	42658.5125
2143.81746	42726.6125
2146.78201	42710.6125
2149.74466	42759.2125
2152.7054	42747.7125
2155.66425	42743.8125
2158.6212	42755.0125
2161.57625	42718.2125
2164.52941	42741.6125
2167.48067	42719.3125
2170.43004	42715.3125
2173.37752	42686.9125
2176.32311	42761.1125
2179.26681	42766.1125
2182.20863	42750.5125
2185.14856	42854.5125
2188.08661	42846.1125
2191.02278	42840.1125
2193.95707	42822.2125
2196.88948	42797.7125
2199.82001	42813.7125
2202.74867	42793.1125
2205.67545	42806.4125
2208.60037	42745.7125
2211.52341	42802.1125
2214.44458	42777.0125
2217.36388	42745.7125
2220.28132	42679.5125
2223.1969	42621.6125
2226.11061	42560.1125
2229.02246	42413.2125
2231.93245	42345.7125
2234.84058	42279.2125
2237.74686	42238.9125
2240.65128	42231.5125
2243.55385	42137.9125
2246.45456	42133.5125
2249.35343	42053.2125
2252.25044	42046.1125
2255.14561	41935.6125
2258.03893	41968.5125
2260.93041	41916.4125
2263.82004	41789.6125
2266.70783	41688.6125
2269.59378	41565.5125
2272.4779	41464.8125
2275.36017	41413.3125
2278.24061	41348.2125
2281.11922	41332.2125
2283.996	41243.7125
2286.87094	41267.0125
2289.74405	41200.3125
2292.61534	41239.1125
2295.4848	41211.2125
2298.35243	41240.6125
2301.21824	41204.5125
2304.08223	41245.2125
2306.94439	41222.7125
2309.80474	41330.6125
2312.66327	41348.0125
2315.51999	41333.4125
2318.37489	41303.4125
2321.22797	41289.8125
2324.07925	41289.3125
2326.92871	41252.6125
2329.77637	41190.7125
2332.62222	41180.8125
2335.46626	41225.0125
2338.3085	41229.9125
2341.14893	41234.9125
2343.98756	41298.1125
2346.8244	41379.3125
2349.65943	41378.9125
2352.49267	41384.9125
2355.32411	41368.9125
2358.15376	41377.8125
2360.98161	41294.3125
2363.80768	41213.9125
2366.63195	41142.1125
2369.45444	41032.3125
2372.27514	40991.1125
2375.09405	40999.3125
2377.91118	40868.0125
2380.72652	40734.6125
2383.54009	40622.3125
2386.35187	40595.0125
2389.16188	40408.6125
2391.97011	40396.1125
2394.77657	40408.5125
2397.58125	40355.0125
2400.38416	40267.3125
2403.18529	40178.1125
2405.98466	40126.6125
2408.78226	40070.2125
2411.57809	39966.2125
2414.37216	39886.9125
2417.16446	39854.4125
2419.955	39824.0125
2422.74378	39709.8125
2425.5308	39755.5125
2428.31606	39768.4125
2431.09956	39723.4125
2433.88131	39724.7125
2436.6613	39794.3125
2439.43954	39744.4125
2442.21603	39731.6125
2444.99077	39672.7125
2447.76377	39665.3125
2450.53501	39572.5125
2453.30451	39601.5125
2456.07226	39611.0125
2458.83827	39551.8125
2461.60254	39549.7125
2464.36507	39537.3125
2467.12586	39563.3125
2469.88492	39599.0125
2472.64224	39605.3125
2475.39782	39655.2125
2478.15167	39656.0125
2480.90379	39659.0125
2483.65417	39744.5125
2486.40283	39759.1125
2489.14976	39790.9125
2491.89497	39778.3125
2494.63845	39844.2125
2497.3802	39847.6125
2500.12024	39858.3125
2502.85855	39870.8125
2505.59514	39808.6125
2508.33002	39757.5125
2511.06318	39649.8125
2513.79462	39654.6125
2516.52435	39650.5125
2519.25237	39609.2125
2521.97867	39591.1125
2524.70327	39495.0125
2527.42616	39454.6125
2530.14734	39481.6125
2532.86681	39454.2125
2535.58458	39443.7125
2538.30065	39469.3125
2541.01501	39459.5125
2543.72768	39465.0125
2546.43864	39440.0125
2549.14791	39347.2125
2551.85548	39331.6125
2554.56136	39261.3125
2557.26554	39183.4125
2559.96803	39181.9125
2562.66883	39127.1125
2565.36794	39080.4125
2568.06536	39103.1125
2570.7611	39026.3125
2573.45514	39014.8125
2576.14751	39019.1125
2578.83819	38987.1125
2581.52719	39026.1125
2584.21451	39014.5125
2586.90015	39003.8125
2589.58411	38951.7125
2592.2664	39034.3125
2594.94701	38912.6125
2597.62594	39023.1125
2600.30321	39015.1125
2602.9788	39048.0125
2605.65273	38953.5125
2608.32498	39021.2125
2610.99557	38968.0125
2613.66449	39027.1125
2616.33175	39039.1125
2618.99734	39024.0125
2621.66128	39034.3125
2624.32355	39027.8125
2626.98416	39013.5125
2629.64311	38997.6125
2632.30041	38989.4125
2634.95605	38961.4125
2637.61004	38955.0125
2640.26238	38900.7125
2642.91306	38874.2125
2645.56209	38781.1125
2648.20948	38702.2125
2650.85521	38711.8125
2653.4993	38726.1125
2656.14175	38715.9125
2658.78255	38762.4125
2661.42171	38789.9125
2664.05923	38857.8125
2666.6951	38892.9125
2669.32934	38920.7125
2671.96194	38954.8125
2674.59291	38930.1125
2677.22224	38976.8125
2679.84993	38998.0125
2682.476	38981.6125
2685.10043	38925.1125
2687.72324	38857.2125
2690.34441	38853.1125
2692.96396	38853.6125
2695.58188	38813.2125
2698.19818	38814.6125
2700.81285	38807.3125
2703.4259	38779.3125
2706.03733	38831.1125
2708.64714	38804.1125
2711.25533	38803.6125
2713.86191	38812.4125
2716.46687	38907.9125
2719.07021	38896.5125
2721.67194	38881.0125
2724.27206	38852.8125
2726.87057	38934.0125
2729.46747	38961.2125
2732.06276	38957.6125
2734.65644	38942.1125
2737.24852	38981.3125
2739.83899	38961.1125
2742.42786	39013.3125
2745.01513	38988.9125
2747.60079	38950.7125
2750.18486	38921.4125
2752.76733	38962.1125
2755.3482	38927.7125
2757.92747	38951.2125
2760.50515	38889.9125
2763.08123	38879.5125
2765.65573	38835.8125
2768.22863	38879.4125
2770.79994	38767.7125
2773.36967	38794.2125
2775.9378	38804.7125
2778.50435	38866.2125
2781.06932	38802.0125
2783.6327	38815.0125
2786.1945	38810.7125
2788.75471	38782.1125
2791.31335	38654.3125
2793.87041	38662.3125
2796.42589	38579.1125
2798.97979	38504.5125
2801.53212	38396.6125
2804.08288	38325.9125
2806.63206	38283.5125
2809.17967	38272.1125
2811.72571	38247.0125
2814.27018	38092.7125
2816.81308	38051.1125
2819.35442	38027.3125
2821.89419	37953.4125
2824.43239	38010.1125
2826.96904	38003.4125
2829.50412	38061.3125
2832.03763	37969.4125
2834.56959	37966.1125
2837.1	37876.4125
2839.62884	37932.9125
2842.15613	37849.5125
2844.68186	37865.9125
2847.20604	37816.1125
2849.72867	37850.4125
2852.24974	37751.7125
2854.76927	37723.6125
2857.28724	37665.9125
2859.80367	37629.4125
2862.31855	37641.9125
2864.83189	37648.3125
2867.34368	37524.6125
2869.85393	37502.8125
2872.36264	37488.0125
2874.8698	37456.9125
2877.37543	37404.5125
2879.87952	37396.5125
2882.38207	37468.8125
2884.88308	37466.5125
2887.38256	37493.1125
2889.88051	37490.2125
2892.37692	37498.5125
2894.8718	37523.6125
2897.36515	37619.3125
2899.85698	37582.7125
2902.34727	37635.8125
2904.83604	37656.2125
2907.32328	37714.5125
2909.809	37674.9125
2912.29319	37787.7125
2914.77587	37739.6125
2917.25702	37703.8125
2919.73665	37623.5125
2922.21476	37671.2125
2924.69136	37606.6125
2927.16644	37627.2125
2929.64	37571.3125
2932.11205	37527.7125
2934.58258	37483.8125
2937.05161	37517.6125
2939.51912	37500.0125
2941.98513	37423.8125
2944.44962	37341.2125
2946.91261	37309.2125
2949.37409	37392.9125
2951.83407	37378.0125
2954.29254	37370.6125
2956.74951	37353.6125
2959.20498	37350.6125
2961.65895	37334.4125
2964.11142	37254.6125
2966.56239	37210.8125
2969.01186	37205.8125
2971.45984	37041.4125
2973.90632	37041.4125
2976.35131	36977.7125
2978.7948	36950.9125
2981.23681	36890.1125
2983.67732	36757.0125
2986.11635	36680.1125
2988.55388	36631.9125
2990.98993	36568.4125
2993.4245	36520.3125
2995.85758	36429.3125
2998.28917	36317.9125
3000.71928	36217.9125
3003.14791	36149.8125
3005.57506	36170.5125
3008.00073	36084.4125
3010.42493	36054.0125
3012.84764	35974.0125
3015.26888	35973.7125
3017.68865	35840.2125
3020.10694	35818.3125
