Data from AgNPs_FTO_APTES_UA_20uM_CRN_20uM_R6G_10uM_NaF_0.1M_Addition_RamanShift__32__15-27-22-281.txt Node

Date: Thu Feb 17 15:27:22 GMT 2022
User: TCL
Spectrometer: QEP01345
Trigger mode: 4
Integration Time (sec): 7.000000E0
Scans to average: 10
Electric dark correction enabled: true
Nonlinearity correction enabled: false
Boxcar width: 0
XAxis mode: Raman Shifts
Number of Pixels in Spectrum: 1044
>>>>>Begin Spectral Data<<<<<
46.04893	-0.275
50.45542	-0.075
54.85868	-3.475
59.25871	1.025
63.6555	55.525
68.04907	54.225
72.43941	62.825
76.82654	59.525
81.21044	69.225
85.59113	66.125
89.96862	69.025
94.34289	71.725
98.71396	74.425
103.08183	77.425
107.4465	78.725
111.80798	75.125
116.16626	78.325
120.52136	85.725
124.87327	83.525
129.222	88.125
133.56755	94.525
137.90993	94.525
142.24913	106.125
146.58517	115.625
150.91804	132.925
155.24774	152.425
159.57429	193.425
163.89768	244.925
168.21792	318.525
172.53501	434.925
176.84895	597.925
181.15975	842.025
185.46741	1177.625
189.77193	1627.925
194.07331	2188.025
198.37157	2830.425
202.6667	3497.425
206.9587	4170.725
211.24758	4853.125
215.53334	5536.625
219.81599	6290.225
224.09553	7127.125
228.37195	8084.825
232.64527	9112.725
236.91549	10249.125
241.18261	11299.225
245.44663	12210.325
249.70755	12984.525
253.96539	13572.425
258.22014	14142.025
262.4718	14591.325
266.72039	14987.825
270.96589	15197.925
275.20832	15171.125
279.44768	15021.125
283.68397	14736.225
287.91719	14481.625
292.14735	14468.825
296.37445	14707.025
300.59849	15160.925
304.81948	15737.525
309.03742	16089.925
313.25231	16045.425
317.46415	15427.725
321.67296	14474.525
325.87872	13704.525
330.08145	13363.825
334.28114	13368.125
338.47781	13579.325
342.67145	13920.025
346.86207	14450.425
351.04966	15164.225
355.23424	16018.725
359.4158	16703.625
363.59435	17142.625
367.76989	17400.725
371.94243	17509.125
376.11196	17549.725
380.27849	17599.125
384.44203	17550.125
388.60257	17391.925
392.76012	17260.925
396.91468	17343.925
401.06626	17690.425
405.21485	17963.125
409.36047	17713.625
413.50311	17001.525
417.64277	16304.125
421.77947	15863.025
425.9132	15689.125
430.04396	15686.525
434.17176	15747.725
438.2966	15950.325
442.41849	16249.625
446.53742	16663.525
450.6534	17059.525
454.76644	17321.925
458.87653	17430.325
462.98368	17368.325
467.08789	17142.925
471.18916	16802.925
475.2875	16433.825
479.38291	16147.125
483.4754	15906.125
487.56496	15743.025
491.6516	15655.625
495.73531	15591.925
499.81612	15593.525
503.89401	15765.325
507.96899	15997.725
512.04106	16286.025
516.11023	16629.525
520.1765	16870.925
524.23987	16859.925
528.30034	16607.925
532.35792	16365.725
536.41261	16130.525
540.46441	15871.525
544.51333	15786.525
548.55936	15784.925
552.60252	16001.325
556.64279	16245.625
560.6802	16374.125
564.71473	16504.125
568.7464	16972.425
572.7752	17255.325
576.80114	16933.825
580.82422	16470.025
584.84444	16259.025
588.86181	16276.025
592.87633	16333.125
596.888	16558.525
600.89682	17044.125
604.9028	18670.825
608.90594	23130.025
612.90624	29122.425
616.90371	28291.225
620.89834	20973.025
624.89015	17476.125
628.87913	16815.525
632.86528	16823.625
636.84862	17050.825
640.82913	16920.825
644.80683	16387.125
648.78172	16011.125
652.75379	16036.325
656.72306	16593.225
660.68952	17230.225
664.65319	17116.625
668.61405	16400.925
672.57211	16143.125
676.52738	16104.425
680.47986	16128.625
684.42955	16093.425
688.37646	16071.525
692.32058	16145.125
696.26192	16272.525
700.20048	16446.925
704.13626	16523.825
708.06928	16492.025
711.99952	16417.825
715.927	16390.225
719.85171	16474.125
723.77365	16499.725
727.69284	16468.625
731.60928	16380.025
735.52295	16402.825
739.43388	16455.225
743.34206	16552.225
747.24749	16647.625
751.15017	16731.125
755.05012	16960.725
758.94733	17531.825
762.8418	18795.825
766.73354	21031.425
770.62254	23639.425
774.50882	25282.325
778.39237	24555.925
782.27321	21751.325
786.15132	19144.525
790.02671	17675.325
793.89938	17061.125
797.76935	16812.925
801.6366	16672.325
805.50115	16607.425
809.36299	16556.125
813.22213	16534.225
817.07857	16541.425
820.93231	16575.625
824.78336	16626.925
828.63172	16703.725
832.47738	16756.725
836.32036	16756.525
840.16066	16700.925
843.99827	16670.325
847.8332	16663.125
851.66546	16625.625
855.49504	16683.625
859.32195	16677.625
863.1462	16678.325
866.96777	16623.525
870.78668	16621.325
874.60293	16696.225
878.41652	16732.925
882.22745	16826.425
886.03573	16869.225
889.84136	16882.025
893.64433	16779.725
897.44466	16752.325
901.24235	16764.725
905.0374	16761.325
908.8298	16727.225
912.61957	16688.625
916.40671	16710.625
920.19121	16773.225
923.97308	16885.825
927.75233	17026.725
931.52895	17166.625
935.30295	17081.025
939.07433	16834.325
942.84309	16585.325
946.60924	16390.425
950.37278	16295.925
954.13371	16242.025
957.89203	16207.725
961.64774	16163.425
965.40086	16130.025
969.15137	16092.325
972.89929	16083.425
976.64461	16052.325
980.38733	16068.725
984.12747	16101.925
987.86502	16196.925
991.59999	16274.025
995.33237	16461.825
999.06217	16723.325
1002.78939	17062.525
1006.51404	17333.625
1010.23611	17594.125
1013.95561	17810.425
1017.67255	17832.925
1021.38692	17712.225
1025.09872	17587.025
1028.80796	17596.525
1032.51465	17799.125
1036.21877	18019.825
1039.92035	18046.925
1043.61937	17974.125
1047.31584	17787.225
1051.00976	17602.725
1054.70114	17469.925
1058.38998	17420.725
1062.07627	17461.925
1065.76003	17461.225
1069.44126	17471.425
1073.11995	17565.625
1076.79611	17712.725
1080.46974	17927.125
1084.14085	18208.725
1087.80943	18591.925
1091.47549	18713.625
1095.13903	18501.625
1098.80005	18106.625
1102.45857	17769.725
1106.11456	17679.625
1109.76805	17871.225
1113.41903	18249.025
1117.06751	18675.425
1120.71348	19248.025
1124.35696	19750.325
1127.99793	20157.425
1131.63641	20090.525
1135.2724	19386.525
1138.90589	18750.025
1142.5369	18298.325
1146.16542	18018.825
1149.79145	17850.125
1153.415	17823.825
1157.03607	17911.525
1160.65467	18101.125
1164.27079	18503.825
1167.88443	19110.825
1171.49561	20119.025
1175.10432	21847.025
1178.71056	24340.525
1182.31434	26323.425
1185.91565	26897.825
1189.51451	26154.825
1193.11091	24558.425
1196.70485	22831.225
1200.29634	21701.525
1203.88538	21007.225
1207.47197	20200.725
1211.05612	19515.625
1214.63782	19071.925
1218.21708	18944.725
1221.79391	18945.425
1225.36829	19072.025
1228.94024	19091.525
1232.50976	19105.525
1236.07685	19131.825
1239.6415	19289.625
1243.20374	19457.525
1246.76355	19637.825
1250.32093	19907.725
1253.8759	20226.925
1257.42845	20749.325
1260.97859	21120.825
1264.52631	21398.625
1268.07163	21784.825
1271.61453	22107.925
1275.15503	22382.925
1278.69312	22513.225
1282.22882	22627.125
1285.76211	22938.025
1289.29301	23347.025
1292.82151	23823.825
1296.34761	24362.425
1299.87133	25278.925
1303.39266	26900.525
1306.9116	29417.525
1310.42815	32116.525
1313.94233	33354.925
1317.45412	32315.625
1320.96354	30155.125
1324.47058	27839.925
1327.97525	25928.325
1331.47754	24904.025
1334.97747	24747.025
1338.47502	25303.925
1341.97022	26271.725
1345.46305	27404.325
1348.95352	28755.725
1352.44163	30460.525
1355.92738	32994.325
1359.41078	37136.225
1362.89183	41075.925
1366.37053	39969.525
1369.84688	34358.125
1373.32088	28913.225
1376.79254	25458.725
1380.26186	23651.525
1383.72883	22724.125
1387.19347	22178.825
1390.65578	21534.525
1394.11575	21066.825
1397.57339	20729.425
1401.0287	20736.725
1404.48168	20972.225
1407.93234	21444.925
1411.38068	21994.025
1414.82669	22398.525
1418.27039	22402.325
1421.71177	22072.725
1425.15083	21697.425
1428.58758	21522.625
1432.02203	21597.725
1435.45416	21765.325
1438.88399	21740.825
1442.31151	21732.425
1445.73673	21786.525
1449.15965	21901.725
1452.58027	21802.725
1455.9986	21562.125
1459.41463	21416.825
1462.82837	21413.725
1466.23982	21744.825
1469.64898	22181.725
1473.05586	22558.425
1476.46045	22882.625
1479.86276	23275.225
1483.26279	23872.225
1486.66054	24571.225
1490.05602	25368.625
1493.44922	26379.025
1496.84016	27735.925
1500.22882	29731.525
1503.61521	32631.625
1506.99934	36058.925
1510.38121	38941.325
1513.76081	39611.025
1517.13816	37266.425
1520.51324	33065.125
1523.88607	29209.025
1527.25665	26577.125
1530.62498	25113.925
1533.99105	24211.525
1537.35488	23716.125
1540.71647	23506.725
1544.07581	23540.525
1547.4329	23621.425
1550.78776	23673.125
1554.14038	23712.925
1557.49077	23875.225
1560.83892	24135.825
1564.18484	24498.425
1567.52853	24971.225
1570.86999	25351.425
1574.20922	25651.125
1577.54624	25380.525
1580.88103	24456.625
1584.2136	23248.725
1587.54395	22699.125
1590.87208	22947.025
1594.19801	24029.325
1597.52172	25548.325
1600.84321	26319.725
1604.16251	25824.425
1607.47959	24573.925
1610.79447	23213.125
1614.10715	21863.625
1617.41763	20822.325
1620.7259	20162.925
1624.03199	19845.825
1627.33587	19903.325
1630.63757	20213.325
1633.93707	20863.225
1637.23439	21864.525
1640.52951	23174.325
1643.82246	24950.725
1647.11321	27157.525
1650.40179	28833.925
1653.68819	28283.725
1656.97241	25476.325
1660.25446	22363.525
1663.53433	20209.325
1666.81203	18980.225
1670.08756	18273.425
1673.36092	17819.625
1676.63211	17547.725
1679.90115	17340.725
1683.16801	17164.925
1686.43272	17042.825
1689.69527	16985.025
1692.95567	16943.925
1696.2139	16934.025
1699.46999	16919.725
1702.72392	16909.325
1705.97571	16946.325
1709.22535	16845.225
1712.47284	16892.325
1715.71819	16944.925
1718.96139	16913.725
1722.20246	16898.025
1725.44139	16824.125
1728.67818	16745.625
1731.91284	16655.725
1735.14537	16559.025
1738.37576	16503.925
1741.60403	16519.525
1744.83017	16493.325
1748.05418	16446.425
1751.27607	16432.625
1754.49584	16463.225
1757.71349	16447.625
1760.92903	16445.725
1764.14244	16417.225
1767.35375	16405.725
1770.56294	16374.925
1773.77002	16366.725
1776.97499	16319.025
1780.17785	16294.625
1783.37861	16289.225
1786.57727	16252.825
1789.77382	16275.425
1792.96828	16244.525
1796.16064	16232.125
1799.3509	16226.925
1802.53907	16145.925
1805.72514	16148.625
1808.90913	16124.925
1812.09102	16124.025
1815.27083	16071.825
1818.44856	16055.225
1821.6242	16051.225
1824.79776	16015.825
1827.96924	16029.425
1831.13864	16019.725
1834.30597	16009.225
1837.47122	15971.025
1840.6344	15985.625
1843.7955	15972.425
1846.95454	15992.925
1850.11151	15966.225
1853.26642	15972.725
1856.41926	15948.325
1859.57004	15950.325
1862.71876	15962.625
1865.86542	15956.625
1869.01003	15940.925
1872.15258	15968.725
1875.29308	15951.125
1878.43152	15975.925
1881.56792	15953.325
1884.70227	15960.625
1887.83457	15916.825
1890.96482	15918.025
1894.09304	15936.825
1897.21921	15897.225
1900.34335	15893.725
1903.46544	15869.625
1906.58551	15864.125
1909.70353	15878.225
1912.81953	15837.125
1915.93349	15830.725
1919.04543	15775.625
1922.15534	15781.925
1925.26322	15758.525
1928.36908	15769.525
1931.47292	15736.725
1934.57473	15712.025
1937.67453	15681.025
1940.77232	15678.125
1943.86808	15649.925
1946.96184	15623.825
1950.05358	15562.925
1953.14331	15530.925
1956.23103	15483.725
1959.31675	15444.825
1962.40046	15415.225
1965.48217	15383.625
1968.56188	15338.325
1971.63959	15270.225
1974.7153	15234.125
1977.78901	15199.425
1980.86073	15159.825
1983.93046	15117.325
1986.99819	15075.925
1990.06394	15027.425
1993.1277	15009.525
1996.18947	14938.625
1999.24925	14914.925
2002.30706	14872.125
2005.36288	14818.125
2008.41672	14786.025
2011.46859	14741.325
2014.51848	14721.125
2017.56639	14667.525
2020.61233	14609.125
2023.6563	14613.325
2026.6983	14591.125
2029.73833	14566.725
2032.7764	14585.625
2035.8125	14486.625
2038.84664	14460.225
2041.87881	14468.825
2044.90903	14414.125
2047.93729	14395.825
2050.96359	14409.025
2053.98794	14389.625
2057.01034	14349.925
2060.03078	14399.125
2063.04927	14362.025
2066.06582	14333.425
2069.08042	14320.325
2072.09307	14335.425
2075.10378	14288.625
2078.11255	14285.125
2081.11938	14284.125
2084.12426	14271.425
2087.12722	14268.525
2090.12824	14257.925
2093.12732	14287.225
2096.12447	14268.425
2099.11969	14298.125
2102.11299	14299.225
2105.10435	14301.525
2108.09379	14321.225
2111.08131	14315.925
2114.0669	14331.425
2117.05057	14335.425
2120.03233	14375.425
2123.01216	14367.725
2125.99008	14379.525
2128.96609	14371.325
2131.94018	14383.825
2134.91236	14405.225
2137.88263	14408.825
2140.851	14414.325
2143.81746	14418.925
2146.78201	14420.425
2149.74466	14404.325
2152.7054	14450.825
2155.66425	14422.025
2158.6212	14426.225
2161.57625	14394.125
2164.52941	14400.325
2167.48067	14404.125
2170.43004	14400.925
2173.37752	14393.525
2176.32311	14437.225
2179.26681	14438.625
2182.20863	14424.725
2185.14856	14434.725
2188.08661	14438.525
2191.02278	14413.725
2193.95707	14440.925
2196.88948	14382.225
2199.82001	14381.225
2202.74867	14366.525
2205.67545	14384.525
2208.60037	14355.625
2211.52341	14344.025
2214.44458	14337.025
2217.36388	14314.125
2220.28132	14290.725
2223.1969	14231.225
2226.11061	14218.525
2229.02246	14230.925
2231.93245	14187.225
2234.84058	14138.025
2237.74686	14113.625
2240.65128	14118.425
2243.55385	14087.625
2246.45456	14123.825
2249.35343	14088.225
2252.25044	14083.225
2255.14561	14075.725
2258.03893	14074.125
2260.93041	14049.725
2263.82004	14026.425
2266.70783	14010.325
2269.59378	13936.925
2272.4779	13940.825
2275.36017	13886.625
2278.24061	13855.425
2281.11922	13825.325
2283.996	13815.525
2286.87094	13791.025
2289.74405	13776.925
2292.61534	13762.025
2295.4848	13749.725
2298.35243	13755.325
2301.21824	13714.825
2304.08223	13731.825
2306.94439	13720.725
2309.80474	13695.825
2312.66327	13709.425
2315.51999	13682.925
2318.37489	13702.425
2321.22797	13702.225
2324.07925	13654.325
2326.92871	13669.325
2329.77637	13645.125
2332.62222	13593.125
2335.46626	13644.125
2338.3085	13583.925
2341.14893	13614.825
2343.98756	13617.125
2346.8244	13602.025
2349.65943	13582.925
2352.49267	13628.225
2355.32411	13602.525
2358.15376	13609.125
2360.98161	13602.425
2363.80768	13601.325
2366.63195	13604.725
2369.45444	13580.325
2372.27514	13561.525
2375.09405	13523.725
2377.91118	13499.725
2380.72652	13437.525
2383.54009	13431.825
2386.35187	13404.625
2389.16188	13333.525
2391.97011	13302.225
2394.77657	13291.325
2397.58125	13253.425
2400.38416	13261.525
2403.18529	13211.225
2405.98466	13200.725
2408.78226	13166.925
2411.57809	13142.225
2414.37216	13121.025
2417.16446	13117.125
2419.955	13089.225
2422.74378	13109.525
2425.5308	13097.625
2428.31606	13092.525
2431.09956	13056.025
2433.88131	13065.325
2436.6613	13087.625
2439.43954	13058.425
2442.21603	13057.925
2444.99077	13053.025
2447.76377	13055.825
2450.53501	13027.325
2453.30451	13018.925
2456.07226	13030.925
2458.83827	12998.925
2461.60254	12996.725
2464.36507	12976.525
2467.12586	12954.625
2469.88492	12946.725
2472.64224	12947.125
2475.39782	12941.425
2478.15167	12985.325
2480.90379	12985.825
2483.65417	13004.225
2486.40283	12988.025
2489.14976	13002.225
2491.89497	12981.825
2494.63845	12998.525
2497.3802	12978.625
2500.12024	12985.325
2502.85855	12931.025
2505.59514	12916.225
2508.33002	12900.625
2511.06318	12872.825
2513.79462	12825.725
2516.52435	12777.925
2519.25237	12761.025
2521.97867	12758.925
2524.70327	12734.325
2527.42616	12705.225
2530.14734	12711.525
2532.86681	12687.325
2535.58458	12688.225
2538.30065	12672.425
2541.01501	12669.925
2543.72768	12675.925
2546.43864	12669.225
2549.14791	12649.125
2551.85548	12629.025
2554.56136	12616.525
2557.26554	12578.625
2559.96803	12541.425
2562.66883	12536.325
2565.36794	12518.825
2568.06536	12510.225
2570.7611	12491.725
2573.45514	12486.125
2576.14751	12449.325
2578.83819	12417.325
2581.52719	12416.425
2584.21451	12392.825
2586.90015	12386.325
2589.58411	12331.625
2592.2664	12333.525
2594.94701	12340.625
2597.62594	12325.325
2600.30321	12296.725
2602.9788	12303.125
2605.65273	12286.925
2608.32498	12278.525
2610.99557	12263.525
2613.66449	12272.225
2616.33175	12261.625
2618.99734	12278.125
2621.66128	12278.325
2624.32355	12261.525
2626.98416	12259.025
2629.64311	12211.725
2632.30041	12219.025
2634.95605	12184.625
2637.61004	12180.425
2640.26238	12173.625
2642.91306	12123.125
2645.56209	12121.825
2648.20948	12122.725
2650.85521	12101.625
2653.4993	12089.625
2656.14175	12079.025
2658.78255	12107.725
2661.42171	12107.325
2664.05923	12106.925
2666.6951	12118.625
2669.32934	12137.125
2671.96194	12103.725
2674.59291	12132.325
2677.22224	12156.525
2679.84993	12153.825
2682.476	12133.225
2685.10043	12157.825
2687.72324	12141.225
2690.34441	12120.025
2692.96396	12121.225
2695.58188	12115.925
2698.19818	12077.325
2700.81285	12132.025
2703.4259	12099.925
2706.03733	12133.425
2708.64714	12135.625
2711.25533	12099.325
2713.86191	12071.125
2716.46687	12114.425
2719.07021	12124.425
2721.67194	12143.425
2724.27206	12121.425
2726.87057	12134.225
2729.46747	12142.125
2732.06276	12143.725
2734.65644	12101.225
2737.24852	12117.225
2739.83899	12083.425
2742.42786	12098.825
2745.01513	12075.625
2747.60079	12072.925
2750.18486	12052.725
2752.76733	12049.125
2755.3482	12050.225
2757.92747	12032.525
2760.50515	11987.525
2763.08123	11998.625
2765.65573	11991.425
2768.22863	11982.925
2770.79994	11932.225
2773.36967	11926.025
2775.9378	11935.825
2778.50435	11923.925
2781.06932	11923.925
2783.6327	11907.225
2786.1945	11897.725
2788.75471	11896.825
2791.31335	11845.625
2793.87041	11841.525
2796.42589	11824.025
2798.97979	11789.525
2801.53212	11779.925
2804.08288	11752.925
2806.63206	11755.725
2809.17967	11715.925
2811.72571	11682.925
2814.27018	11675.225
2816.81308	11664.725
2819.35442	11646.225
2821.89419	11667.025
2824.43239	11677.425
2826.96904	11652.225
2829.50412	11664.225
2832.03763	11624.025
2834.56959	11635.825
2837.1	11624.825
2839.62884	11603.325
2842.15613	11599.225
2844.68186	11599.625
2847.20604	11574.725
2849.72867	11565.825
2852.24974	11572.225
2854.76927	11541.425
2857.28724	11554.625
2859.80367	11551.825
2862.31855	11490.125
2864.83189	11489.125
2867.34368	11496.225
2869.85393	11483.225
2872.36264	11486.525
2874.8698	11506.125
2877.37543	11444.525
2879.87952	11441.125
2882.38207	11443.425
2884.88308	11425.925
2887.38256	11415.425
2889.88051	11407.925
2892.37692	11437.825
2894.8718	11441.425
2897.36515	11444.625
2899.85698	11400.525
2902.34727	11421.725
2904.83604	11428.925
2907.32328	11431.525
2909.809	11429.125
2912.29319	11457.625
2914.77587	11452.725
2917.25702	11437.325
2919.73665	11437.725
2922.21476	11411.025
2924.69136	11395.525
2927.16644	11407.725
2929.64	11377.125
2932.11205	11377.025
2934.58258	11324.525
2937.05161	11335.325
2939.51912	11358.025
2941.98513	11361.025
2944.44962	11327.625
2946.91261	11305.325
2949.37409	11323.525
2951.83407	11313.925
2954.29254	11306.125
2956.74951	11326.525
2959.20498	11303.425
2961.65895	11271.225
2964.11142	11303.025
2966.56239	11261.125
2969.01186	11266.125
2971.45984	11224.625
2973.90632	11232.025
2976.35131	11206.425
2978.7948	11183.825
2981.23681	11164.525
2983.67732	11167.325
2986.11635	11138.625
2988.55388	11115.925
2990.98993	11091.325
2993.4245	11054.925
2995.85758	11052.025
2998.28917	11002.525
3000.71928	10987.225
3003.14791	10960.125
3005.57506	10952.325
3008.00073	10946.325
3010.42493	10910.325
3012.84764	10934.525
3015.26888	10876.425
3017.68865	10889.725
3020.10694	10855.025
3022.52376	10849.925
3024.9391	10824.625
3027.35298	10822.125
3029.76539	10792.425
3032.17632	10800.825
3034.5858	10767.425
3036.9938	10779.325
3039.40034	10776.525
3041.80542	10758.625
3044.20903	10726.425
3046.61118	10735.525
3049.01187	10690.025
3051.4111	10671.625
3053.80888	10647.925
3056.20519	10646.525
3058.60005	10606.725
3060.99345	10586.125
3063.3854	10565.725
3065.7759	10518.625
3068.16494	10486.525
3070.55254	10459.925
3072.93868	10448.825
3075.32338	10418.425
3077.70662	10396.225
3080.08842	10364.425
3082.46878	10322.925
3084.84769	10359.025
3087.22515	10341.325
3089.60118	10328.425
3091.97576	10312.125
3094.3489	10313.825
3096.72061	10300.025
3099.09087	10322.025
3101.4597	10325.225
3103.82709	10344.225
3106.19305	10333.025
3108.55757	10279.725
3110.92066	10268.525
3113.28232	10263.125
3115.64255	10235.725
3118.00134	10229.325
3120.35871	10200.325
3122.71466	10196.125
3125.06917	10160.725
3127.42226	10148.525
3129.77393	10132.325
