Data from AgNPs_FTO_APTES_UA_20uM_CRN_1000uM_R6G_10uM_NaF_0.1M_Addition_RamanShift__30__19-46-45-045.txt Node

Date: Thu Feb 17 19:46:45 GMT 2022
User: TCL
Spectrometer: QEP01345
Trigger mode: 4
Integration Time (sec): 1.000000E1
Scans to average: 7
Electric dark correction enabled: true
Nonlinearity correction enabled: false
Boxcar width: 0
XAxis mode: Raman Shifts
Number of Pixels in Spectrum: 1044
>>>>>Begin Spectral Data<<<<<
46.04893	0.33929
50.45542	-1.23214
54.85868	2.33929
59.25871	-2.08929
63.6555	62.33929
68.04907	62.91071
72.43941	68.76786
76.82654	70.48214
81.21044	72.19643
85.59113	76.05357
89.96862	77.05357
94.34289	81.33929
98.71396	83.05357
103.08183	83.33929
107.4465	92.91071
111.80798	92.625
116.16626	94.19643
120.52136	97.91071
124.87327	103.625
129.222	109.19643
133.56755	117.05357
137.90993	123.76786
142.24913	131.19643
146.58517	147.33929
150.91804	174.19643
155.24774	203.76786
159.57429	254.48214
163.89768	330.91071
168.21792	443.33929
172.53501	609.625
176.84895	845.33929
181.15975	1196.33929
185.46741	1690.33929
189.77193	2346.91071
194.07331	3182.05357
198.37157	4119.48214
202.6667	5126.91071
206.9587	6153.05357
211.24758	7203.91071
215.53334	8339.33929
219.81599	9608.76786
224.09553	11151.76786
228.37195	12845.91071
232.64527	14651.33929
236.91549	16453.05357
241.18261	17982.625
245.44663	19255.625
249.70755	20222.19643
253.96539	20874.05357
258.22014	21336.91071
262.4718	21516.625
266.72039	21487.48214
270.96589	21127.48214
275.20832	20555.91071
279.44768	19795.91071
283.68397	19085.05357
287.91719	18693.625
292.14735	18879.05357
296.37445	19821.76786
300.59849	21458.76786
304.81948	23492.33929
309.03742	25278.48214
313.25231	25652.19643
317.46415	24024.48214
321.67296	21051.625
325.87872	18501.19643
330.08145	17247.48214
334.28114	17203.625
338.47781	17772.19643
342.67145	18703.48214
346.86207	20034.91071
351.04966	22269.05357
355.23424	24792.05357
359.4158	26636.05357
363.59435	27282.76786
367.76989	27285.76786
371.94243	26826.05357
376.11196	26332.33929
380.27849	25852.33929
384.44203	25138.05357
388.60257	24283.33929
392.76012	23625.91071
396.91468	23595.48214
401.06626	24305.05357
405.21485	24809.19643
409.36047	23877.19643
413.50311	21585.48214
417.64277	19210.05357
421.77947	17788.91071
425.9132	17100.19643
430.04396	16832.19643
434.17176	16900.48214
438.2966	17299.33929
442.41849	17973.76786
446.53742	18679.19643
450.6534	19367.19643
454.76644	19592.91071
458.87653	19453.91071
462.98368	19071.33929
467.08789	18522.33929
471.18916	17851.76786
475.2875	17110.19643
479.38291	16432.33929
483.4754	15966.76786
487.56496	15662.05357
491.6516	15533.19643
495.73531	15542.48214
499.81612	15638.48214
503.89401	15971.76786
507.96899	16546.48214
512.04106	17296.48214
516.11023	18100.625
520.1765	18702.19643
524.23987	18802.05357
528.30034	18277.91071
532.35792	17659.33929
536.41261	16962.33929
540.46441	16187.76786
544.51333	15720.76786
548.55936	15680.19643
552.60252	16122.05357
556.64279	16749.19643
560.6802	17141.76786
564.71473	17863.19643
568.7464	19490.33929
572.7752	20257.05357
576.80114	18565.48214
580.82422	16557.48214
584.84444	15652.76786
588.86181	15424.05357
592.87633	15540.91071
596.888	15962.33929
600.89682	17120.19643
604.9028	21393.76786
608.90594	33301.76786
612.90624	50095.05357
616.90371	48989.625
620.89834	28954.33929
624.89015	18983.33929
628.87913	17064.76786
632.86528	17564.19643
636.84862	18368.625
640.82913	17806.05357
644.80683	16106.48214
648.78172	14885.91071
652.75379	14931.05357
656.72306	16236.76786
660.68952	17862.48214
664.65319	17356.19643
668.61405	15439.48214
672.57211	14510.91071
676.52738	14525.625
680.47986	14567.48214
684.42955	14262.625
688.37646	14075.625
692.32058	14055.05357
696.26192	14280.91071
700.20048	14648.76786
704.13626	14849.05357
708.06928	14654.05357
711.99952	14392.33929
715.927	14356.33929
719.85171	14541.05357
723.77365	14740.05357
727.69284	14620.91071
731.60928	14399.91071
735.52295	14330.91071
739.43388	14391.91071
743.34206	14446.91071
747.24749	14466.625
751.15017	14452.48214
755.05012	14872.625
758.94733	16399.76786
762.8418	20287.05357
766.73354	26575.76786
770.62254	32744.76786
774.50882	36635.625
778.39237	36002.33929
782.27321	29381.91071
786.15132	21836.19643
790.02671	17392.91071
793.89938	15498.48214
797.76935	14771.48214
801.6366	14445.76786
805.50115	14308.91071
809.36299	14260.19643
813.22213	14200.33929
817.07857	14108.19643
820.93231	14054.33929
824.78336	14098.33929
828.63172	14238.76786
832.47738	14291.91071
836.32036	14125.76786
840.16066	13890.76786
843.99827	13745.33929
847.8332	13663.91071
851.66546	13671.76786
855.49504	13687.625
859.32195	13649.33929
863.1462	13542.48214
866.96777	13502.33929
870.78668	13509.05357
874.60293	13584.19643
878.41652	13733.19643
882.22745	13944.19643
886.03573	14128.48214
889.84136	14102.48214
893.64433	13980.48214
897.44466	13976.19643
901.24235	13972.91071
905.0374	13799.05357
908.8298	13550.625
912.61957	13362.48214
916.40671	13299.19643
920.19121	13313.19643
923.97308	13523.33929
927.75233	14003.76786
931.52895	14589.05357
935.30295	14440.48214
939.07433	13614.33929
942.84309	12847.48214
946.60924	12443.76786
950.37278	12241.05357
954.13371	12160.48214
957.89203	12067.05357
961.64774	12070.05357
965.40086	12053.19643
969.15137	12034.05357
972.89929	11963.19643
976.64461	11977.91071
980.38733	11977.91071
984.12747	11997.05357
987.86502	12061.625
991.59999	12157.48214
995.33237	12314.625
999.06217	12577.91071
1002.78939	12963.48214
1006.51404	13380.19643
1010.23611	13875.48214
1013.95561	14085.33929
1017.67255	14036.625
1021.38692	13746.91071
1025.09872	13431.48214
1028.80796	13187.33929
1032.51465	13182.19643
1036.21877	13357.05357
1039.92035	13492.33929
1043.61937	13631.91071
1047.31584	13720.76786
1051.00976	13696.91071
1054.70114	13570.91071
1058.38998	13467.625
1062.07627	13471.05357
1065.76003	13465.91071
1069.44126	13518.48214
1073.11995	13741.625
1076.79611	14179.76786
1080.46974	14954.19643
1084.14085	16035.48214
1087.80943	16906.33929
1091.47549	17125.625
1095.13903	16431.48214
1098.80005	15331.48214
1102.45857	14610.33929
1106.11456	14562.91071
1109.76805	15051.76786
1113.41903	16008.19643
1117.06751	17545.48214
1120.71348	19569.19643
1124.35696	21894.33929
1127.99793	23212.76786
1131.63641	22181.625
1135.2724	19634.05357
1138.90589	17604.19643
1142.5369	16307.05357
1146.16542	15490.33929
1149.79145	14937.19643
1153.415	14808.76786
1157.03607	14920.33929
1160.65467	15378.625
1164.27079	16200.91071
1167.88443	17544.76786
1171.49561	19806.05357
1175.10432	23728.19643
1178.71056	29240.19643
1182.31434	33529.05357
1185.91565	34320.76786
1189.51451	32298.33929
1193.11091	28942.91071
1196.70485	25602.76786
1200.29634	23529.05357
1203.88538	21964.625
1207.47197	19668.05357
1211.05612	17590.33929
1214.63782	16317.625
1218.21708	15693.19643
1221.79391	15500.05357
1225.36829	15439.48214
1228.94024	15375.48214
1232.50976	15367.76786
1236.07685	15461.05357
1239.6415	15670.05357
1243.20374	15923.91071
1246.76355	16152.91071
1250.32093	16440.19643
1253.8759	16927.91071
1257.42845	17703.76786
1260.97859	18637.33929
1264.52631	19684.48214
1268.07163	20652.76786
1271.61453	21407.76786
1275.15503	21575.625
1278.69312	21481.76786
1282.22882	21640.19643
1285.76211	22377.625
1289.29301	23546.19643
1292.82151	24781.33929
1296.34761	26173.19643
1299.87133	28560.05357
1303.39266	33034.19643
1306.9116	39854.76786
1310.42815	46601.91071
1313.94233	48282.19643
1317.45412	43679.76786
1320.96354	36849.48214
1324.47058	30676.91071
1327.97525	26299.33929
1331.47754	23946.05357
1334.97747	23396.91071
1338.47502	24221.48214
1341.97022	26465.76786
1345.46305	30061.19643
1348.95352	34626.19643
1352.44163	40350.76786
1355.92738	48527.48214
1359.41078	60055.33929
1362.89183	67793.625
1366.37053	61761.05357
1369.84688	48393.76786
1373.32088	37366.625
1376.79254	30307.91071
1380.26186	26127.05357
1383.72883	23509.05357
1387.19347	21461.91071
1390.65578	19723.19643
1394.11575	18426.48214
1397.57339	17748.05357
1401.0287	17548.48214
1404.48168	17539.625
1407.93234	17683.625
1411.38068	18088.05357
1414.82669	18485.19643
1418.27039	18652.48214
1421.71177	18554.33929
1425.15083	18332.76786
1428.58758	18401.33929
1432.02203	18739.33929
1435.45416	18910.76786
1438.88399	18788.05357
1442.31151	18582.48214
1445.73673	18629.05357
1449.15965	18745.76786
1452.58027	18580.625
1455.9986	18192.625
1459.41463	18091.19643
1462.82837	18473.625
1466.23982	19117.625
1469.64898	19711.19643
1473.05586	20049.76786
1476.46045	20302.48214
1479.86276	20916.19643
1483.26279	21749.76786
1486.66054	22989.76786
1490.05602	24716.48214
1493.44922	27301.625
1496.84016	31453.625
1500.22882	38052.48214
1503.61521	47425.19643
1506.99934	57879.48214
1510.38121	65700.33929
1513.76081	66333.33929
1517.13816	58371.625
1520.51324	46295.33929
1523.88607	35912.19643
1527.25665	29401.76786
1530.62498	25921.625
1533.99105	23945.48214
1537.35488	22837.76786
1540.71647	22401.76786
1544.07581	22549.33929
1547.4329	22953.19643
1550.78776	23354.76786
1554.14038	23673.91071
1557.49077	23942.48214
1560.83892	24705.76786
1564.18484	26130.76786
1567.52853	28073.91071
1570.86999	29619.05357
1574.20922	30303.48214
1577.54624	29580.05357
1580.88103	26681.33929
1584.2136	22961.19643
1587.54395	20667.91071
1590.87208	20364.91071
1594.19801	21622.05357
1597.52172	23701.91071
1600.84321	24560.05357
1604.16251	23588.76786
1607.47959	21848.91071
1610.79447	20036.05357
1614.10715	18207.05357
1617.41763	16809.48214
1620.7259	16025.48214
1624.03199	15695.48214
1627.33587	15797.625
1630.63757	16394.625
1633.93707	17477.625
1637.23439	19469.91071
1640.52951	22798.91071
1643.82246	28122.76786
1647.11321	34812.33929
1650.40179	39347.33929
1653.68819	37657.48214
1656.97241	30654.33929
1660.25446	23609.05357
1663.53433	18967.625
1666.81203	16298.91071
1670.08756	14828.91071
1673.36092	13883.625
1676.63211	13307.33929
1679.90115	12832.76786
1683.16801	12526.91071
1686.43272	12284.19643
1689.69527	12124.33929
1692.95567	12007.05357
1696.2139	11948.625
1699.46999	11893.91071
1702.72392	11841.48214
1705.97571	11837.19643
1709.22535	11843.05357
1712.47284	11848.625
1715.71819	11836.48214
1718.96139	11820.625
1722.20246	11714.76786
1725.44139	11613.76786
1728.67818	11473.625
1731.91284	11319.05357
1735.14537	11229.76786
1738.37576	11137.19643
1741.60403	11100.19643
1744.83017	10982.625
1748.05418	10947.19643
1751.27607	10907.19643
1754.49584	10840.48214
1757.71349	10813.05357
1760.92903	10775.33929
1764.14244	10727.76786
1767.35375	10682.33929
1770.56294	10599.91071
1773.77002	10557.05357
1776.97499	10456.48214
1780.17785	10400.33929
1783.37861	10365.76786
1786.57727	10318.05357
1789.77382	10305.625
1792.96828	10266.625
1796.16064	10261.05357
1799.3509	10237.33929
1802.53907	10213.05357
1805.72514	10189.625
1808.90913	10144.91071
1812.09102	10112.91071
1815.27083	10028.05357
1818.44856	10000.91071
1821.6242	9998.48214
1824.79776	9984.05357
1827.96924	9933.33929
1831.13864	9911.91071
1834.30597	9897.625
1837.47122	9875.91071
1840.6344	9839.19643
1843.7955	9850.33929
1846.95454	9816.33929
1850.11151	9805.33929
1853.26642	9795.05357
1856.41926	9782.33929
1859.57004	9768.05357
1862.71876	9803.33929
1865.86542	9824.33929
1869.01003	9811.19643
1872.15258	9801.48214
1875.29308	9804.91071
1878.43152	9807.19643
1881.56792	9787.625
1884.70227	9808.625
1887.83457	9772.19643
1890.96482	9766.91071
1894.09304	9731.05357
1897.21921	9718.76786
1900.34335	9745.48214
1903.46544	9713.33929
1906.58551	9727.33929
1909.70353	9693.33929
1912.81953	9716.76786
1915.93349	9674.91071
1919.04543	9657.05357
1922.15534	9646.625
1925.26322	9598.48214
1928.36908	9606.19643
1931.47292	9545.05357
1934.57473	9509.91071
1937.67453	9458.48214
1940.77232	9426.91071
1943.86808	9397.33929
1946.96184	9373.91071
1950.05358	9331.625
1953.14331	9325.76786
1956.23103	9320.76786
1959.31675	9315.33929
1962.40046	9277.19643
1965.48217	9268.19643
1968.56188	9237.76786
1971.63959	9253.19643
1974.7153	9240.625
1977.78901	9212.05357
1980.86073	9174.48214
1983.93046	9137.91071
1986.99819	9074.33929
1990.06394	9006.19643
1993.1277	8977.625
1996.18947	8950.19643
1999.24925	8891.48214
2002.30706	8856.33929
2005.36288	8809.05357
2008.41672	8800.19643
2011.46859	8778.76786
2014.51848	8753.91071
2017.56639	8717.19643
2020.61233	8686.91071
2023.6563	8669.625
2026.6983	8632.625
2029.73833	8623.33929
2032.7764	8608.19643
2035.8125	8596.91071
2038.84664	8575.19643
2041.87881	8577.19643
2044.90903	8540.625
2047.93729	8508.33929
2050.96359	8530.76786
2053.98794	8510.33929
2057.01034	8493.33929
2060.03078	8470.625
2063.04927	8447.33929
2066.06582	8419.19643
2069.08042	8438.19643
2072.09307	8436.48214
2075.10378	8431.05357
2078.11255	8407.05357
2081.11938	8416.05357
2084.12426	8429.33929
2087.12722	8419.05357
2090.12824	8405.625
2093.12732	8397.33929
2096.12447	8403.91071
2099.11969	8388.33929
2102.11299	8403.05357
2105.10435	8417.48214
2108.09379	8422.05357
2111.08131	8449.91071
2114.0669	8451.76786
2117.05057	8471.19643
2120.03233	8466.48214
2123.01216	8505.76786
2125.99008	8533.76786
2128.96609	8523.19643
2131.94018	8541.48214
2134.91236	8518.19643
2137.88263	8526.76786
2140.851	8504.625
2143.81746	8520.05357
2146.78201	8503.76786
2149.74466	8459.33929
2152.7054	8456.05357
2155.66425	8421.48214
2158.6212	8428.19643
2161.57625	8409.05357
2164.52941	8405.33929
2167.48067	8441.33929
2170.43004	8421.91071
2173.37752	8422.48214
2176.32311	8417.76786
2179.26681	8407.76786
2182.20863	8415.05357
2185.14856	8409.76786
2188.08661	8400.48214
2191.02278	8388.91071
2193.95707	8376.91071
2196.88948	8377.19643
2199.82001	8368.625
2202.74867	8355.48214
2205.67545	8353.48214
2208.60037	8370.76786
2211.52341	8315.91071
2214.44458	8338.76786
2217.36388	8309.19643
2220.28132	8305.91071
2223.1969	8266.48214
2226.11061	8260.33929
2229.02246	8214.625
2231.93245	8190.76786
2234.84058	8200.91071
2237.74686	8163.76786
2240.65128	8179.19643
2243.55385	8179.625
2246.45456	8199.33929
2249.35343	8177.33929
2252.25044	8183.33929
2255.14561	8222.33929
2258.03893	8228.19643
2260.93041	8228.48214
2263.82004	8242.48214
2266.70783	8206.19643
2269.59378	8186.91071
2272.4779	8164.91071
2275.36017	8151.76786
2278.24061	8129.625
2281.11922	8125.48214
2283.996	8083.05357
2286.87094	8084.19643
2289.74405	8038.91071
2292.61534	8026.19643
2295.4848	7991.05357
2298.35243	8002.48214
2301.21824	7997.91071
2304.08223	7980.76786
2306.94439	7969.33929
2309.80474	7943.19643
2312.66327	7953.91071
2315.51999	7942.19643
2318.37489	7953.91071
2321.22797	7952.05357
2324.07925	7927.33929
2326.92871	7921.76786
2329.77637	7897.19643
2332.62222	7896.91071
2335.46626	7889.33929
2338.3085	7901.05357
2341.14893	7906.19643
2343.98756	7911.19643
2346.8244	7911.48214
2349.65943	7941.625
2352.49267	7957.91071
2355.32411	7974.33929
2358.15376	8007.33929
2360.98161	8013.76786
2363.80768	8057.625
2366.63195	8066.625
2369.45444	8079.76786
2372.27514	8079.05357
2375.09405	8090.48214
2377.91118	8049.625
2380.72652	8034.91071
2383.54009	7958.33929
2386.35187	7909.76786
2389.16188	7861.05357
2391.97011	7830.91071
2394.77657	7795.19643
2397.58125	7780.48214
2400.38416	7771.19643
2403.18529	7754.33929
2405.98466	7721.19643
2408.78226	7699.33929
2411.57809	7690.48214
2414.37216	7678.76786
2417.16446	7665.76786
2419.955	7630.33929
2422.74378	7662.19643
2425.5308	7657.625
2428.31606	7670.625
2431.09956	7664.05357
2433.88131	7667.33929
2436.6613	7656.33929
2439.43954	7695.05357
2442.21603	7699.33929
2444.99077	7724.33929
2447.76377	7696.76786
2450.53501	7762.76786
2453.30451	7732.76786
2456.07226	7730.33929
2458.83827	7710.05357
2461.60254	7724.33929
2464.36507	7695.48214
2467.12586	7693.48214
2469.88492	7679.76786
2472.64224	7710.05357
2475.39782	7707.625
2478.15167	7752.625
2480.90379	7798.33929
2483.65417	7816.33929
2486.40283	7878.05357
2489.14976	7893.19643
2491.89497	7899.19643
2494.63845	7921.91071
2497.3802	7906.33929
2500.12024	7876.19643
2502.85855	7842.625
2505.59514	7789.33929
2508.33002	7753.76786
2511.06318	7696.91071
2513.79462	7643.91071
2516.52435	7579.625
2519.25237	7549.48214
2521.97867	7503.76786
2524.70327	7505.76786
2527.42616	7488.48214
2530.14734	7458.91071
2532.86681	7444.76786
2535.58458	7442.33929
2538.30065	7461.76786
2541.01501	7462.33929
2543.72768	7483.33929
2546.43864	7495.05357
2549.14791	7498.76786
2551.85548	7472.91071
2554.56136	7479.05357
2557.26554	7481.625
2559.96803	7459.48214
2562.66883	7445.33929
2565.36794	7430.625
2568.06536	7457.19643
2570.7611	7428.625
2573.45514	7400.91071
2576.14751	7393.625
2578.83819	7367.19643
2581.52719	7351.19643
2584.21451	7317.91071
2586.90015	7330.48214
2589.58411	7317.625
2592.2664	7308.19643
2594.94701	7315.625
2597.62594	7276.76786
2600.30321	7276.48214
2602.9788	7259.19643
2605.65273	7267.625
2608.32498	7257.19643
2610.99557	7277.76786
2613.66449	7268.19643
2616.33175	7270.625
2618.99734	7280.91071
2621.66128	7265.76786
2624.32355	7263.33929
2626.98416	7256.625
2629.64311	7215.48214
2632.30041	7205.05357
2634.95605	7169.76786
2637.61004	7179.625
2640.26238	7145.76786
2642.91306	7151.33929
2645.56209	7141.48214
2648.20948	7123.91071
2650.85521	7134.76786
2653.4993	7169.48214
2656.14175	7168.625
2658.78255	7193.625
2661.42171	7189.19643
2664.05923	7206.76786
2666.6951	7209.625
2669.32934	7229.33929
2671.96194	7229.19643
2674.59291	7246.05357
2677.22224	7243.625
2679.84993	7243.05357
2682.476	7241.76786
2685.10043	7270.48214
2687.72324	7238.48214
2690.34441	7240.76786
2692.96396	7229.76786
2695.58188	7253.19643
2698.19818	7248.05357
2700.81285	7261.76786
2703.4259	7241.625
2706.03733	7259.76786
2708.64714	7286.625
2711.25533	7282.76786
2713.86191	7287.91071
2716.46687	7301.48214
2719.07021	7317.625
2721.67194	7324.91071
2724.27206	7313.625
2726.87057	7312.91071
2729.46747	7307.76786
2732.06276	7274.05357
2734.65644	7275.05357
2737.24852	7267.76786
2739.83899	7237.91071
2742.42786	7244.19643
2745.01513	7205.05357
2747.60079	7181.33929
2750.18486	7157.05357
2752.76733	7174.76786
2755.3482	7184.76786
2757.92747	7164.05357
2760.50515	7145.91071
2763.08123	7136.05357
2765.65573	7127.48214
2768.22863	7125.48214
2770.79994	7126.76786
2773.36967	7142.33929
2775.9378	7126.33929
2778.50435	7131.625
2781.06932	7156.05357
2783.6327	7148.48214
2786.1945	7136.05357
2788.75471	7122.91071
2791.31335	7123.19643
2793.87041	7133.33929
2796.42589	7157.19643
2798.97979	7175.48214
2801.53212	7174.05357
2804.08288	7180.05357
2806.63206	7181.33929
2809.17967	7177.19643
2811.72571	7197.19643
2814.27018	7227.05357
2816.81308	7216.19643
2819.35442	7251.48214
2821.89419	7265.48214
2824.43239	7267.91071
2826.96904	7277.76786
2829.50412	7287.91071
2832.03763	7280.48214
2834.56959	7289.33929
2837.1	7305.91071
2839.62884	7282.76786
2842.15613	7287.91071
2844.68186	7324.05357
2847.20604	7353.625
2849.72867	7356.91071
2852.24974	7395.33929
2854.76927	7383.33929
2857.28724	7404.48214
2859.80367	7409.33929
2862.31855	7396.76786
2864.83189	7425.48214
2867.34368	7439.19643
2869.85393	7434.19643
2872.36264	7445.05357
2874.8698	7438.91071
2877.37543	7419.625
2879.87952	7425.76786
2882.38207	7415.48214
2884.88308	7373.19643
2887.38256	7392.19643
2889.88051	7351.76786
2892.37692	7345.19643
2894.8718	7357.91071
2897.36515	7373.48214
2899.85698	7354.19643
2902.34727	7359.05357
2904.83604	7377.05357
2907.32328	7370.48214
2909.809	7359.05357
2912.29319	7356.48214
2914.77587	7358.625
2917.25702	7344.48214
2919.73665	7318.625
2922.21476	7329.76786
2924.69136	7300.91071
2927.16644	7292.05357
2929.64	7272.76786
2932.11205	7245.625
2934.58258	7215.05357
2937.05161	7233.19643
2939.51912	7186.05357
2941.98513	7203.33929
2944.44962	7154.625
2946.91261	7126.33929
2949.37409	7124.48214
2951.83407	7112.05357
2954.29254	7110.33929
2956.74951	7100.05357
2959.20498	7083.91071
2961.65895	7055.05357
2964.11142	7041.76786
2966.56239	7014.48214
2969.01186	6997.48214
2971.45984	6995.625
2973.90632	6970.48214
2976.35131	6938.625
2978.7948	6930.48214
2981.23681	6908.91071
2983.67732	6895.19643
2986.11635	6880.33929
2988.55388	6873.91071
2990.98993	6872.33929
2993.4245	6854.19643
2995.85758	6845.91071
