Data from AgNPs_FTO_APTES_UA_20uM_CRN_20uM_R6G_10uM_NaF_0.1M_Addition_RamanShift__6__14-57-02-240.txt Node

Date: Thu Feb 17 14:57:02 GMT 2022
User: TCL
Spectrometer: QEP01345
Trigger mode: 4
Integration Time (sec): 7.000000E0
Scans to average: 10
Electric dark correction enabled: true
Nonlinearity correction enabled: false
Boxcar width: 0
XAxis mode: Raman Shifts
Number of Pixels in Spectrum: 1044
>>>>>Begin Spectral Data<<<<<
46.04893	0.1
50.45542	-1
54.85868	-3.3
59.25871	-0.5
63.6555	132.3
68.04907	136.4
72.43941	142.7
76.82654	148.7
81.21044	150.1
85.59113	153.6
89.96862	159.1
94.34289	163.1
98.71396	165.4
103.08183	171.5
107.4465	177.8
111.80798	182.8
116.16626	187
120.52136	202.6
124.87327	205.4
129.222	218.1
133.56755	238.7
137.90993	260.4
142.24913	280.3
146.58517	323.9
150.91804	383.2
155.24774	456.6
159.57429	574.9
163.89768	751.5
168.21792	1004.9
172.53501	1387.6
176.84895	1945.5
181.15975	2739.9
185.46741	3865.6
189.77193	5367.2
194.07331	7208.8
198.37157	9322.8
202.6667	11526
206.9587	13721.2
211.24758	15856.1
215.53334	18023.5
219.81599	20250.1
224.09553	22697.4
228.37195	25428
232.64527	28396.2
236.91549	31644.8
241.18261	34940.1
245.44663	38049.3
249.70755	40937.5
253.96539	43483.8
258.22014	45661.5
262.4718	47309.1
266.72039	48570.4
270.96589	49232
275.20832	49352.9
279.44768	49128.7
283.68397	48690.7
287.91719	48343.4
292.14735	48001.9
296.37445	47902.7
300.59849	47888.5
304.81948	48035
309.03742	48082.6
313.25231	47934.5
317.46415	47501.2
321.67296	46971.3
325.87872	46465.2
330.08145	46266.3
334.28114	46356.5
338.47781	46688.7
342.67145	47213.7
346.86207	47904
351.04966	48575.6
355.23424	49301.1
359.4158	49884
363.59435	50327.5
367.76989	50780.9
371.94243	51098.6
376.11196	51461.5
380.27849	51720.7
384.44203	52060.8
388.60257	52477.1
392.76012	53001.7
396.91468	53557.1
401.06626	54149.2
405.21485	54552.9
409.36047	54599.2
413.50311	54281.7
417.64277	54081.7
421.77947	54107.7
425.9132	54345.5
430.04396	54644
434.17176	54989
438.2966	55410.5
442.41849	56258.2
446.53742	57506.6
450.6534	58861.5
454.76644	59867.9
458.87653	60341.7
462.98368	60155.6
467.08789	59602.8
471.18916	58918.4
475.2875	58097.6
479.38291	57721.1
483.4754	57309.2
487.56496	56921.4
491.6516	56379.7
495.73531	55958.8
499.81612	55705.9
503.89401	55975.2
507.96899	56196.7
512.04106	56319.4
516.11023	56242.5
520.1765	55975.8
524.23987	55883.3
528.30034	55766.1
532.35792	55535.4
536.41261	55205.5
540.46441	54883
544.51333	54884
548.55936	55258.6
552.60252	56084.6
556.64279	57035.8
560.6802	57847.1
564.71473	58177.5
568.7464	58694.1
572.7752	59873.7
576.80114	61170.3
580.82422	62440.6
584.84444	63944.4
588.86181	65832.8
592.87633	67627.6
596.888	67673.6
600.89682	66018.8
604.9028	65546.8
608.90594	67763.4
612.90624	70173.8
616.90371	67140.4
620.89834	60566.4
624.89015	57646.7
628.87913	57327
632.86528	57683.3
636.84862	57719.9
640.82913	57184.7
644.80683	56393.4
648.78172	55813
652.75379	55780.9
656.72306	56202.5
660.68952	56891.3
664.65319	56719.3
668.61405	56181.2
672.57211	56230.1
676.52738	56504.9
680.47986	56553.5
684.42955	56283.6
688.37646	56196.2
692.32058	56507.8
696.26192	57042.4
700.20048	57685.3
704.13626	58127.5
708.06928	58185.7
711.99952	58028.5
715.927	57938.2
719.85171	57920.4
723.77365	57905.3
727.69284	57509.7
731.60928	57020.4
735.52295	56804.6
739.43388	56851.4
743.34206	56973.7
747.24749	57196.1
751.15017	57577.4
755.05012	58243.5
758.94733	59300.7
762.8418	61109.6
766.73354	63856.6
770.62254	66348.2
774.50882	66759.9
778.39237	64804.8
782.27321	62044.4
786.15132	59650.4
790.02671	58211.9
793.89938	57402.9
797.76935	57124.4
801.6366	56923.7
805.50115	56832.3
809.36299	56676.9
813.22213	56497.1
817.07857	56412.2
820.93231	56372
824.78336	56323.2
828.63172	56238.1
832.47738	56206.8
836.32036	56304.5
840.16066	56356.9
843.99827	56513.2
847.8332	56551.4
851.66546	56656.9
855.49504	56826.5
859.32195	56879.2
863.1462	56842.6
866.96777	56741.8
870.78668	56715.9
874.60293	56782.9
878.41652	56892.4
882.22745	56952.1
886.03573	57119.9
889.84136	57056.5
893.64433	56864.5
897.44466	56727.2
901.24235	56599.2
905.0374	56533
908.8298	56504.8
912.61957	56581.4
916.40671	57016.4
920.19121	57578.8
923.97308	58002.9
927.75233	57791.9
931.52895	57359.3
935.30295	56867.3
939.07433	56367.8
942.84309	55951
946.60924	55821.3
950.37278	55774.9
954.13371	55716.3
957.89203	55721.2
961.64774	55672.5
965.40086	55669.1
969.15137	55599.9
972.89929	55553.3
976.64461	55552.8
980.38733	55614.2
984.12747	55702.5
987.86502	55946.7
991.59999	56231.2
995.33237	56615.7
999.06217	57232.4
1002.78939	58042.1
1006.51404	58897
1010.23611	59628.7
1013.95561	60191
1017.67255	60322.3
1021.38692	59938.4
1025.09872	59309.9
1028.80796	58700.3
1032.51465	58705.9
1036.21877	58975.6
1039.92035	59142.8
1043.61937	59205.9
1047.31584	59040.9
1051.00976	58937.5
1054.70114	59033.9
1058.38998	59216.5
1062.07627	59613.5
1065.76003	60106.2
1069.44126	60673.5
1073.11995	61364.7
1076.79611	62018
1080.46974	62231.5
1084.14085	62569.3
1087.80943	62885.7
1091.47549	63272.7
1095.13903	63316
1098.80005	62829.8
1102.45857	62082.5
1106.11456	61402.9
1109.76805	61132.4
1113.41903	61121.7
1117.06751	61337.3
1120.71348	61646.3
1124.35696	61979.1
1127.99793	62356.3
1131.63641	62474.6
1135.2724	62346.2
1138.90589	62325.7
1142.5369	62393.8
1146.16542	62600.7
1149.79145	63005.4
1153.415	63281.6
1157.03607	63688.3
1160.65467	64736.6
1164.27079	66461.6
1167.88443	68556
1171.49561	71062.8
1175.10432	74037.9
1178.71056	77618.3
1182.31434	81085.3
1185.91565	82793.5
1189.51451	82519.8
1193.11091	81306.5
1196.70485	79736.9
1200.29634	77897
1203.88538	76665.5
1207.47197	76009.5
1211.05612	75297.8
1214.63782	74188.3
1218.21708	72932.7
1221.79391	71726.6
1225.36829	71037.6
1228.94024	70451.8
1232.50976	69625.2
1236.07685	68773.2
1239.6415	68390.7
1243.20374	68324.2
1246.76355	68778.1
1250.32093	69478.7
1253.8759	70489.2
1257.42845	71787.9
1260.97859	73121.8
1264.52631	74542.5
1268.07163	75928.5
1271.61453	77299.4
1275.15503	78640.3
1278.69312	80112.2
1282.22882	81538
1285.76211	83200.4
1289.29301	85316
1292.82151	87942.5
1296.34761	91084
1299.87133	94956.7
1303.39266	99019.3
1306.9116	102730.4
1310.42815	105736
1313.94233	107302.1
1317.45412	107143.5
1320.96354	105901.4
1324.47058	104488.3
1327.97525	103256.5
1331.47754	102198.2
1334.97747	101525.1
1338.47502	101145.3
1341.97022	100968.4
1345.46305	100856.8
1348.95352	100521.9
1352.44163	100348.8
1355.92738	101062.9
1359.41078	103248
1362.89183	104949.3
1366.37053	103396
1369.84688	97568
1373.32088	90006.5
1376.79254	84763.5
1380.26186	82711.8
1383.72883	82829
1387.19347	83233.9
1390.65578	82823.1
1394.11575	82309.4
1397.57339	82439.9
1401.0287	83041.9
1404.48168	83679.5
1407.93234	83636.5
1411.38068	82731.3
1414.82669	80971.7
1418.27039	78857.9
1421.71177	76644.7
1425.15083	74899.7
1428.58758	74123.6
1432.02203	74487.3
1435.45416	75734.4
1438.88399	77428.1
1442.31151	78658.7
1445.73673	79387.3
1449.15965	79730.7
1452.58027	79811
1455.9986	79674
1459.41463	79974
1462.82837	80789.8
1466.23982	81915.2
1469.64898	83233.4
1473.05586	84230.2
1476.46045	84616.3
1479.86276	84331.4
1483.26279	83684.9
1486.66054	83237.1
1490.05602	83397.8
1493.44922	84013.4
1496.84016	84641.9
1500.22882	85881.4
1503.61521	87619
1506.99934	89623.2
1510.38121	90856.5
1513.76081	90715.9
1517.13816	89326.3
1520.51324	87479.5
1523.88607	86322.8
1527.25665	86075
1530.62498	86309.5
1533.99105	86238.8
1537.35488	85631.4
1540.71647	84436
1544.07581	82825.9
1547.4329	81229.6
1550.78776	79925.6
1554.14038	78882.7
1557.49077	78197.1
1560.83892	77877.7
1564.18484	77733.1
1567.52853	77736.4
1570.86999	78343.4
1574.20922	79306
1577.54624	79912.3
1580.88103	79964.4
1584.2136	80278.3
1587.54395	81774.9
1590.87208	84666.9
1594.19801	88434.2
1597.52172	92191.1
1600.84321	93386.9
1604.16251	90701.9
1607.47959	85903.1
1610.79447	80823.1
1614.10715	75950.7
1617.41763	71854.3
1620.7259	69012.6
1624.03199	67515.2
1627.33587	67486.3
1630.63757	68561.2
1633.93707	71466.1
1637.23439	76467.2
1640.52951	83664.7
1643.82246	92048.1
1647.11321	98426.1
1650.40179	99176.3
1653.68819	93260.1
1656.97241	83821.3
1660.25446	74919.4
1663.53433	68339
1666.81203	64098.7
1670.08756	61502.8
1673.36092	59853.6
1676.63211	58679.7
1679.90115	57852.5
1683.16801	57260.2
1686.43272	56752.6
1689.69527	56404.4
1692.95567	56223.2
1696.2139	56008.7
1699.46999	55885.4
1702.72392	55797.6
1705.97571	55650.2
1709.22535	55546.8
1712.47284	55607.6
1715.71819	55621
1718.96139	55539.5
1722.20246	55443.8
1725.44139	55204.4
1728.67818	54957
1731.91284	54622.5
1735.14537	54532.9
1738.37576	54345.9
1741.60403	54297.2
1744.83017	54178.8
1748.05418	54054.6
1751.27607	53952.5
1754.49584	53872
1757.71349	53916
1760.92903	53906.4
1764.14244	53828.2
1767.35375	53798.6
1770.56294	53717.7
1773.77002	53678.6
1776.97499	53593
1780.17785	53434
1783.37861	53416.3
1786.57727	53415
1789.77382	53312.3
1792.96828	53315.6
1796.16064	53160.8
1799.3509	53033.2
1802.53907	52977.3
1805.72514	52819.2
1808.90913	52763.4
1812.09102	52747.5
1815.27083	52653.4
1818.44856	52572.2
1821.6242	52514.5
1824.79776	52473.7
1827.96924	52446.7
1831.13864	52410.7
1834.30597	52382.6
1837.47122	52388.9
1840.6344	52293.5
1843.7955	52342.6
1846.95454	52287.3
1850.11151	52282.2
1853.26642	52230.1
1856.41926	52208.9
1859.57004	52116.6
1862.71876	52140.6
1865.86542	52058.4
1869.01003	52048
1872.15258	51988.6
1875.29308	51945
1878.43152	51914.2
1881.56792	51876.5
1884.70227	51726.2
1887.83457	51653.6
1890.96482	51637.5
1894.09304	51702.3
1897.21921	51645.3
1900.34335	51545.6
1903.46544	51489.2
1906.58551	51456.3
1909.70353	51414.3
1912.81953	51406.9
1915.93349	51313.2
1919.04543	51149
1922.15534	51083.2
1925.26322	50953.4
1928.36908	50909.7
1931.47292	50861.7
1934.57473	50777.6
1937.67453	50725.1
1940.77232	50602.2
1943.86808	50487.2
1946.96184	50371.3
1950.05358	50320.8
1953.14331	50162.3
1956.23103	50069.4
1959.31675	49870
1962.40046	49760.3
1965.48217	49631
1968.56188	49494.9
1971.63959	49375.7
1974.7153	49158.6
1977.78901	49034.7
1980.86073	48949.9
1983.93046	48820
1986.99819	48635.3
1990.06394	48644.5
1993.1277	48524.1
1996.18947	48312.8
1999.24925	48206.5
2002.30706	48058.8
2005.36288	47979.4
2008.41672	47817.4
2011.46859	47651.5
2014.51848	47585.5
2017.56639	47404.4
2020.61233	47294.3
2023.6563	47203.5
2026.6983	47109.2
2029.73833	47034.2
2032.7764	46986.8
2035.8125	46875.1
2038.84664	46762.7
2041.87881	46671.4
2044.90903	46607.8
2047.93729	46481.4
2050.96359	46511.4
2053.98794	46459.5
2057.01034	46454.2
2060.03078	46485.6
2063.04927	46415
2066.06582	46397.6
2069.08042	46368.5
2072.09307	46318.7
2075.10378	46311
2078.11255	46230.1
2081.11938	46275.5
2084.12426	46238.9
2087.12722	46313.1
2090.12824	46220.4
2093.12732	46290.3
2096.12447	46266.5
2099.11969	46291.3
2102.11299	46374.2
2105.10435	46391.6
2108.09379	46384.1
2111.08131	46406.9
2114.0669	46450.4
2117.05057	46496.6
2120.03233	46567.9
2123.01216	46598.5
2125.99008	46676.9
2128.96609	46575.9
2131.94018	46615.6
2134.91236	46641.3
2137.88263	46704.7
2140.851	46667.1
2143.81746	46751.9
2146.78201	46845.1
2149.74466	46855.1
2152.7054	46869.9
2155.66425	46810.6
2158.6212	46796.3
2161.57625	46782
2164.52941	46737.7
2167.48067	46737.7
2170.43004	46719.8
2173.37752	46746.6
2176.32311	46901
2179.26681	46858
2182.20863	46790.4
2185.14856	46848.7
2188.08661	46737.1
2191.02278	46768
2193.95707	46774.9
2196.88948	46729.1
2199.82001	46654.8
2202.74867	46676.8
2205.67545	46619.8
2208.60037	46545.2
2211.52341	46491.3
2214.44458	46419
2217.36388	46303
2220.28132	46283.5
2223.1969	46204
2226.11061	46170.8
2229.02246	46028
2231.93245	46002.4
2234.84058	45888.9
2237.74686	45859.7
2240.65128	45851.1
2243.55385	45746.4
2246.45456	45750.5
2249.35343	45677.5
2252.25044	45606.4
2255.14561	45580.1
2258.03893	45466.9
2260.93041	45408
2263.82004	45378.2
2266.70783	45254.4
2269.59378	45104.1
2272.4779	45064.5
2275.36017	44973.4
2278.24061	44864.6
2281.11922	44696.2
2283.996	44665.3
2286.87094	44620.7
2289.74405	44602.9
2292.61534	44636.5
2295.4848	44578.9
2298.35243	44593.4
2301.21824	44543
2304.08223	44506.7
2306.94439	44470.3
2309.80474	44465.4
2312.66327	44418.2
2315.51999	44366.5
2318.37489	44342.9
2321.22797	44354
2324.07925	44217.8
2326.92871	44167
2329.77637	44092.6
2332.62222	43971.7
2335.46626	44017.6
2338.3085	43992.2
2341.14893	43969.4
2343.98756	43967.9
2346.8244	43900.1
2349.65943	43871.9
2352.49267	43868
2355.32411	43905.9
2358.15376	43911.1
2360.98161	43845.3
2363.80768	43741.5
2366.63195	43735.8
2369.45444	43722.5
2372.27514	43623.8
2375.09405	43586.4
2377.91118	43488.2
2380.72652	43444.6
2383.54009	43317.4
2386.35187	43373.5
2389.16188	43170.6
2391.97011	43124.2
2394.77657	43067.4
2397.58125	43013.9
2400.38416	42963.2
2403.18529	42842.8
2405.98466	42826.1
2408.78226	42753.5
2411.57809	42700
2414.37216	42671
2417.16446	42672.6
2419.955	42599.8
2422.74378	42626.7
2425.5308	42583.7
2428.31606	42557.3
2431.09956	42463.6
2433.88131	42472.7
2436.6613	42521.2
2439.43954	42535.8
2442.21603	42523.7
2444.99077	42419.9
2447.76377	42365.7
2450.53501	42330.3
2453.30451	42298.3
2456.07226	42259.2
2458.83827	42239.2
2461.60254	42250.3
2464.36507	42155.2
2467.12586	42160.5
2469.88492	42079.3
2472.64224	42078.5
2475.39782	42093
2478.15167	42188.7
2480.90379	42190.9
2483.65417	42188
2486.40283	42169
2489.14976	42102.9
2491.89497	42099.7
2494.63845	42084.2
2497.3802	42099.8
2500.12024	42024.4
2502.85855	41963.3
2505.59514	42004.9
2508.33002	41941.5
2511.06318	41923.4
2513.79462	41836.4
2516.52435	41742.3
2519.25237	41767
2521.97867	41712.8
2524.70327	41730.7
2527.42616	41670.1
2530.14734	41613
2532.86681	41565.3
2535.58458	41556.9
2538.30065	41457.5
2541.01501	41499.8
2543.72768	41399.7
2546.43864	41429.9
2549.14791	41383.9
2551.85548	41294.2
2554.56136	41233.4
2557.26554	41177.5
2559.96803	41104.2
2562.66883	41059.7
2565.36794	40978.2
2568.06536	40971.9
2570.7611	40937
2573.45514	40908.7
2576.14751	40865.1
2578.83819	40760.8
2581.52719	40767.5
2584.21451	40652.4
2586.90015	40641.3
2589.58411	40547.9
2592.2664	40435.6
2594.94701	40411.4
2597.62594	40419.7
2600.30321	40381.1
2602.9788	40368.6
2605.65273	40257.6
2608.32498	40282.5
2610.99557	40239.7
2613.66449	40252.2
2616.33175	40225.3
2618.99734	40273
2621.66128	40184.1
2624.32355	40108.7
2626.98416	40056.2
2629.64311	40007.9
2632.30041	39939
2634.95605	39871.8
2637.61004	39894.8
2640.26238	39904.7
2642.91306	39850.4
2645.56209	39777
2648.20948	39808.1
2650.85521	39818.6
2653.4993	39836.4
2656.14175	39794
2658.78255	39888.1
2661.42171	39865.4
2664.05923	39821.9
2666.6951	39827.2
2669.32934	39882.1
2671.96194	39819.9
2674.59291	39809.2
2677.22224	39816
2679.84993	39873.3
2682.476	39827.4
2685.10043	39849.3
2687.72324	39760.8
2690.34441	39742.6
2692.96396	39678.7
2695.58188	39757.3
2698.19818	39698.8
2700.81285	39720.7
2703.4259	39690
2706.03733	39825.9
2708.64714	39758
2711.25533	39739.6
2713.86191	39723.5
2716.46687	39844.7
2719.07021	39896.1
2721.67194	39943.7
2724.27206	39902.9
2726.87057	39939
2729.46747	39979.2
2732.06276	40007.4
2734.65644	39908.1
2737.24852	39895.2
2739.83899	39800
2742.42786	39869.3
2745.01513	39834.9
2747.60079	39825.2
2750.18486	39679.3
2752.76733	39634.3
2755.3482	39602.1
2757.92747	39609.6
2760.50515	39528.3
2763.08123	39505.9
2765.65573	39475.6
2768.22863	39412.3
2770.79994	39357.6
2773.36967	39403.5
2775.9378	39339.6
2778.50435	39374.2
2781.06932	39342.9
2783.6327	39282.9
2786.1945	39182.8
2788.75471	39169
2791.31335	39093
2793.87041	39027.2
2796.42589	38939.4
2798.97979	38955.2
2801.53212	38755.6
2804.08288	38733.4
2806.63206	38625.4
2809.17967	38491.5
2811.72571	38436.9
2814.27018	38332.6
2816.81308	38296.7
2819.35442	38282.1
2821.89419	38198.6
2824.43239	38218.8
2826.96904	38169.7
2829.50412	38109.2
2832.03763	37958.6
2834.56959	37997.7
2837.1	37900.8
2839.62884	37875.3
2842.15613	37833
2844.68186	37875.5
2847.20604	37837.3
2849.72867	37728.6
2852.24974	37680.1
2854.76927	37660.9
2857.28724	37664.7
2859.80367	37591
2862.31855	37439.2
2864.83189	37432.8
2867.34368	37466.3
2869.85393	37447.1
2872.36264	37374
2874.8698	37333.7
2877.37543	37311.3
2879.87952	37263.6
2882.38207	37271.3
2884.88308	37213.8
2887.38256	37201.2
2889.88051	37209
2892.37692	37191
2894.8718	37252.5
2897.36515	37268.9
2899.85698	37196.7
2902.34727	37226.2
2904.83604	37244.6
2907.32328	37333.4
2909.809	37330.7
2912.29319	37387.5
2914.77587	37402.1
2917.25702	37405.3
2919.73665	37365.5
2922.21476	37345
2924.69136	37284.8
2927.16644	37296.1
2929.64	37250.4
2932.11205	37177.5
2934.58258	37086.3
2937.05161	37136.2
2939.51912	37132.8
2941.98513	37123.7
2944.44962	37065.3
2946.91261	37043.4
2949.37409	37090.6
2951.83407	37030
2954.29254	37029
2956.74951	37024.8
2959.20498	37036.2
2961.65895	36973.5
2964.11142	36956.7
2966.56239	36925.5
2969.01186	36987
2971.45984	36872.6
2973.90632	36776.2
2976.35131	36772.7
2978.7948	36739.1
2981.23681	36677.5
2983.67732	36572.5
2986.11635	36542.6
2988.55388	36430.2
2990.98993	36368.9
2993.4245	36289.5
2995.85758	36176.9
2998.28917	36122.4
3000.71928	36091.5
3003.14791	35937.8
3005.57506	35924
3008.00073	35780.8
3010.42493	35796.2
3012.84764	35727.6
3015.26888	35749.4
3017.68865	35606.4
3020.10694	35640
3022.52376	35549.8
3024.9391	35524.5
3027.35298	35445.5
3029.76539	35434.5
3032.17632	35355
3034.5858	35348.4
3036.9938	35350.2
3039.40034	35276.4
3041.80542	35315.6
3044.20903	35202.1
3046.61118	35200.5
3049.01187	35081.6
3051.4111	35041.8
3053.80888	34932.5
3056.20519	34861.1
3058.60005	34756.4
3060.99345	34786.1
3063.3854	34706.5
3065.7759	34597.9
3068.16494	34479.4
3070.55254	34342.9
3072.93868	34300.2
3075.32338	34197.5
3077.70662	34144.7
3080.08842	34068
3082.46878	33995.8
3084.84769	33979.6
3087.22515	33969.9
3089.60118	33941.4
3091.97576	33922.7
3094.3489	33879.3
3096.72061	33895.2
3099.09087	33937.2
3101.4597	33923.2
3103.82709	33906.4
3106.19305	33850
3108.55757	33805.6
3110.92066	33664.5
3113.28232	33647
3115.64255	33519.8
3118.00134	33498.6
3120.35871	33429.3
3122.71466	33359.7
3125.06917	33284.3
3127.42226	33159.5
3129.77393	33149
3132.12417	33072.1
3134.47299	33050.9
3136.82039	32983.3
3139.16636	32986.4
3141.51092	32902.1
3143.85406	32943.5
3146.19579	32920.8
3148.53609	32908.5
3150.87499	32909.9
3153.21246	32937.3
3155.54853	33073.4
3157.88318	32934.2
3160.21642	32989.1
3162.54826	32962.4
3164.87868	32912.6
3167.2077	32887
3169.5353	32973.9
3171.86151	32898.5
3174.18631	32850.8
3176.5097	32775.8
3178.83169	32682.4
3181.15228	32696.7
3183.47147	32586.4
3185.78926	32559.5
3188.10565	32516.5
3190.42065	32502.2
3192.73424	32432.3
3195.04645	32348
3197.35725	32356.2
3199.66667	32374.6
3201.97469	32354.5
3204.28132	32322.8
3206.58656	32374.1
3208.8904	32371.2
3211.19287	32352.3
3213.49394	32317.2
3215.79363	32306.1
3218.09193	32311.6
3220.38884	32371.5
3222.68438	32385.3
3224.97853	32329.6
3227.2713	32351.4
3229.56269	32292.7
3231.8527	32259.3
3234.14133	32161.6
3236.42858	32028.8
3238.71446	32026.6
3240.99896	31972.5
3243.28209	31913.2
3245.56384	31877.9
3247.84423	31937.8
3250.12324	31819
3252.40088	31735.2
3254.67715	31682.4
3256.95205	31654.8
3259.22558	31679.2
3261.49775	31634.3
3263.76855	31572
3266.03799	31472.1
3268.30606	31485.4
3270.57277	31430.7
3272.83812	31384.5
3275.10211	31256.6
3277.36474	31224.1
3279.62601	31240.1
3281.88593	31197.8
3284.14448	31194.1
3286.40168	31204.4
3288.65753	31188.2
3290.91202	31194.5
3293.16516	31101
3295.41695	30999.6
3297.66738	30832.3
3299.91647	30685.1
3302.16421	30451.4
3304.4106	30342.5
3306.65564	30163.2
3308.89933	29926.5
3311.14169	29715
3313.38269	29441
3315.62236	29291.8
3317.86068	29073.4
3320.09766	28847.7
3322.3333	28640.7
3324.5676	28544.4
3326.80056	28069.2
3329.03219	27894.8
3331.26248	5.5
3333.49143	0.7
3335.71905	-0.2
