Data from AgNPs_FTO_APTES_UA_20uM_CRN_10uM_R6G_10uM_NaF_0.1M_Addition_RamanShift__22__14-36-02-212.txt Node

Date: Thu Feb 17 14:36:02 GMT 2022
User: TCL
Spectrometer: QEP01345
Trigger mode: 4
Integration Time (sec): 7.000000E0
Scans to average: 10
Electric dark correction enabled: true
Nonlinearity correction enabled: false
Boxcar width: 0
XAxis mode: Raman Shifts
Number of Pixels in Spectrum: 1044
>>>>>Begin Spectral Data<<<<<
46.04893	0.075
50.45542	-1.525
54.85868	-3.325
59.25871	-1.025
63.6555	123.675
68.04907	124.875
72.43941	128.975
76.82654	133.775
81.21044	135.475
85.59113	141.675
89.96862	145.175
94.34289	151.475
98.71396	153.175
103.08183	157.475
107.4465	161.675
111.80798	169.175
116.16626	174.975
120.52136	184.775
124.87327	190.475
129.222	205.475
133.56755	220.075
137.90993	233.575
142.24913	256.975
146.58517	293.075
150.91804	347.775
155.24774	413.175
159.57429	523.375
163.89768	675.875
168.21792	897.475
172.53501	1236.075
176.84895	1741.975
181.15975	2462.175
185.46741	3477.975
189.77193	4806.875
194.07331	6453.375
198.37157	8346.075
202.6667	10324.775
206.9587	12310.375
211.24758	14265.875
215.53334	16179.875
219.81599	18203.875
224.09553	20432.275
228.37195	22965.175
232.64527	25716.075
236.91549	28671.375
241.18261	31648.775
245.44663	34534.475
249.70755	37125.275
253.96539	39386.875
258.22014	41326.775
262.4718	42948.475
266.72039	44103.675
270.96589	44735.175
275.20832	44831.275
279.44768	44608.275
283.68397	44234.875
287.91719	43822.475
292.14735	43545.475
296.37445	43463.875
300.59849	43534.775
304.81948	43635.675
309.03742	43629.075
313.25231	43271.575
317.46415	42612.075
321.67296	41778.575
325.87872	41108.675
330.08145	40835.475
334.28114	40922.475
338.47781	41259.275
342.67145	41818.775
346.86207	42477.575
351.04966	43373.875
355.23424	44271.375
359.4158	45022.875
363.59435	45596.175
367.76989	46079.075
371.94243	46444.075
376.11196	46744.075
380.27849	47019.375
384.44203	47303.775
388.60257	47514.775
392.76012	47836.075
396.91468	48259.075
401.06626	48925.875
405.21485	49437.475
409.36047	49447.075
413.50311	48874.675
417.64277	48385.775
421.77947	48283.875
425.9132	48455.375
430.04396	48748.475
434.17176	49133.875
438.2966	49734.775
442.41849	50549.175
446.53742	51673.675
450.6534	53017.675
454.76644	54106.675
458.87653	54568.175
462.98368	54286.875
467.08789	53675.775
471.18916	52783.375
475.2875	52046.775
479.38291	51547.575
483.4754	51076.675
487.56496	50611.375
491.6516	50164.475
495.73531	49802.875
499.81612	49614.575
503.89401	49858.675
507.96899	49926.175
512.04106	49875.475
516.11023	49836.475
520.1765	49684.975
524.23987	49711.375
528.30034	49557.275
532.35792	49255.975
536.41261	48923.875
540.46441	48559.375
544.51333	48592.575
548.55936	48900.075
552.60252	49646.775
556.64279	50471.475
560.6802	50934.375
564.71473	51119.975
568.7464	51569.375
572.7752	52213.875
576.80114	52734.175
580.82422	53142.175
584.84444	53677.875
588.86181	54528.475
592.87633	55484.075
596.888	55970.975
600.89682	56061.875
604.9028	57581.975
608.90594	61866.075
612.90624	66338.975
616.90371	63391.475
620.89834	55293.375
624.89015	51872.175
628.87913	51406.875
632.86528	51251.075
636.84862	50908.075
640.82913	50256.675
644.80683	49383.575
648.78172	48688.475
652.75379	48700.575
656.72306	49266.475
660.68952	50072.975
664.65319	50016.875
668.61405	49357.575
672.57211	49221.975
676.52738	49279.875
680.47986	49233.675
684.42955	49058.675
688.37646	49044.275
692.32058	49316.275
696.26192	49789.275
700.20048	50271.275
704.13626	50483.375
708.06928	50323.975
711.99952	49931.475
715.927	49892.775
719.85171	49933.675
723.77365	49931.975
727.69284	49614.975
731.60928	49374.275
735.52295	49263.575
739.43388	49413.575
743.34206	49600.275
747.24749	49808.775
751.15017	50140.975
755.05012	50721.575
758.94733	51709.075
762.8418	53594.675
766.73354	56655.575
770.62254	59736.775
774.50882	60561.675
778.39237	58555.175
782.27321	55057.475
786.15132	52229.675
790.02671	50495.775
793.89938	49748.675
797.76935	49527.875
801.6366	49419.475
805.50115	49300.575
809.36299	49095.775
813.22213	48897.875
817.07857	48745.375
820.93231	48725.275
824.78336	48742.575
828.63172	48776.675
832.47738	48813.575
836.32036	48957.675
840.16066	49144.275
843.99827	49254.075
847.8332	49226.175
851.66546	49103.275
855.49504	49030.675
859.32195	49018.275
863.1462	48898.275
866.96777	48829.675
870.78668	48773.575
874.60293	48782.275
878.41652	48851.775
882.22745	48913.975
886.03573	48997.975
889.84136	48931.475
893.64433	48742.475
897.44466	48573.675
901.24235	48426.575
905.0374	48428.375
908.8298	48333.375
912.61957	48427.275
916.40671	48753.275
920.19121	49231.175
923.97308	49686.275
927.75233	49796.775
931.52895	49657.675
935.30295	49286.575
939.07433	48707.975
942.84309	48292.775
946.60924	48159.975
950.37278	48037.075
954.13371	47919.275
957.89203	47678.775
961.64774	47585.875
965.40086	47404.175
969.15137	47293.675
972.89929	47125.575
976.64461	47086.875
980.38733	47116.375
984.12747	47309.975
987.86502	47679.675
991.59999	48312.175
995.33237	49146.775
999.06217	50440.875
1002.78939	51930.775
1006.51404	52797.375
1010.23611	53197.275
1013.95561	53531.875
1017.67255	53580.775
1021.38692	53327.175
1025.09872	53068.075
1028.80796	53542.875
1032.51465	54842.275
1036.21877	55939.175
1039.92035	56053.075
1043.61937	55334.975
1047.31584	54058.175
1051.00976	52654.075
1054.70114	51893.175
1058.38998	51716.075
1062.07627	51734.575
1065.76003	51891.075
1069.44126	52115.775
1073.11995	52387.375
1076.79611	52714.175
1080.46974	53132.975
1084.14085	53535.075
1087.80943	53950.875
1091.47549	54171.875
1095.13903	53892.675
1098.80005	53295.175
1102.45857	52695.075
1106.11456	52409.475
1109.76805	52593.075
1113.41903	52946.675
1117.06751	53400.975
1120.71348	53878.375
1124.35696	54181.775
1127.99793	54543.475
1131.63641	54510.575
1135.2724	54123.875
1138.90589	53703.675
1142.5369	53441.275
1146.16542	53237.675
1149.79145	53282.275
1153.415	53623.075
1157.03607	54103.175
1160.65467	54956.375
1164.27079	56388.475
1167.88443	58458.275
1171.49561	61127.975
1175.10432	64729.475
1178.71056	69317.475
1182.31434	73689.075
1185.91565	76035.075
1189.51451	75575.775
1193.11091	73254.875
1196.70485	70257.875
1200.29634	67593.275
1203.88538	65794.075
1207.47197	64307.175
1211.05612	63006.875
1214.63782	62141.575
1218.21708	61985.775
1221.79391	62172.075
1225.36829	62330.775
1228.94024	61833.475
1232.50976	60791.875
1236.07685	59917.575
1239.6415	59557.975
1243.20374	59707.975
1246.76355	60087.275
1250.32093	60858.875
1253.8759	61962.175
1257.42845	63284.275
1260.97859	64515.775
1264.52631	65485.075
1268.07163	66768.375
1271.61453	68164.775
1275.15503	69800.675
1278.69312	71500.575
1282.22882	72838.075
1285.76211	73970.375
1289.29301	75153.175
1292.82151	76663.175
1296.34761	78827.475
1299.87133	82062.075
1303.39266	86207.975
1306.9116	91247.675
1310.42815	96479.375
1313.94233	99719.075
1317.45412	99712.575
1320.96354	97637.075
1324.47058	95031.675
1327.97525	92439.375
1331.47754	90579.075
1334.97747	90084.175
1338.47502	90727.975
1341.97022	91536.975
1345.46305	91642.575
1348.95352	91135.775
1352.44163	90921.175
1355.92738	92413.675
1359.41078	95991.675
1362.89183	99256.375
1366.37053	97341.175
1369.84688	89740.575
1373.32088	81305.675
1376.79254	75623.175
1380.26186	72962.875
1383.72883	72055.275
1387.19347	71616.475
1390.65578	70934.575
1394.11575	70722.675
1397.57339	71216.275
1401.0287	72410.675
1404.48168	73875.375
1407.93234	74909.475
1411.38068	75356.775
1414.82669	74842.975
1418.27039	73134.775
1421.71177	70812.875
1425.15083	68682.275
1428.58758	67488.575
1432.02203	67542.775
1435.45416	68333.775
1438.88399	69370.775
1442.31151	70333.875
1445.73673	71048.075
1449.15965	71675.875
1452.58027	72012.475
1455.9986	71958.275
1459.41463	72066.175
1462.82837	72826.275
1466.23982	74113.575
1469.64898	75477.475
1473.05586	76574.175
1476.46045	77135.975
1479.86276	77177.375
1483.26279	77058.175
1486.66054	76856.975
1490.05602	77248.875
1493.44922	77711.475
1496.84016	78000.775
1500.22882	78633.875
1503.61521	80313.175
1506.99934	82747.775
1510.38121	84794.975
1513.76081	85055.175
1517.13816	83083.275
1520.51324	79859.675
1523.88607	77038.975
1527.25665	75434.875
1530.62498	74762.575
1533.99105	74461.575
1537.35488	74311.475
1540.71647	73876.975
1544.07581	73413.375
1547.4329	72709.275
1550.78776	71788.475
1554.14038	71016.175
1557.49077	70533.575
1560.83892	70283.875
1564.18484	70077.475
1567.52853	69996.775
1570.86999	70169.475
1574.20922	70471.375
1577.54624	70717.975
1580.88103	70315.675
1584.2136	70107.075
1587.54395	71316.775
1590.87208	74325.475
1594.19801	78792.075
1597.52172	83722.075
1600.84321	85959.175
1604.16251	83797.275
1607.47959	79045.075
1610.79447	73521.175
1614.10715	68281.275
1617.41763	64190.975
1620.7259	61343.575
1624.03199	59812.575
1627.33587	59640.575
1630.63757	60818.675
1633.93707	63439.275
1637.23439	67474.675
1640.52951	72765.275
1643.82246	78721.875
1647.11321	83095.175
1650.40179	83564.575
1653.68819	78917.475
1656.97241	71107.775
1660.25446	63460.875
1663.53433	57987.375
1666.81203	54499.875
1670.08756	52230.575
1673.36092	50762.675
1676.63211	49797.475
1679.90115	49052.375
1683.16801	48413.875
1686.43272	47960.675
1689.69527	47811.575
1692.95567	47525.575
1696.2139	47456.975
1699.46999	47320.175
1702.72392	47215.375
1705.97571	47169.275
1709.22535	47093.075
1712.47284	47088.575
1715.71819	47079.575
1718.96139	47017.475
1722.20246	46870.075
1725.44139	46716.575
1728.67818	46560.975
1731.91284	46341.575
1735.14537	46148.275
1738.37576	46008.075
1741.60403	45918.175
1744.83017	45702.975
1748.05418	45628.875
1751.27607	45627.975
1754.49584	45568.475
1757.71349	45594.175
1760.92903	45587.075
1764.14244	45519.275
1767.35375	45437.375
1770.56294	45392.375
1773.77002	45350.475
1776.97499	45320.975
1780.17785	45246.375
1783.37861	45204.775
1786.57727	45124.475
1789.77382	45021.075
1792.96828	45076.675
1796.16064	45001.375
1799.3509	44952.175
1802.53907	44960.475
1805.72514	44788.275
1808.90913	44770.575
1812.09102	44650.975
1815.27083	44551.875
1818.44856	44551.275
1821.6242	44458.775
1824.79776	44433.575
1827.96924	44393.475
1831.13864	44346.475
1834.30597	44461.375
1837.47122	44330.875
1840.6344	44223.775
1843.7955	44314.375
1846.95454	44215.175
1850.11151	44272.775
1853.26642	44221.275
1856.41926	44255.675
1859.57004	44236.775
1862.71876	44198.975
1865.86542	44174.875
1869.01003	44148.975
1872.15258	44131.475
1875.29308	44185.875
1878.43152	44097.475
1881.56792	44097.075
1884.70227	44157.875
1887.83457	44132.275
1890.96482	44083.375
1894.09304	44019.975
1897.21921	43969.375
1900.34335	43915.075
1903.46544	43867.275
1906.58551	43894.875
1909.70353	43909.275
1912.81953	43875.575
1915.93349	43836.475
1919.04543	43686.375
1922.15534	43665.075
1925.26322	43672.975
1928.36908	43567.375
1931.47292	43545.975
1934.57473	43422.375
1937.67453	43378.275
1940.77232	43295.075
1943.86808	43122.775
1946.96184	43055.375
1950.05358	42900.075
1953.14331	42803.475
1956.23103	42624.475
1959.31675	42529.975
1962.40046	42458.175
1965.48217	42298.775
1968.56188	42219.675
1971.63959	42109.175
1974.7153	41972.775
1977.78901	41852.875
1980.86073	41709.675
1983.93046	41632.975
1986.99819	41501.375
1990.06394	41424.175
1993.1277	41309.775
1996.18947	41189.275
1999.24925	41112.075
2002.30706	41003.875
2005.36288	40912.975
2008.41672	40782.475
2011.46859	40661.375
2014.51848	40630.575
2017.56639	40480.975
2020.61233	40384.175
2023.6563	40298.075
2026.6983	40197.175
2029.73833	40121.875
2032.7764	40088.475
2035.8125	40024.975
2038.84664	39919.475
2041.87881	39971.875
2044.90903	39871.775
2047.93729	39874.275
2050.96359	39771.475
2053.98794	39713.675
2057.01034	39741.275
2060.03078	39734.075
2063.04927	39697.675
2066.06582	39644.575
2069.08042	39625.275
2072.09307	39596.475
2075.10378	39543.675
2078.11255	39501.475
2081.11938	39467.975
2084.12426	39487.175
2087.12722	39433.575
2090.12824	39470.875
2093.12732	39437.975
2096.12447	39462.375
2099.11969	39416.475
2102.11299	39373.975
2105.10435	39447.275
2108.09379	39512.075
2111.08131	39473.175
2114.0669	39495.675
2117.05057	39512.675
2120.03233	39603.675
2123.01216	39694.875
2125.99008	39703.375
2128.96609	39724.175
2131.94018	39753.475
2134.91236	39797.975
2137.88263	39854.075
2140.851	39843.275
2143.81746	39902.875
2146.78201	39920.675
2149.74466	39982.475
2152.7054	39998.775
2155.66425	39922.675
2158.6212	39986.875
2161.57625	39886.975
2164.52941	39933.675
2167.48067	39883.775
2170.43004	39867.675
2173.37752	39851.075
2176.32311	39966.975
2179.26681	39987.675
2182.20863	39899.975
2185.14856	39985.475
2188.08661	40011.975
2191.02278	40016.675
2193.95707	39942.675
2196.88948	39956.875
2199.82001	39975.375
2202.74867	39923.775
2205.67545	39910.875
2208.60037	39877.275
2211.52341	39831.675
2214.44458	39857.275
2217.36388	39817.875
2220.28132	39766.475
2223.1969	39631.675
2226.11061	39595.675
2229.02246	39495.675
2231.93245	39431.875
2234.84058	39329.975
2237.74686	39285.275
2240.65128	39248.075
2243.55385	39204.475
2246.45456	39207.075
2249.35343	39200.975
2252.25044	39170.675
2255.14561	39086.275
2258.03893	39027.575
2260.93041	38936.775
2263.82004	38862.975
2266.70783	38800.275
2269.59378	38692.875
2272.4779	38649.775
2275.36017	38606.175
2278.24061	38567.875
2281.11922	38469.775
2283.996	38402.475
2286.87094	38360.475
2289.74405	38347.475
2292.61534	38326.675
2295.4848	38237.475
2298.35243	38299.575
2301.21824	38279.275
2304.08223	38264.275
2306.94439	38332.275
2309.80474	38344.875
2312.66327	38395.375
2315.51999	38421.975
2318.37489	38329.275
2321.22797	38334.675
2324.07925	38339.575
2326.92871	38252.175
2329.77637	38169.675
2332.62222	38159.175
2335.46626	38142.075
2338.3085	38185.175
2341.14893	38164.575
2343.98756	38168.575
2346.8244	38149.375
2349.65943	38167.075
2352.49267	38169.475
2355.32411	38160.275
2358.15376	38159.575
2360.98161	38127.775
2363.80768	38108.075
2366.63195	38015.775
2369.45444	37953.075
2372.27514	37888.575
2375.09405	37858.975
2377.91118	37775.375
2380.72652	37670.575
2383.54009	37579.175
2386.35187	37526.675
2389.16188	37442.475
2391.97011	37379.175
2394.77657	37342.175
2397.58125	37282.175
2400.38416	37305.575
2403.18529	37209.775
2405.98466	37171.275
2408.78226	37024.975
2411.57809	36975.175
2414.37216	36951.575
2417.16446	36911.975
2419.955	36822.975
2422.74378	36837.075
2425.5308	36824.075
2428.31606	36841.475
2431.09956	36842.975
2433.88131	36793.475
2436.6613	36788.375
2439.43954	36776.875
2442.21603	36773.775
2444.99077	36674.075
2447.76377	36722.375
2450.53501	36638.275
2453.30451	36629.775
2456.07226	36633.575
2458.83827	36571.575
2461.60254	36584.775
2464.36507	36594.775
2467.12586	36544.575
2469.88492	36600.175
2472.64224	36574.275
2475.39782	36576.575
2478.15167	36626.275
2480.90379	36612.075
2483.65417	36708.775
2486.40283	36674.775
2489.14976	36671.975
2491.89497	36662.775
2494.63845	36731.775
2497.3802	36705.775
2500.12024	36673.375
2502.85855	36678.375
2505.59514	36651.575
2508.33002	36578.475
2511.06318	36543.475
2513.79462	36508.475
2516.52435	36430.475
2519.25237	36414.175
2521.97867	36427.675
2524.70327	36413.875
2527.42616	36351.475
2530.14734	36368.375
2532.86681	36326.375
2535.58458	36328.775
2538.30065	36282.275
2541.01501	36272.775
2543.72768	36273.675
2546.43864	36246.175
2549.14791	36251.275
2551.85548	36108.375
2554.56136	36102.875
2557.26554	36023.675
2559.96803	35951.375
2562.66883	35955.275
2565.36794	35899.075
2568.06536	35921.175
2570.7611	35829.775
2573.45514	35840.675
2576.14751	35783.075
2578.83819	35765.275
2581.52719	35777.675
2584.21451	35749.575
2586.90015	35732.575
2589.58411	35746.175
2592.2664	35705.775
2594.94701	35633.075
2597.62594	35687.275
2600.30321	35633.075
2602.9788	35632.575
2605.65273	35624.175
2608.32498	35645.475
2610.99557	35626.375
2613.66449	35646.775
2616.33175	35611.575
2618.99734	35626.775
2621.66128	35583.475
2624.32355	35616.875
2626.98416	35571.575
2629.64311	35582.575
2632.30041	35624.775
2634.95605	35571.075
2637.61004	35531.675
2640.26238	35476.275
2642.91306	35396.375
2645.56209	35371.475
2648.20948	35344.475
2650.85521	35319.675
2653.4993	35303.575
2656.14175	35244.375
2658.78255	35393.275
2661.42171	35390.175
2664.05923	35409.575
2666.6951	35448.375
2669.32934	35395.475
2671.96194	35392.875
2674.59291	35449.975
2677.22224	35445.975
2679.84993	35432.075
2682.476	35412.775
2685.10043	35386.175
2687.72324	35355.475
2690.34441	35378.875
2692.96396	35295.275
2695.58188	35358.975
2698.19818	35287.675
2700.81285	35274.575
2703.4259	35246.675
2706.03733	35359.675
2708.64714	35279.975
2711.25533	35303.675
2713.86191	35309.975
2716.46687	35392.375
2719.07021	35369.375
2721.67194	35406.275
2724.27206	35334.575
2726.87057	35416.375
2729.46747	35421.775
2732.06276	35399.975
2734.65644	35415.975
2737.24852	35433.175
2739.83899	35412.675
2742.42786	35493.175
2745.01513	35412.775
2747.60079	35381.975
2750.18486	35367.475
2752.76733	35342.075
2755.3482	35251.575
2757.92747	35325.475
2760.50515	35221.175
2763.08123	35222.075
2765.65573	35198.475
2768.22863	35244.775
2770.79994	35210.075
2773.36967	35252.275
2775.9378	35271.775
2778.50435	35224.975
2781.06932	35177.575
2783.6327	35185.875
2786.1945	35127.875
2788.75471	35092.775
2791.31335	35013.275
2793.87041	35042.375
2796.42589	34926.675
2798.97979	34901.175
2801.53212	34799.175
2804.08288	34812.375
2806.63206	34730.175
2809.17967	34625.575
2811.72571	34535.875
2814.27018	34452.075
2816.81308	34400.975
2819.35442	34349.275
2821.89419	34331.675
2824.43239	34319.975
2826.96904	34341.175
2829.50412	34362.475
2832.03763	34244.375
2834.56959	34234.575
2837.1	34190.275
2839.62884	34155.775
2842.15613	34038.075
2844.68186	34107.075
2847.20604	34036.575
2849.72867	34037.775
2852.24974	33974.375
2854.76927	33930.375
2857.28724	33884.175
2859.80367	33911.275
2862.31855	33870.075
2864.83189	33829.475
2867.34368	33729.975
2869.85393	33756.675
2872.36264	33786.575
2874.8698	33736.375
2877.37543	33744.175
2879.87952	33689.275
2882.38207	33684.475
2884.88308	33664.375
2887.38256	33720.675
2889.88051	33681.275
2892.37692	33707.375
2894.8718	33738.675
2897.36515	33795.075
2899.85698	33816.675
2902.34727	33868.275
2904.83604	33805.475
2907.32328	33878.775
2909.809	33893.675
2912.29319	33937.075
2914.77587	33941.275
2917.25702	33965.175
2919.73665	33857.575
2922.21476	33908.475
2924.69136	33837.975
2927.16644	33798.675
2929.64	33771.275
2932.11205	33749.175
2934.58258	33627.275
2937.05161	33730.875
2939.51912	33744.875
2941.98513	33710.575
2944.44962	33675.675
2946.91261	33635.975
2949.37409	33679.675
2951.83407	33634.675
2954.29254	33612.275
2956.74951	33604.675
2959.20498	33620.175
2961.65895	33600.375
2964.11142	33585.075
2966.56239	33543.275
2969.01186	33531.175
2971.45984	33414.775
2973.90632	33415.375
2976.35131	33360.275
2978.7948	33312.975
2981.23681	33259.875
2983.67732	33176.675
2986.11635	33190.275
2988.55388	33108.075
2990.98993	33029.875
2993.4245	32958.075
2995.85758	32947.575
2998.28917	32873.475
3000.71928	32821.175
3003.14791	32729.475
3005.57506	32750.175
3008.00073	32606.075
3010.42493	32564.975
3012.84764	32483.175
3015.26888	32501.875
3017.68865	32433.175
3020.10694	32400.075
3022.52376	32305.375
3024.9391	32325.575
3027.35298	32276.075
3029.76539	32261.175
3032.17632	32191.875
3034.5858	32208.275
3036.9938	32158.775
3039.40034	32119.675
3041.80542	32125.475
3044.20903	32015.475
3046.61118	32044.575
3049.01187	31910.875
3051.4111	31848.175
3053.80888	31840.775
3056.20519	31773.775
3058.60005	31685.275
3060.99345	31638.075
3063.3854	31576.175
3065.7759	31494.575
3068.16494	31373.575
3070.55254	31291.575
3072.93868	31190.775
3075.32338	31082.675
3077.70662	31078.175
3080.08842	30959.275
3082.46878	30941.875
3084.84769	30887.675
3087.22515	30830.875
3089.60118	30868.475
3091.97576	30841.075
3094.3489	30838.775
3096.72061	30818.275
3099.09087	30847.175
3101.4597	30801.175
3103.82709	30807.275
3106.19305	30744.075
3108.55757	30778.475
3110.92066	30731.075
3113.28232	30673.175
3115.64255	30584.775
3118.00134	30516.575
3120.35871	30410.575
3122.71466	30357.675
3125.06917	30325.775
