Data from AgNPs_FTO_APTES_UA_20uM_CRN_20uM_R6G_10uM_NaF_0.1M_Addition_RamanShift__14__15-06-22-253.txt Node

Date: Thu Feb 17 15:06:22 GMT 2022
User: TCL
Spectrometer: QEP01345
Trigger mode: 4
Integration Time (sec): 7.000000E0
Scans to average: 10
Electric dark correction enabled: true
Nonlinearity correction enabled: false
Boxcar width: 0
XAxis mode: Raman Shifts
Number of Pixels in Spectrum: 1044
>>>>>Begin Spectral Data<<<<<
46.04893	-0.275
50.45542	-0.775
54.85868	-3.275
59.25871	-0.675
63.6555	118.625
68.04907	121.125
72.43941	124.725
76.82654	126.525
81.21044	130.525
85.59113	135.425
89.96862	139.025
94.34289	139.025
98.71396	145.825
103.08183	145.825
107.4465	151.625
111.80798	158.325
116.16626	159.825
120.52136	169.525
124.87327	177.325
129.222	185.125
133.56755	196.325
137.90993	212.425
142.24913	236.025
146.58517	264.725
150.91804	303.525
155.24774	359.925
159.57429	451.625
163.89768	578.925
168.21792	774.525
172.53501	1059.225
176.84895	1483.525
181.15975	2099.225
185.46741	2979.225
189.77193	4130.625
194.07331	5574.725
198.37157	7228.725
202.6667	8979.525
206.9587	10699.725
211.24758	12436.125
215.53334	14036.225
219.81599	15788.225
224.09553	17633.025
228.37195	19637.425
232.64527	21924.825
236.91549	24404.125
241.18261	27056.125
245.44663	29678.625
249.70755	32156.525
253.96539	34440.725
258.22014	36387.025
262.4718	37849.225
266.72039	38913.925
270.96589	39497.625
275.20832	39644.525
279.44768	39478.025
283.68397	39117.025
287.91719	38638.625
292.14735	38278.725
296.37445	37946.425
300.59849	37703.825
304.81948	37576.625
309.03742	37500.525
313.25231	37321.225
317.46415	37210.525
321.67296	37073.325
325.87872	36989.825
330.08145	37085.925
334.28114	37352.025
338.47781	37747.725
342.67145	38176.025
346.86207	38619.425
351.04966	39210.825
355.23424	39764.525
359.4158	40315.525
363.59435	40792.525
367.76989	41332.125
371.94243	41761.625
376.11196	42120.025
380.27849	42492.825
384.44203	42888.425
388.60257	43230.025
392.76012	43591.525
396.91468	43974.625
401.06626	44336.825
405.21485	44689.625
409.36047	44991.325
413.50311	44960.225
417.64277	44924.225
421.77947	45027.625
425.9132	45177.225
430.04396	45429.325
434.17176	45751.025
438.2966	46102.725
442.41849	46498.525
446.53742	46888.425
450.6534	47365.925
454.76644	47801.525
458.87653	48198.225
462.98368	48348.525
467.08789	48532.825
471.18916	48634.325
475.2875	48475.525
479.38291	48455.325
483.4754	48361.225
487.56496	48316.325
491.6516	48354.225
495.73531	48367.625
499.81612	48383.425
503.89401	48637.625
507.96899	48816.025
512.04106	48973.225
516.11023	49171.525
520.1765	49176.225
524.23987	49285.725
528.30034	49355.125
532.35792	49400.325
536.41261	49459.625
540.46441	49350.125
544.51333	49444.725
548.55936	49565.525
552.60252	49876.925
556.64279	50176.025
560.6802	50386.025
564.71473	50443.325
568.7464	50510.925
572.7752	50583.325
576.80114	50752.825
580.82422	51028.025
584.84444	51272.225
588.86181	51468.525
592.87633	51556.125
596.888	51716.225
600.89682	52219.725
604.9028	53114.625
608.90594	54813.125
612.90624	56641.625
616.90371	55870.425
620.89834	53346.225
624.89015	52201.825
628.87913	52098.625
632.86528	52309.025
636.84862	52594.625
640.82913	52643.925
644.80683	52502.925
648.78172	52305.825
652.75379	52304.725
656.72306	52606.625
660.68952	53047.125
664.65319	53133.825
668.61405	53132.925
672.57211	53172.925
676.52738	53438.925
680.47986	53563.225
684.42955	53472.625
688.37646	53521.425
692.32058	53735.125
696.26192	54010.125
700.20048	54306.225
704.13626	54535.725
708.06928	54624.725
711.99952	54557.125
715.927	54580.525
719.85171	54514.525
723.77365	54617.125
727.69284	54604.225
731.60928	54547.725
735.52295	54448.525
739.43388	54515.925
743.34206	54581.825
747.24749	54655.525
751.15017	54741.925
755.05012	54985.625
758.94733	55288.625
762.8418	55840.425
766.73354	56744.025
770.62254	57837.625
774.50882	58431.525
778.39237	58168.625
782.27321	57366.125
786.15132	56472.325
790.02671	55822.125
793.89938	55486.625
797.76935	55353.325
801.6366	55289.925
805.50115	55277.825
809.36299	55242.925
813.22213	55268.125
817.07857	55342.325
820.93231	55476.225
824.78336	55572.925
828.63172	55713.325
832.47738	55779.725
836.32036	55874.325
840.16066	55858.225
843.99827	55977.225
847.8332	56084.825
851.66546	56162.425
855.49504	56301.425
859.32195	56482.325
863.1462	56547.125
866.96777	56606.925
870.78668	56701.325
874.60293	56810.025
878.41652	56932.125
882.22745	57049.425
886.03573	57141.325
889.84136	57160.925
893.64433	57045.225
897.44466	57047.325
901.24235	56966.325
905.0374	56902.325
908.8298	56898.825
912.61957	56935.125
916.40671	57032.025
920.19121	57088.625
923.97308	57092.925
927.75233	57056.725
931.52895	57034.025
935.30295	57031.525
939.07433	56882.025
942.84309	56787.225
946.60924	56617.025
950.37278	56674.325
954.13371	56639.825
957.89203	56609.025
961.64774	56562.525
965.40086	56518.725
969.15137	56495.025
972.89929	56471.425
976.64461	56462.025
980.38733	56524.525
984.12747	56592.525
987.86502	56772.725
991.59999	56905.225
995.33237	57096.725
999.06217	57245.325
1002.78939	57495.125
1006.51404	57788.325
1010.23611	58154.025
1013.95561	58398.325
1017.67255	58526.725
1021.38692	58448.525
1025.09872	58295.125
1028.80796	58095.525
1032.51465	58004.725
1036.21877	58091.825
1039.92035	58187.725
1043.61937	58308.825
1047.31584	58367.625
1051.00976	58536.625
1054.70114	58694.625
1058.38998	58743.725
1062.07627	58873.725
1065.76003	59167.025
1069.44126	59409.425
1073.11995	59854.625
1076.79611	60198.225
1080.46974	60373.225
1084.14085	60447.225
1087.80943	60404.025
1091.47549	60592.825
1095.13903	60603.225
1098.80005	60646.125
1102.45857	60539.725
1106.11456	60369.525
1109.76805	60219.325
1113.41903	60163.625
1117.06751	59993.725
1120.71348	60061.325
1124.35696	60183.125
1127.99793	60358.825
1131.63641	60347.125
1135.2724	60131.225
1138.90589	60099.225
1142.5369	59981.425
1146.16542	59929.925
1149.79145	59791.625
1153.415	59680.825
1157.03607	59535.925
1160.65467	59698.725
1164.27079	59978.725
1167.88443	60364.025
1171.49561	61032.525
1175.10432	61893.425
1178.71056	62930.725
1182.31434	64024.425
1185.91565	64844.125
1189.51451	65172.725
1193.11091	65318.325
1196.70485	65030.925
1200.29634	64670.025
1203.88538	64136.425
1207.47197	63678.825
1211.05612	63080.225
1214.63782	62450.925
1218.21708	62108.125
1221.79391	61800.025
1225.36829	61610.725
1228.94024	61588.825
1232.50976	61474.925
1236.07685	61442.325
1239.6415	61619.325
1243.20374	61739.025
1246.76355	61996.825
1250.32093	62276.025
1253.8759	62528.425
1257.42845	63041.825
1260.97859	63501.325
1264.52631	63747.725
1268.07163	64076.925
1271.61453	64218.025
1275.15503	64378.425
1278.69312	64463.525
1282.22882	64587.625
1285.76211	64677.825
1289.29301	64795.625
1292.82151	64981.125
1296.34761	65262.725
1299.87133	65693.025
1303.39266	66305.925
1306.9116	67117.125
1310.42815	68007.125
1313.94233	68561.225
1317.45412	68626.725
1320.96354	68512.925
1324.47058	68117.425
1327.97525	67546.025
1331.47754	67121.325
1334.97747	67012.325
1338.47502	67311.325
1341.97022	68114.425
1345.46305	68981.125
1348.95352	69959.925
1352.44163	70554.225
1355.92738	70707.625
1359.41078	70948.025
1362.89183	71004.025
1366.37053	70118.625
1369.84688	68208.825
1373.32088	66040.825
1376.79254	64378.325
1380.26186	63375.925
1383.72883	62806.825
1387.19347	62316.725
1390.65578	61789.025
1394.11575	61237.125
1397.57339	60801.325
1401.0287	60655.725
1404.48168	60571.225
1407.93234	60651.925
1411.38068	60741.325
1414.82669	60777.525
1418.27039	60558.625
1421.71177	60401.725
1425.15083	60140.225
1428.58758	59956.125
1432.02203	59895.025
1435.45416	59823.625
1438.88399	59884.225
1442.31151	59967.325
1445.73673	60121.525
1449.15965	60170.525
1452.58027	60227.325
1455.9986	60162.025
1459.41463	60341.625
1462.82837	60632.725
1466.23982	61111.025
1469.64898	61637.825
1473.05586	62201.425
1476.46045	62544.325
1479.86276	62743.025
1483.26279	62842.925
1486.66054	62916.125
1490.05602	63064.525
1493.44922	63458.325
1496.84016	63979.625
1500.22882	64876.325
1503.61521	66048.125
1506.99934	67179.125
1510.38121	67803.325
1513.76081	67651.725
1517.13816	66800.525
1520.51324	65747.725
1523.88607	64835.025
1527.25665	64210.625
1530.62498	63883.525
1533.99105	63593.725
1537.35488	63565.425
1540.71647	63489.825
1544.07581	63509.325
1547.4329	63529.425
1550.78776	63469.425
1554.14038	63300.625
1557.49077	63225.225
1560.83892	63143.725
1564.18484	63236.125
1567.52853	63293.225
1570.86999	63411.925
1574.20922	63610.325
1577.54624	63524.825
1580.88103	63197.225
1584.2136	62780.125
1587.54395	62581.125
1590.87208	62829.425
1594.19801	63299.525
1597.52172	64299.925
1600.84321	64868.725
1604.16251	64823.225
1607.47959	64453.325
1610.79447	63733.425
1614.10715	62796.325
1617.41763	61649.525
1620.7259	60736.325
1624.03199	60149.025
1627.33587	59875.525
1630.63757	59831.825
1633.93707	60117.725
1637.23439	60820.225
1640.52951	61979.225
1643.82246	63311.425
1647.11321	64577.725
1650.40179	65182.025
1653.68819	64690.825
1656.97241	63044.325
1660.25446	61342.725
1663.53433	59933.325
1666.81203	58965.525
1670.08756	58371.325
1673.36092	57906.225
1676.63211	57557.925
1679.90115	57355.725
1683.16801	57065.325
1686.43272	56893.925
1689.69527	56770.825
1692.95567	56669.425
1696.2139	56677.125
1699.46999	56655.225
1702.72392	56648.625
1705.97571	56580.825
1709.22535	56565.625
1712.47284	56645.725
1715.71819	56689.025
1718.96139	56682.125
1722.20246	56653.725
1725.44139	56527.025
1728.67818	56386.325
1731.91284	56227.625
1735.14537	56191.625
1738.37576	56120.225
1741.60403	56077.025
1744.83017	55973.725
1748.05418	55847.725
1751.27607	55770.225
1754.49584	55756.525
1757.71349	55849.025
1760.92903	55834.425
1764.14244	55712.025
1767.35375	55762.525
1770.56294	55659.125
1773.77002	55614.025
1776.97499	55574.325
1780.17785	55450.225
1783.37861	55406.425
1786.57727	55457.925
1789.77382	55418.825
1792.96828	55383.825
1796.16064	55237.125
1799.3509	55156.825
1802.53907	55115.325
1805.72514	55052.925
1808.90913	54880.325
1812.09102	54892.125
1815.27083	54887.525
1818.44856	54761.625
1821.6242	54734.725
1824.79776	54676.525
1827.96924	54654.225
1831.13864	54613.125
1834.30597	54572.325
1837.47122	54531.125
1840.6344	54487.525
1843.7955	54468.625
1846.95454	54459.425
1850.11151	54426.625
1853.26642	54372.625
1856.41926	54368.325
1859.57004	54355.025
1862.71876	54268.025
1865.86542	54246.825
1869.01003	54254.725
1872.15258	54188.325
1875.29308	54139.425
1878.43152	54046.125
1881.56792	54006.925
1884.70227	53875.725
1887.83457	53776.525
1890.96482	53786.325
1894.09304	53764.925
1897.21921	53731.525
1900.34335	53691.325
1903.46544	53560.825
1906.58551	53502.225
1909.70353	53489.125
1912.81953	53459.525
1915.93349	53351.825
1919.04543	53156.325
1922.15534	53080.425
1925.26322	53080.925
1928.36908	52938.625
1931.47292	52957.625
1934.57473	52870.225
1937.67453	52780.825
1940.77232	52691.325
1943.86808	52550.425
1946.96184	52492.025
1950.05358	52393.625
1953.14331	52328.925
1956.23103	52112.825
1959.31675	51948.225
1962.40046	51785.425
1965.48217	51640.425
1968.56188	51519.025
1971.63959	51457.725
1974.7153	51183.425
1977.78901	50991.025
1980.86073	51000.125
1983.93046	50863.825
1986.99819	50697.825
1990.06394	50619.325
1993.1277	50484.225
1996.18947	50285.025
1999.24925	50217.725
2002.30706	50068.325
2005.36288	49959.425
2008.41672	49751.925
2011.46859	49616.925
2014.51848	49532.525
2017.56639	49399.825
2020.61233	49255.425
2023.6563	49116.625
2026.6983	49008.425
2029.73833	48942.625
2032.7764	48785.825
2035.8125	48686.825
2038.84664	48602.525
2041.87881	48453.725
2044.90903	48355.025
2047.93729	48246.125
2050.96359	48259.625
2053.98794	48211.625
2057.01034	48210.725
2060.03078	48218.725
2063.04927	48185.725
2066.06582	48193.425
2069.08042	48067.325
2072.09307	48085.925
2075.10378	48012.325
2078.11255	48007.825
2081.11938	48085.425
2084.12426	48006.725
2087.12722	47978.525
2090.12824	47918.525
2093.12732	47986.525
2096.12447	47999.825
2099.11969	48014.725
2102.11299	48049.925
2105.10435	48123.325
2108.09379	48119.525
2111.08131	48132.425
2114.0669	48122.825
2117.05057	48196.125
2120.03233	48286.625
2123.01216	48281.325
2125.99008	48352.725
2128.96609	48357.325
2131.94018	48380.425
2134.91236	48426.925
2137.88263	48458.225
2140.851	48436.925
2143.81746	48602.825
2146.78201	48544.025
2149.74466	48579.625
2152.7054	48623.225
2155.66425	48537.525
2158.6212	48553.725
2161.57625	48523.825
2164.52941	48495.725
2167.48067	48486.125
2170.43004	48460.725
2173.37752	48480.125
2176.32311	48603.725
2179.26681	48553.925
2182.20863	48523.225
2185.14856	48494.425
2188.08661	48483.325
2191.02278	48418.425
2193.95707	48451.725
2196.88948	48406.225
2199.82001	48376.625
2202.74867	48304.425
2205.67545	48277.525
2208.60037	48262.625
2211.52341	48112.625
2214.44458	48049.325
2217.36388	47947.925
2220.28132	47860.925
2223.1969	47751.925
2226.11061	47716.825
2229.02246	47558.425
2231.93245	47553.725
2234.84058	47441.525
2237.74686	47370.625
2240.65128	47310.525
2243.55385	47257.425
2246.45456	47246.425
2249.35343	47186.525
2252.25044	47168.725
2255.14561	47114.525
2258.03893	47040.125
2260.93041	46994.225
2263.82004	46822.925
2266.70783	46774.425
2269.59378	46654.125
2272.4779	46578.625
2275.36017	46463.725
2278.24061	46330.825
2281.11922	46211.325
2283.996	46163.225
2286.87094	46132.825
2289.74405	46066.525
2292.61534	46036.725
2295.4848	45954.825
2298.35243	45955.325
2301.21824	45880.425
2304.08223	45813.325
2306.94439	45759.925
2309.80474	45740.725
2312.66327	45715.525
2315.51999	45588.125
2318.37489	45581.325
2321.22797	45538.525
2324.07925	45453.625
2326.92871	45339.425
2329.77637	45283.525
2332.62222	45171.025
2335.46626	45138.825
2338.3085	45088.625
2341.14893	45059.225
2343.98756	45021.825
2346.8244	44979.125
2349.65943	44861.025
2352.49267	44872.625
2355.32411	44851.825
2358.15376	44837.825
2360.98161	44792.925
2363.80768	44661.325
2366.63195	44632.025
2369.45444	44618.425
2372.27514	44538.625
2375.09405	44452.625
2377.91118	44457.525
2380.72652	44294.725
2383.54009	44225.525
2386.35187	44212.525
2389.16188	44046.625
2391.97011	44029.925
2394.77657	43886.525
2397.58125	43834.525
2400.38416	43735.025
2403.18529	43674.325
2405.98466	43636.725
2408.78226	43611.025
2411.57809	43480.925
2414.37216	43434.225
2417.16446	43407.725
2419.955	43358.625
2422.74378	43306.025
2425.5308	43332.325
2428.31606	43245.325
2431.09956	43225.025
2433.88131	43082.425
2436.6613	43204.525
2439.43954	43223.225
2442.21603	43096.325
2444.99077	43022.225
2447.76377	42887.625
2450.53501	42911.425
2453.30451	42842.925
2456.07226	42791.925
2458.83827	42703.725
2461.60254	42644.525
2464.36507	42560.125
2467.12586	42466.825
2469.88492	42487.425
2472.64224	42462.025
2475.39782	42418.925
2478.15167	42471.025
2480.90379	42424.825
2483.65417	42407.725
2486.40283	42349.725
2489.14976	42298.125
2491.89497	42236.325
2494.63845	42262.425
2497.3802	42160.125
2500.12024	42169.625
2502.85855	42036.725
2505.59514	42036.725
2508.33002	41989.025
2511.06318	41932.725
2513.79462	41853.725
2516.52435	41725.425
2519.25237	41699.425
2521.97867	41658.425
2524.70327	41662.825
2527.42616	41564.725
2530.14734	41488.125
2532.86681	41409.425
2535.58458	41355.725
2538.30065	41318.125
2541.01501	41299.425
2543.72768	41212.325
2546.43864	41200.025
2549.14791	41056.625
2551.85548	40955.425
2554.56136	40887.625
2557.26554	40836.225
2559.96803	40659.025
2562.66883	40686.425
2565.36794	40541.625
2568.06536	40544.025
2570.7611	40449.525
2573.45514	40351.825
2576.14751	40344.325
2578.83819	40168.425
2581.52719	40151.425
2584.21451	40040.425
2586.90015	39992.625
2589.58411	39852.825
2592.2664	39753.225
2594.94701	39691.125
2597.62594	39622.325
2600.30321	39587.225
2602.9788	39542.025
2605.65273	39427.625
2608.32498	39406.925
2610.99557	39356.225
2613.66449	39307.125
2616.33175	39238.425
2618.99734	39212.125
2621.66128	39165.925
2624.32355	39069.325
2626.98416	38977.425
2629.64311	38915.725
2632.30041	38840.725
2634.95605	38733.625
2637.61004	38779.425
2640.26238	38717.925
2642.91306	38698.225
2645.56209	38617.425
2648.20948	38604.325
2650.85521	38579.425
2653.4993	38550.525
2656.14175	38535.925
2658.78255	38552.325
2661.42171	38500.925
2664.05923	38456.725
2666.6951	38389.125
2669.32934	38417.625
2671.96194	38368.425
2674.59291	38393.725
2677.22224	38353.325
2679.84993	38343.625
2682.476	38322.725
2685.10043	38366.125
2687.72324	38278.125
2690.34441	38239.225
2692.96396	38252.825
2695.58188	38245.325
2698.19818	38184.525
2700.81285	38212.925
2703.4259	38140.425
2706.03733	38211.525
2708.64714	38161.025
2711.25533	38114.525
2713.86191	38110.825
2716.46687	38199.825
2719.07021	38238.025
2721.67194	38202.325
2724.27206	38172.825
2726.87057	38204.625
2729.46747	38256.325
2732.06276	38211.925
2734.65644	38127.825
2737.24852	38052.725
2739.83899	37968.525
2742.42786	38011.525
2745.01513	37925.825
2747.60079	37894.825
2750.18486	37804.125
2752.76733	37695.525
2755.3482	37630.225
2757.92747	37586.525
2760.50515	37564.625
2763.08123	37552.925
2765.65573	37402.625
2768.22863	37394.825
2770.79994	37266.025
2773.36967	37214.225
2775.9378	37207.625
2778.50435	37198.825
2781.06932	37121.425
2783.6327	37034.825
2786.1945	36969.225
2788.75471	36916.025
2791.31335	36820.525
2793.87041	36771.025
2796.42589	36624.425
2798.97979	36595.825
2801.53212	36448.825
2804.08288	36397.425
2806.63206	36240.225
2809.17967	36161.625
2811.72571	36105.025
2814.27018	35966.925
2816.81308	35887.625
2819.35442	35824.325
2821.89419	35786.725
2824.43239	35819.625
2826.96904	35670.425
2829.50412	35687.225
2832.03763	35546.225
2834.56959	35498.625
2837.1	35444.125
2839.62884	35397.425
2842.15613	35329.425
2844.68186	35382.425
2847.20604	35263.125
2849.72867	35209.925
2852.24974	35136.625
2854.76927	35093.625
2857.28724	35051.625
2859.80367	34963.525
2862.31855	34883.125
2864.83189	34854.525
2867.34368	34815.625
2869.85393	34800.925
2872.36264	34689.525
2874.8698	34695.625
2877.37543	34600.225
2879.87952	34601.425
2882.38207	34562.725
2884.88308	34514.025
2887.38256	34522.825
2889.88051	34485.625
2892.37692	34491.425
2894.8718	34479.525
2897.36515	34518.525
2899.85698	34452.525
2902.34727	34450.125
2904.83604	34434.925
2907.32328	34513.525
2909.809	34509.125
2912.29319	34505.625
2914.77587	34468.925
2917.25702	34429.025
2919.73665	34451.025
2922.21476	34418.825
2924.69136	34347.625
2927.16644	34358.025
2929.64	34314.425
2932.11205	34248.325
2934.58258	34142.525
2937.05161	34143.425
2939.51912	34168.225
2941.98513	34178.725
2944.44962	34182.525
2946.91261	34074.825
2949.37409	34139.125
2951.83407	34072.225
2954.29254	34069.525
2956.74951	34125.025
2959.20498	34095.625
2961.65895	34031.225
2964.11142	34032.925
2966.56239	34013.825
2969.01186	34064.125
2971.45984	33930.025
2973.90632	33882.525
2976.35131	33819.825
2978.7948	33807.425
2981.23681	33767.725
2983.67732	33671.325
2986.11635	33665.525
2988.55388	33566.225
2990.98993	33501.025
2993.4245	33391.925
2995.85758	33338.325
2998.28917	33243.025
3000.71928	33224.125
3003.14791	33132.225
3005.57506	33128.325
3008.00073	32998.725
3010.42493	32930.625
3012.84764	32896.425
3015.26888	32927.625
3017.68865	32822.825
3020.10694	32816.525
3022.52376	32714.625
3024.9391	32713.025
3027.35298	32666.725
3029.76539	32596.225
3032.17632	32541.325
3034.5858	32502.225
3036.9938	32455.825
3039.40034	32472.925
3041.80542	32450.225
3044.20903	32390.225
3046.61118	32325.325
3049.01187	32227.725
3051.4111	32188.425
3053.80888	32077.125
3056.20519	32017.425
3058.60005	31965.125
3060.99345	31926.525
3063.3854	31894.125
3065.7759	31792.925
3068.16494	31704.325
3070.55254	31588.825
3072.93868	31517.825
3075.32338	31441.625
3077.70662	31360.925
3080.08842	31326.625
3082.46878	31344.325
3084.84769	31266.225
3087.22515	31194.225
3089.60118	31223.425
3091.97576	31197.325
3094.3489	31168.925
3096.72061	31219.625
3099.09087	31204.625
3101.4597	31211.825
3103.82709	31171.225
3106.19305	31154.125
3108.55757	31122.725
3110.92066	31013.625
3113.28232	30981.125
3115.64255	30870.825
3118.00134	30828.025
3120.35871	30774.525
3122.71466	30702.625
3125.06917	30646.925
