Data from AgNPs_FTO_APTES_UA_20uM_CRN_200uM_R6G_10uM_NaF_0.1M_Addition_RamanShift__0__17-52-24-903.txt Node

Date: Thu Feb 17 17:52:24 GMT 2022
User: TCL
Spectrometer: QEP01345
Trigger mode: 4
Integration Time (sec): 1.000000E1
Scans to average: 7
Electric dark correction enabled: true
Nonlinearity correction enabled: false
Boxcar width: 0
XAxis mode: Raman Shifts
Number of Pixels in Spectrum: 1044
>>>>>Begin Spectral Data<<<<<
46.04893	0.46429
50.45542	-0.10714
54.85868	-0.82143
59.25871	-0.25
63.6555	65.32143
68.04907	61.17857
72.43941	70.89286
76.82654	76.32143
81.21044	76.46429
85.59113	75.32143
89.96862	78.60714
94.34289	81.32143
98.71396	89.75
103.08183	84.46429
107.4465	91.17857
111.80798	92.89286
116.16626	96.17857
120.52136	100.46429
124.87327	105.17857
129.222	111.32143
133.56755	112.03571
137.90993	128.46429
142.24913	130.03571
146.58517	152.17857
150.91804	176.89286
155.24774	203.46429
159.57429	250.75
163.89768	330.60714
168.21792	434.75
172.53501	593.60714
176.84895	839.60714
181.15975	1188.17857
185.46741	1670.75
189.77193	2334.60714
194.07331	3127.75
198.37157	4058.75
202.6667	5036.32143
206.9587	6017.32143
211.24758	6957.03571
215.53334	7902.60714
219.81599	8915.46429
224.09553	10072.89286
228.37195	11292.32143
232.64527	12655.60714
236.91549	14128.46429
241.18261	15523.46429
245.44663	16790.89286
249.70755	17984.03571
253.96539	18962.46429
258.22014	19864.89286
262.4718	20561.46429
266.72039	21101.32143
270.96589	21349.60714
275.20832	21361.75
279.44768	21118.60714
283.68397	20771.75
287.91719	20466.60714
292.14735	20264.32143
296.37445	20307.17857
300.59849	20478.46429
304.81948	20796.75
309.03742	21002.32143
313.25231	21090.60714
317.46415	20899.46429
321.67296	20445.46429
325.87872	20108.17857
330.08145	19961.46429
334.28114	20029.75
338.47781	20195.60714
342.67145	20569.60714
346.86207	20971.75
351.04966	21530.75
355.23424	22090.03571
359.4158	22466.03571
363.59435	22776.17857
367.76989	22884.75
371.94243	22976.89286
376.11196	23101.32143
380.27849	23226.17857
384.44203	23358.46429
388.60257	23429.75
392.76012	23524.75
396.91468	23624.03571
401.06626	24021.60714
405.21485	24266.89286
409.36047	24167.17857
413.50311	23853.03571
417.64277	23562.03571
421.77947	23550.75
425.9132	23755.46429
430.04396	23959.03571
434.17176	24105.32143
438.2966	24309.60714
442.41849	24740.75
446.53742	25456.60714
450.6534	26203.03571
454.76644	26553.17857
458.87653	26439.89286
462.98368	26017.89286
467.08789	25523.32143
471.18916	25023.17857
475.2875	24507.89286
479.38291	24130.46429
483.4754	23796.32143
487.56496	23664.03571
491.6516	23639.17857
495.73531	23622.32143
499.81612	23667.60714
503.89401	23841.60714
507.96899	23892.46429
512.04106	23920.60714
516.11023	23998.17857
520.1765	24093.17857
524.23987	24211.17857
528.30034	24290.46429
532.35792	24312.32143
536.41261	24113.32143
540.46441	23737.32143
544.51333	23598.75
548.55936	23673.60714
552.60252	23986.03571
556.64279	24496.03571
560.6802	24817.03571
564.71473	24791.89286
568.7464	24768.32143
572.7752	24931.60714
576.80114	24907.17857
580.82422	24973.32143
584.84444	25492.89286
588.86181	26651.03571
592.87633	28332.75
596.888	29417.75
600.89682	28751.46429
604.9028	28431.89286
608.90594	30691.03571
612.90624	34223.03571
616.90371	33158.75
620.89834	27842.46429
624.89015	25312.60714
628.87913	24902.46429
632.86528	24903.75
636.84862	24868.89286
640.82913	24547.89286
644.80683	24025.46429
648.78172	23713.17857
652.75379	23865.03571
656.72306	24269.60714
660.68952	24769.75
664.65319	24684.75
668.61405	24199.17857
672.57211	24160.75
676.52738	24216.32143
680.47986	24241.75
684.42955	24101.03571
688.37646	24075.03571
692.32058	24246.89286
696.26192	24632.75
700.20048	25065.46429
704.13626	25333.60714
708.06928	25277.89286
711.99952	25058.17857
715.927	24919.89286
719.85171	24999.89286
723.77365	24897.17857
727.69284	24610.46429
731.60928	24476.75
735.52295	24472.03571
739.43388	24562.32143
743.34206	24602.46429
747.24749	24655.17857
751.15017	24698.32143
755.05012	24822.17857
758.94733	25267.17857
762.8418	26282.75
766.73354	28011.60714
770.62254	29853.46429
774.50882	30744.89286
778.39237	30174.89286
782.27321	28457.17857
786.15132	26692.89286
790.02671	25538.17857
793.89938	24976.75
797.76935	24756.75
801.6366	24653.03571
805.50115	24594.89286
809.36299	24519.89286
813.22213	24419.46429
817.07857	24346.17857
820.93231	24374.32143
824.78336	24392.89286
828.63172	24446.75
832.47738	24492.46429
836.32036	24557.46429
840.16066	24662.60714
843.99827	24720.75
847.8332	24731.03571
851.66546	24696.32143
855.49504	24704.03571
859.32195	24697.75
863.1462	24643.89286
866.96777	24594.17857
870.78668	24608.32143
874.60293	24673.60714
878.41652	24687.17857
882.22745	24837.89286
886.03573	24881.17857
889.84136	24860.60714
893.64433	24765.03571
897.44466	24671.46429
901.24235	24663.03571
905.0374	24535.75
908.8298	24501.03571
912.61957	24480.17857
916.40671	24536.03571
920.19121	24685.75
923.97308	24876.60714
927.75233	25017.03571
931.52895	25120.60714
935.30295	24992.89286
939.07433	24766.60714
942.84309	24496.17857
946.60924	24392.75
950.37278	24325.89286
954.13371	24232.46429
957.89203	24183.32143
961.64774	24148.46429
965.40086	24093.03571
969.15137	24067.89286
972.89929	24132.60714
976.64461	24195.75
980.38733	24283.60714
984.12747	24455.46429
987.86502	24659.46429
991.59999	24924.03571
995.33237	25211.32143
999.06217	25584.46429
1002.78939	26022.17857
1006.51404	26371.89286
1010.23611	26582.75
1013.95561	26788.17857
1017.67255	26885.46429
1021.38692	26675.60714
1025.09872	26402.75
1028.80796	26388.46429
1032.51465	26739.75
1036.21877	27165.75
1039.92035	27254.60714
1043.61937	27046.46429
1047.31584	26733.32143
1051.00976	26281.46429
1054.70114	26105.75
1058.38998	26011.32143
1062.07627	26036.89286
1065.76003	26032.32143
1069.44126	26169.89286
1073.11995	26318.17857
1076.79611	26642.17857
1080.46974	26907.32143
1084.14085	27273.75
1087.80943	27552.17857
1091.47549	27636.75
1095.13903	27483.03571
1098.80005	27095.46429
1102.45857	26876.32143
1106.11456	26820.60714
1109.76805	26859.03571
1113.41903	27067.17857
1117.06751	27238.89286
1120.71348	27538.46429
1124.35696	27839.89286
1127.99793	28166.89286
1131.63641	28170.75
1135.2724	27805.75
1138.90589	27393.60714
1142.5369	27153.89286
1146.16542	27058.75
1149.79145	26922.17857
1153.415	26880.03571
1157.03607	26882.46429
1160.65467	27105.89286
1164.27079	27705.60714
1167.88443	28597.46429
1171.49561	29968.89286
1175.10432	31808.89286
1178.71056	34354.32143
1182.31434	36637.89286
1185.91565	37487.03571
1189.51451	36781.32143
1193.11091	35326.32143
1196.70485	33785.46429
1200.29634	32576.46429
1203.88538	31585.60714
1207.47197	30659.75
1211.05612	29915.60714
1214.63782	29456.75
1218.21708	29413.75
1221.79391	29653.89286
1225.36829	30015.03571
1228.94024	30000.46429
1232.50976	29611.75
1236.07685	29172.17857
1239.6415	28944.32143
1243.20374	28943.75
1246.76355	29156.32143
1250.32093	29470.32143
1253.8759	29990.17857
1257.42845	30600.60714
1260.97859	31269.32143
1264.52631	31911.60714
1268.07163	32608.17857
1271.61453	33268.17857
1275.15503	33654.60714
1278.69312	34005.03571
1282.22882	34310.60714
1285.76211	34824.75
1289.29301	35609.32143
1292.82151	36514.75
1296.34761	37633.60714
1299.87133	39219.17857
1303.39266	41410.32143
1306.9116	44219.89286
1310.42815	47161.75
1313.94233	48854.03571
1317.45412	47998.75
1320.96354	45495.60714
1324.47058	42767.89286
1327.97525	40411.60714
1331.47754	38717.32143
1334.97747	37828.46429
1338.47502	37620.46429
1341.97022	37598.32143
1345.46305	37874.89286
1348.95352	38867.32143
1352.44163	40818.17857
1355.92738	43549.89286
1359.41078	47278.89286
1362.89183	50296.46429
1366.37053	49441.75
1369.84688	44487.03571
1373.32088	39166.89286
1376.79254	35876.03571
1380.26186	34689.32143
1383.72883	34322.75
1387.19347	33985.03571
1390.65578	33201.60714
1394.11575	32556.89286
1397.57339	32234.17857
1401.0287	32141.89286
1404.48168	32084.46429
1407.93234	31993.60714
1411.38068	31965.46429
1414.82669	31971.89286
1418.27039	31833.32143
1421.71177	31491.17857
1425.15083	31054.75
1428.58758	30905.60714
1432.02203	31164.60714
1435.45416	31657.75
1438.88399	32053.89286
1442.31151	32113.32143
1445.73673	32105.60714
1449.15965	31995.75
1452.58027	31573.17857
1455.9986	31230.75
1459.41463	31044.89286
1462.82837	31364.60714
1466.23982	31898.60714
1469.64898	32604.17857
1473.05586	33130.32143
1476.46045	33455.46429
1479.86276	33796.89286
1483.26279	33989.89286
1486.66054	34228.32143
1490.05602	34679.32143
1493.44922	35286.75
1496.84016	35945.03571
1500.22882	37024.89286
1503.61521	38721.46429
1506.99934	40646.03571
1510.38121	42316.75
1513.76081	42643.03571
1517.13816	41027.89286
1520.51324	38363.75
1523.88607	35921.32143
1527.25665	34580.89286
1530.62498	33968.32143
1533.99105	33595.75
1537.35488	33311.32143
1540.71647	32993.89286
1544.07581	32697.17857
1547.4329	32406.03571
1550.78776	32169.32143
1554.14038	31930.75
1557.49077	31775.03571
1560.83892	31805.89286
1564.18484	32006.17857
1567.52853	32424.03571
1570.86999	32813.32143
1574.20922	33179.89286
1577.54624	33203.89286
1580.88103	32701.46429
1584.2136	32074.03571
1587.54395	32131.75
1590.87208	33057.89286
1594.19801	34827.17857
1597.52172	37004.60714
1600.84321	38253.60714
1604.16251	37740.89286
1607.47959	35729.75
1610.79447	33161.46429
1614.10715	30926.03571
1617.41763	29373.75
1620.7259	28565.75
1624.03199	28188.03571
1627.33587	28318.75
1630.63757	28875.89286
1633.93707	30004.75
1637.23439	31850.17857
1640.52951	34658.60714
1643.82246	38257.46429
1647.11321	41705.60714
1650.40179	42926.46429
1653.68819	40851.60714
1656.97241	36568.89286
1660.25446	32579.03571
1663.53433	29996.89286
1666.81203	28415.89286
1670.08756	27387.17857
1673.36092	26563.75
1676.63211	26043.17857
1679.90115	25635.03571
1683.16801	25402.46429
1686.43272	25270.03571
1689.69527	25303.89286
1692.95567	25641.17857
1696.2139	26289.17857
1699.46999	27018.46429
1702.72392	27095.89286
1705.97571	26408.32143
1709.22535	25672.46429
1712.47284	25102.60714
1715.71819	24791.75
1718.96139	24623.75
1722.20246	24492.75
1725.44139	24328.89286
1728.67818	24279.03571
1731.91284	24172.75
1735.14537	24159.75
1738.37576	24148.46429
1741.60403	24119.32143
1744.83017	24111.89286
1748.05418	24211.46429
1751.27607	24438.46429
1754.49584	24734.60714
1757.71349	25205.46429
1760.92903	25430.75
1764.14244	25378.32143
1767.35375	25340.03571
1770.56294	25365.17857
1773.77002	25130.46429
1776.97499	24646.89286
1780.17785	24213.17857
1783.37861	23925.60714
1786.57727	23703.75
1789.77382	23598.89286
1792.96828	23540.17857
1796.16064	23490.17857
1799.3509	23400.03571
1802.53907	23357.75
1805.72514	23288.75
1808.90913	23247.32143
1812.09102	23253.17857
1815.27083	23188.46429
1818.44856	23138.32143
1821.6242	23143.60714
1824.79776	23155.60714
1827.96924	23104.32143
1831.13864	23091.32143
1834.30597	23027.46429
1837.47122	23023.32143
1840.6344	23035.32143
1843.7955	23013.89286
1846.95454	22990.75
1850.11151	22966.32143
1853.26642	22951.03571
1856.41926	22976.32143
1859.57004	22968.60714
1862.71876	22926.89286
1865.86542	22984.75
1869.01003	22948.32143
1872.15258	22870.60714
1875.29308	22907.03571
1878.43152	22892.75
1881.56792	22906.03571
1884.70227	22884.32143
1887.83457	22874.89286
1890.96482	22828.60714
1894.09304	22824.60714
1897.21921	22774.03571
1900.34335	22798.03571
1903.46544	22763.32143
1906.58551	22767.60714
1909.70353	22691.75
1912.81953	22668.89286
1915.93349	22633.75
1919.04543	22592.75
1922.15534	22668.03571
1925.26322	22558.03571
1928.36908	22535.17857
1931.47292	22603.60714
1934.57473	22474.89286
1937.67453	22499.32143
1940.77232	22385.17857
1943.86808	22325.89286
1946.96184	22261.89286
1950.05358	22214.03571
1953.14331	22151.32143
1956.23103	22170.75
1959.31675	22132.32143
1962.40046	22071.60714
1965.48217	22012.46429
1968.56188	21929.89286
1971.63959	21864.60714
1974.7153	21821.32143
1977.78901	21774.46429
1980.86073	21742.60714
1983.93046	21634.32143
1986.99819	21564.89286
1990.06394	21546.46429
1993.1277	21559.46429
1996.18947	21448.60714
1999.24925	21340.32143
2002.30706	21303.89286
2005.36288	21258.60714
2008.41672	21208.60714
2011.46859	21157.17857
2014.51848	21048.89286
2017.56639	21044.03571
2020.61233	21015.32143
2023.6563	20931.03571
2026.6983	20939.03571
2029.73833	20894.03571
2032.7764	20866.89286
2035.8125	20800.32143
2038.84664	20798.89286
2041.87881	20750.75
2044.90903	20723.03571
2047.93729	20682.46429
2050.96359	20734.17857
2053.98794	20681.32143
2057.01034	20665.17857
2060.03078	20643.60714
2063.04927	20611.75
2066.06582	20643.60714
2069.08042	20647.89286
2072.09307	20616.46429
2075.10378	20590.03571
2078.11255	20588.46429
2081.11938	20559.03571
2084.12426	20581.32143
2087.12722	20585.32143
2090.12824	20635.46429
2093.12732	20628.46429
2096.12447	20624.17857
2099.11969	20606.60714
2102.11299	20590.17857
2105.10435	20546.32143
2108.09379	20587.32143
2111.08131	20638.32143
2114.0669	20688.60714
2117.05057	20739.89286
2120.03233	20720.60714
2123.01216	20805.32143
2125.99008	20798.60714
2128.96609	20814.89286
2131.94018	20891.17857
2134.91236	20883.89286
2137.88263	20858.75
2140.851	20855.60714
2143.81746	20915.60714
2146.78201	20888.60714
2149.74466	20888.32143
2152.7054	20928.89286
2155.66425	20923.03571
2158.6212	20917.17857
2161.57625	20898.75
2164.52941	20904.89286
2167.48067	20908.75
2170.43004	20873.60714
2173.37752	20862.75
2176.32311	20864.75
2179.26681	20882.60714
2182.20863	20911.17857
2185.14856	20948.60714
2188.08661	20961.17857
2191.02278	20932.89286
2193.95707	20947.17857
2196.88948	20893.75
2199.82001	20947.03571
2202.74867	20890.89286
2205.67545	20915.60714
2208.60037	20867.89286
2211.52341	20837.32143
2214.44458	20815.89286
2217.36388	20769.03571
2220.28132	20762.46429
2223.1969	20715.60714
2226.11061	20720.17857
2229.02246	20642.32143
2231.93245	20603.17857
2234.84058	20550.03571
2237.74686	20524.60714
2240.65128	20602.03571
2243.55385	20572.17857
2246.45456	20575.75
2249.35343	20530.03571
2252.25044	20464.46429
2255.14561	20505.32143
2258.03893	20537.46429
2260.93041	20695.60714
2263.82004	20559.17857
2266.70783	20416.17857
2269.59378	20382.03571
2272.4779	20246.17857
2275.36017	20214.60714
2278.24061	20213.32143
2281.11922	20179.60714
2283.996	20157.32143
2286.87094	20176.75
2289.74405	20131.75
2292.61534	20147.89286
2295.4848	20087.89286
2298.35243	20112.17857
2301.21824	20149.03571
2304.08223	20094.03571
2306.94439	20098.75
2309.80474	20084.32143
2312.66327	20103.75
2315.51999	20092.03571
2318.37489	20107.32143
2321.22797	20080.89286
2324.07925	20022.46429
2326.92871	20013.32143
2329.77637	19970.03571
2332.62222	19956.17857
2335.46626	19954.03571
2338.3085	19934.03571
2341.14893	19955.03571
2343.98756	19973.17857
2346.8244	19955.60714
2349.65943	19882.75
2352.49267	19872.03571
2355.32411	19841.03571
2358.15376	19863.17857
2360.98161	19877.32143
2363.80768	19802.46429
2366.63195	19788.75
2369.45444	19748.46429
2372.27514	19728.75
2375.09405	19687.46429
2377.91118	19687.03571
2380.72652	19667.17857
2383.54009	19580.32143
2386.35187	19600.46429
2389.16188	19553.60714
2391.97011	19518.17857
2394.77657	19535.75
2397.58125	19531.75
2400.38416	19470.75
2403.18529	19446.17857
2405.98466	19428.17857
2408.78226	19372.17857
2411.57809	19353.17857
2414.37216	19335.60714
2417.16446	19328.89286
2419.955	19310.03571
2422.74378	19272.46429
2425.5308	19269.46429
2428.31606	19286.89286
2431.09956	19219.60714
2433.88131	19204.03571
2436.6613	19215.17857
2439.43954	19185.75
2442.21603	19175.60714
2444.99077	19212.75
2447.76377	19204.60714
2450.53501	19147.17857
2453.30451	19165.46429
2456.07226	19128.46429
2458.83827	19120.89286
2461.60254	19149.60714
2464.36507	19149.89286
2467.12586	19049.75
2469.88492	19063.32143
2472.64224	19139.46429
2475.39782	19222.75
2478.15167	19261.46429
2480.90379	19176.17857
2483.65417	19165.46429
2486.40283	19191.89286
2489.14976	19160.17857
2491.89497	19182.03571
2494.63845	19293.32143
2497.3802	19389.75
2500.12024	19207.60714
2502.85855	19119.89286
2505.59514	19059.03571
2508.33002	19024.32143
2511.06318	18974.89286
2513.79462	18959.17857
2516.52435	18951.75
2519.25237	18903.03571
2521.97867	18881.60714
2524.70327	18901.89286
2527.42616	18884.03571
2530.14734	18845.32143
2532.86681	18850.46429
2535.58458	18824.17857
2538.30065	18810.03571
2541.01501	18768.60714
2543.72768	18776.32143
2546.43864	18728.75
2549.14791	18741.17857
2551.85548	18717.89286
2554.56136	18697.46429
2557.26554	18671.60714
2559.96803	18644.46429
2562.66883	18615.60714
2565.36794	18568.17857
2568.06536	18583.17857
2570.7611	18532.17857
2573.45514	18544.03571
2576.14751	18482.46429
2578.83819	18445.32143
2581.52719	18420.03571
2584.21451	18431.60714
2586.90015	18412.89286
2589.58411	18431.60714
2592.2664	18403.60714
2594.94701	18324.89286
2597.62594	18315.32143
2600.30321	18284.46429
2602.9788	18250.75
2605.65273	18232.75
2608.32498	18242.46429
2610.99557	18213.03571
2613.66449	18197.75
2616.33175	18213.60714
2618.99734	18248.60714
2621.66128	18208.89286
2624.32355	18165.75
2626.98416	18170.75
2629.64311	18147.60714
2632.30041	18107.89286
2634.95605	18049.03571
2637.61004	18030.60714
2640.26238	17986.60714
2642.91306	17999.17857
2645.56209	18013.03571
2648.20948	18057.03571
2650.85521	17986.89286
2653.4993	18035.89286
2656.14175	18007.03571
2658.78255	17996.46429
2661.42171	18020.46429
2664.05923	18072.46429
2666.6951	18016.32143
2669.32934	18041.03571
2671.96194	18010.17857
2674.59291	18051.89286
2677.22224	18056.89286
2679.84993	18045.17857
2682.476	17974.46429
2685.10043	18003.17857
2687.72324	17984.60714
2690.34441	18014.60714
2692.96396	17973.46429
2695.58188	18026.60714
2698.19818	18014.60714
2700.81285	18046.89286
2703.4259	18332.32143
2706.03733	19068.17857
2708.64714	18634.60714
2711.25533	18370.60714
2713.86191	18291.17857
2716.46687	18210.17857
2719.07021	18164.89286
2721.67194	18098.46429
2724.27206	18056.17857
2726.87057	18052.46429
2729.46747	18045.46429
2732.06276	18009.32143
2734.65644	18016.60714
2737.24852	18038.89286
2739.83899	18013.75
2742.42786	18028.46429
2745.01513	18000.60714
2747.60079	17921.46429
2750.18486	17929.46429
2752.76733	17915.17857
2755.3482	17929.46429
2757.92747	17930.89286
2760.50515	17916.32143
2763.08123	17866.46429
2765.65573	17799.89286
2768.22863	17839.17857
2770.79994	17795.32143
2773.36967	17827.75
2775.9378	17822.17857
2778.50435	17792.17857
2781.06932	17760.17857
2783.6327	17773.03571
2786.1945	17717.75
2788.75471	17684.32143
2791.31335	17649.03571
2793.87041	17677.60714
2796.42589	17661.32143
2798.97979	17606.89286
2801.53212	17581.60714
2804.08288	17525.17857
2806.63206	17542.89286
2809.17967	17480.17857
2811.72571	17438.46429
2814.27018	17470.17857
2816.81308	17421.17857
2819.35442	17384.60714
2821.89419	17312.75
2824.43239	17326.03571
2826.96904	17289.03571
2829.50412	17277.60714
2832.03763	17248.32143
2834.56959	17281.17857
2837.1	17250.60714
2839.62884	17212.60714
2842.15613	17200.32143
2844.68186	17234.17857
2847.20604	17232.89286
2849.72867	17220.46429
2852.24974	17226.03571
2854.76927	17321.46429
2857.28724	17504.46429
2859.80367	17361.17857
2862.31855	17204.60714
2864.83189	17174.17857
2867.34368	17111.03571
2869.85393	17106.75
2872.36264	17084.03571
2874.8698	17070.03571
2877.37543	17035.75
2879.87952	17041.32143
2882.38207	17043.17857
2884.88308	17002.03571
2887.38256	17005.03571
2889.88051	17031.32143
2892.37692	17036.46429
2894.8718	17001.17857
2897.36515	17032.46429
2899.85698	17076.75
2902.34727	17069.75
2904.83604	17087.03571
2907.32328	17074.75
2909.809	17131.32143
2912.29319	17144.32143
2914.77587	17092.17857
2917.25702	17098.32143
2919.73665	17048.17857
2922.21476	17100.03571
2924.69136	17055.60714
2927.16644	17108.60714
2929.64	17043.03571
2932.11205	16995.17857
2934.58258	16918.46429
2937.05161	17007.17857
2939.51912	16996.17857
2941.98513	17003.89286
2944.44962	16966.75
2946.91261	16942.60714
2949.37409	16974.89286
2951.83407	16947.17857
2954.29254	16964.03571
2956.74951	16970.75
2959.20498	16933.17857
2961.65895	16958.75
2964.11142	16942.89286
2966.56239	16922.17857
2969.01186	16898.46429
2971.45984	16833.32143
