Data from AgNPs_FTO_APTES_UA_20uM_CRN_5uM_R6G_10uM_NaF_0.1M_Addition_RamanShift__31__14-08-02-175.txt Node

Date: Thu Feb 17 14:08:02 GMT 2022
User: TCL
Spectrometer: QEP01345
Trigger mode: 4
Integration Time (sec): 7.000000E0
Scans to average: 10
Electric dark correction enabled: true
Nonlinearity correction enabled: false
Boxcar width: 0
XAxis mode: Raman Shifts
Number of Pixels in Spectrum: 1044
>>>>>Begin Spectral Data<<<<<
46.04893	1.4375
50.45542	-0.5625
54.85868	-3.6625
59.25871	0.5375
63.6555	69.9375
68.04907	72.1375
72.43941	77.5375
76.82654	76.5375
81.21044	81.9375
85.59113	85.4375
89.96862	88.0375
94.34289	89.7375
98.71396	92.4375
103.08183	94.2375
107.4465	96.1375
111.80798	99.8375
116.16626	102.4375
120.52136	109.7375
124.87327	107.2375
129.222	117.1375
133.56755	119.9375
137.90993	127.5375
142.24913	142.4375
146.58517	159.0375
150.91804	188.9375
155.24774	221.7375
159.57429	281.3375
163.89768	363.3375
168.21792	477.9375
172.53501	652.2375
176.84895	908.5375
181.15975	1275.4375
185.46741	1785.3375
189.77193	2474.7375
194.07331	3318.0375
198.37157	4272.5375
202.6667	5292.2375
206.9587	6317.4375
211.24758	7330.8375
215.53334	8399.1375
219.81599	9550.1375
224.09553	10886.0375
228.37195	12404.4375
232.64527	14012.3375
236.91549	15724.8375
241.18261	17333.0375
245.44663	18688.2375
249.70755	19773.8375
253.96539	20685.8375
258.22014	21457.8375
262.4718	22146.0375
266.72039	22733.7375
270.96589	23033.9375
275.20832	23133.8375
279.44768	22960.7375
283.68397	22683.4375
287.91719	22510.4375
292.14735	22560.5375
296.37445	22957.0375
300.59849	23756.0375
304.81948	24610.5375
309.03742	25201.5375
313.25231	25002.5375
317.46415	23831.3375
321.67296	22164.9375
325.87872	20808.9375
330.08145	20095.6375
334.28114	20064.9375
338.47781	20394.4375
342.67145	20964.0375
346.86207	21854.6375
351.04966	23003.2375
355.23424	24333.3375
359.4158	25399.7375
363.59435	25998.0375
367.76989	26245.3375
371.94243	26283.9375
376.11196	26208.9375
380.27849	26213.4375
384.44203	26008.1375
388.60257	25719.5375
392.76012	25558.2375
396.91468	25747.6375
401.06626	26347.0375
405.21485	26854.2375
409.36047	26442.6375
413.50311	25219.5375
417.64277	24007.3375
421.77947	23345.7375
425.9132	23110.3375
430.04396	23134.1375
434.17176	23327.4375
438.2966	23605.3375
442.41849	24107.6375
446.53742	24748.3375
450.6534	25478.4375
454.76644	26016.6375
458.87653	26140.7375
462.98368	25911.7375
467.08789	25508.6375
471.18916	24964.2375
475.2875	24324.0375
479.38291	23812.4375
483.4754	23382.3375
487.56496	23047.3375
491.6516	22800.0375
495.73531	22648.5375
499.81612	22709.7375
503.89401	22933.3375
507.96899	23252.2375
512.04106	23592.4375
516.11023	23942.8375
520.1765	24227.6375
524.23987	24118.9375
528.30034	23738.2375
532.35792	23239.0375
536.41261	22811.6375
540.46441	22372.8375
544.51333	22169.7375
548.55936	22378.0375
552.60252	22930.9375
556.64279	23608.7375
560.6802	23953.9375
564.71473	24199.8375
568.7464	25061.3375
572.7752	25778.6375
576.80114	25299.4375
580.82422	24639.5375
584.84444	24370.7375
588.86181	24296.1375
592.87633	24379.1375
596.888	24594.6375
600.89682	25273.7375
604.9028	28062.0375
608.90594	35604.4375
612.90624	45405.4375
616.90371	43381.7375
620.89834	30712.3375
624.89015	24834.8375
628.87913	23732.0375
632.86528	23862.7375
636.84862	24251.8375
640.82913	23874.3375
644.80683	22826.1375
648.78172	22141.4375
652.75379	22208.6375
656.72306	23152.5375
660.68952	24301.4375
664.65319	24080.4375
668.61405	22922.4375
672.57211	22348.6375
676.52738	22315.9375
680.47986	22354.9375
684.42955	22217.6375
688.37646	22135.3375
692.32058	22240.1375
696.26192	22470.8375
700.20048	22820.1375
704.13626	23092.9375
708.06928	23090.6375
711.99952	22933.0375
715.927	22877.0375
719.85171	22947.8375
723.77365	22928.4375
727.69284	22758.0375
731.60928	22542.6375
735.52295	22534.6375
739.43388	22599.5375
743.34206	22806.8375
747.24749	23009.3375
751.15017	23229.3375
755.05012	23765.4375
758.94733	24896.3375
762.8418	27414.7375
766.73354	31714.7375
770.62254	36283.0375
774.50882	38573.4375
778.39237	36670.6375
782.27321	31671.0375
786.15132	27214.8375
790.02671	24621.9375
793.89938	23547.3375
797.76935	23066.5375
801.6366	22878.6375
805.50115	22696.1375
809.36299	22632.6375
813.22213	22539.6375
817.07857	22516.8375
820.93231	22577.2375
824.78336	22667.0375
828.63172	22784.2375
832.47738	22834.2375
836.32036	22797.8375
840.16066	22776.1375
843.99827	22700.4375
847.8332	22611.6375
851.66546	22545.2375
855.49504	22544.2375
859.32195	22539.2375
863.1462	22455.6375
866.96777	22438.7375
870.78668	22423.5375
874.60293	22484.8375
878.41652	22573.4375
882.22745	22687.3375
886.03573	22749.0375
889.84136	22718.8375
893.64433	22590.7375
897.44466	22561.9375
901.24235	22605.4375
905.0374	22600.1375
908.8298	22528.1375
912.61957	22549.9375
916.40671	22737.0375
920.19121	22950.5375
923.97308	23180.1375
927.75233	23316.0375
931.52895	23411.7375
935.30295	23195.6375
939.07433	22637.9375
942.84309	22186.9375
946.60924	21915.8375
950.37278	21732.9375
954.13371	21662.8375
957.89203	21594.5375
961.64774	21548.2375
965.40086	21459.5375
969.15137	21427.4375
972.89929	21377.9375
976.64461	21333.7375
980.38733	21326.4375
984.12747	21358.9375
987.86502	21519.9375
991.59999	21696.6375
995.33237	22022.6375
999.06217	22569.0375
1002.78939	23300.8375
1006.51404	23913.4375
1010.23611	24422.8375
1013.95561	24787.9375
1017.67255	24747.6375
1021.38692	24428.3375
1025.09872	24107.8375
1028.80796	24094.0375
1032.51465	24527.4375
1036.21877	24889.5375
1039.92035	25052.9375
1043.61937	24940.9375
1047.31584	24623.4375
1051.00976	24248.5375
1054.70114	24080.1375
1058.38998	24037.1375
1062.07627	24176.4375
1065.76003	24328.6375
1069.44126	24462.8375
1073.11995	24694.5375
1076.79611	24975.0375
1080.46974	25253.6375
1084.14085	25804.9375
1087.80943	26414.6375
1091.47549	26709.8375
1095.13903	26312.4375
1098.80005	25524.2375
1102.45857	24862.7375
1106.11456	24554.0375
1109.76805	24674.8375
1113.41903	25195.1375
1117.06751	25924.1375
1120.71348	26894.5375
1124.35696	27792.1375
1127.99793	28551.4375
1131.63641	28358.9375
1135.2724	27270.9375
1138.90589	26196.6375
1142.5369	25558.9375
1146.16542	25146.5375
1149.79145	24956.2375
1153.415	25052.3375
1157.03607	25283.0375
1160.65467	25762.9375
1164.27079	26560.8375
1167.88443	27906.5375
1171.49561	29975.6375
1175.10432	33411.5375
1178.71056	37991.4375
1182.31434	41577.6375
1185.91565	42580.9375
1189.51451	41326.9375
1193.11091	38694.7375
1196.70485	35660.0375
1200.29634	33531.7375
1203.88538	32077.6375
1207.47197	30449.9375
1211.05612	29039.9375
1214.63782	28256.8375
1218.21708	28136.9375
1221.79391	28193.9375
1225.36829	28205.6375
1228.94024	28134.7375
1232.50976	28029.9375
1236.07685	28013.1375
1239.6415	28153.9375
1243.20374	28409.8375
1246.76355	28672.2375
1250.32093	29132.2375
1253.8759	29862.6375
1257.42845	30798.1375
1260.97859	31649.1375
1264.52631	32322.9375
1268.07163	33110.8375
1271.61453	33833.3375
1275.15503	34462.8375
1278.69312	34918.7375
1282.22882	35234.4375
1285.76211	35899.8375
1289.29301	36837.1375
1292.82151	37968.2375
1296.34761	39185.5375
1299.87133	41168.7375
1303.39266	44296.1375
1306.9116	49011.5375
1310.42815	54026.0375
1313.94233	56706.2375
1317.45412	55384.5375
1320.96354	51942.9375
1324.47058	48295.8375
1327.97525	45105.6375
1331.47754	43248.7375
1334.97747	42898.8375
1338.47502	43763.3375
1341.97022	45078.0375
1345.46305	46660.3375
1348.95352	48390.3375
1352.44163	50735.8375
1355.92738	54821.1375
1359.41078	61737.1375
1362.89183	68501.4375
1366.37053	66713.9375
1369.84688	57059.5375
1373.32088	47537.8375
1376.79254	41387.4375
1380.26186	38287.0375
1383.72883	36702.9375
1387.19347	35714.2375
1390.65578	34851.8375
1394.11575	34100.5375
1397.57339	33797.2375
1401.0287	34070.3375
1404.48168	34612.2375
1407.93234	35453.8375
1411.38068	36299.6375
1414.82669	36652.9375
1418.27039	36078.0375
1421.71177	34981.4375
1425.15083	33839.8375
1428.58758	33272.1375
1432.02203	33289.8375
1435.45416	33595.3375
1438.88399	33749.5375
1442.31151	33950.0375
1445.73673	34172.3375
1449.15965	34482.9375
1452.58027	34411.4375
1455.9986	34168.4375
1459.41463	33985.4375
1462.82837	34253.2375
1466.23982	34953.8375
1469.64898	35761.2375
1473.05586	36425.4375
1476.46045	36980.5375
1479.86276	37644.7375
1483.26279	38597.2375
1486.66054	39615.8375
1490.05602	41055.6375
1493.44922	42785.6375
1496.84016	45146.4375
1500.22882	48710.8375
1503.61521	53663.7375
1506.99934	59528.6375
1510.38121	64502.4375
1513.76081	65883.6375
1517.13816	62241.1375
1520.51324	55399.3375
1523.88607	48728.6375
1527.25665	44353.6375
1530.62498	41756.1375
1533.99105	40181.3375
1537.35488	39141.0375
1540.71647	38535.7375
1544.07581	38243.5375
1547.4329	37995.8375
1550.78776	37672.6375
1554.14038	37526.8375
1557.49077	37697.5375
1560.83892	38257.1375
1564.18484	39022.1375
1567.52853	39859.7375
1570.86999	40541.0375
1574.20922	40835.8375
1577.54624	40463.8375
1580.88103	38696.1375
1584.2136	36615.9375
1587.54395	35854.1375
1590.87208	36791.4375
1594.19801	39224.1375
1597.52172	42251.3375
1600.84321	43614.8375
1604.16251	42165.2375
1607.47959	39372.3375
1610.79447	36259.0375
1614.10715	33400.4375
1617.41763	31184.8375
1620.7259	29788.4375
1624.03199	29183.6375
1627.33587	29247.4375
1630.63757	29932.0375
1633.93707	31294.4375
1637.23439	33406.2375
1640.52951	36334.6375
1643.82246	40199.7375
1647.11321	44732.1375
1650.40179	47830.2375
1653.68819	46508.2375
1656.97241	40799.2375
1660.25446	34586.1375
1663.53433	30151.8375
1666.81203	27450.3375
1670.08756	25917.9375
1673.36092	24934.2375
1676.63211	24290.4375
1679.90115	23871.7375
1683.16801	23494.7375
1686.43272	23305.4375
1689.69527	23118.2375
1692.95567	23048.2375
1696.2139	22963.4375
1699.46999	23018.6375
1702.72392	22954.9375
1705.97571	22902.3375
1709.22535	22891.1375
1712.47284	22903.2375
1715.71819	22910.1375
1718.96139	22865.6375
1722.20246	22820.9375
1725.44139	22746.7375
1728.67818	22600.7375
1731.91284	22411.9375
1735.14537	22308.9375
1738.37576	22222.3375
1741.60403	22139.3375
1744.83017	22052.2375
1748.05418	22024.0375
1751.27607	21976.1375
1754.49584	21959.5375
1757.71349	21968.8375
1760.92903	21988.0375
1764.14244	21947.9375
1767.35375	21941.0375
1770.56294	21912.4375
1773.77002	21841.2375
1776.97499	21798.6375
1780.17785	21766.3375
1783.37861	21758.5375
1786.57727	21714.0375
1789.77382	21667.9375
1792.96828	21674.2375
1796.16064	21651.8375
1799.3509	21656.5375
1802.53907	21618.1375
1805.72514	21568.6375
1808.90913	21500.5375
1812.09102	21448.2375
1815.27083	21421.3375
1818.44856	21382.0375
1821.6242	21378.6375
1824.79776	21346.9375
1827.96924	21317.5375
1831.13864	21312.7375
1834.30597	21318.2375
1837.47122	21262.2375
1840.6344	21249.8375
1843.7955	21313.2375
1846.95454	21273.8375
1850.11151	21272.3375
1853.26642	21265.8375
1856.41926	21250.0375
1859.57004	21247.4375
1862.71876	21266.3375
1865.86542	21253.2375
1869.01003	21267.1375
1872.15258	21266.8375
1875.29308	21314.1375
1878.43152	21243.9375
1881.56792	21289.4375
1884.70227	21275.4375
1887.83457	21282.0375
1890.96482	21281.5375
1894.09304	21245.4375
1897.21921	21255.3375
1900.34335	21225.0375
1903.46544	21238.9375
1906.58551	21249.7375
1909.70353	21250.6375
1912.81953	21239.9375
1915.93349	21231.9375
1919.04543	21212.0375
1922.15534	21194.1375
1925.26322	21153.0375
1928.36908	21130.1375
1931.47292	21110.0375
1934.57473	21033.1375
1937.67453	20973.7375
1940.77232	20897.6375
1943.86808	20851.2375
1946.96184	20761.9375
1950.05358	20716.1375
1953.14331	20677.2375
1956.23103	20591.6375
1959.31675	20531.1375
1962.40046	20495.9375
1965.48217	20410.6375
1968.56188	20352.6375
1971.63959	20315.6375
1974.7153	20260.7375
1977.78901	20194.6375
1980.86073	20126.4375
1983.93046	20108.1375
1986.99819	20024.7375
1990.06394	19962.3375
1993.1277	19911.8375
1996.18947	19840.2375
1999.24925	19783.1375
2002.30706	19750.1375
2005.36288	19696.8375
2008.41672	19632.5375
2011.46859	19581.4375
2014.51848	19541.2375
2017.56639	19483.7375
2020.61233	19451.6375
2023.6563	19365.9375
2026.6983	19308.9375
2029.73833	19254.9375
2032.7764	19244.3375
2035.8125	19225.5375
2038.84664	19163.9375
2041.87881	19190.7375
2044.90903	19100.3375
2047.93729	19136.7375
2050.96359	19102.4375
2053.98794	19046.5375
2057.01034	19048.1375
2060.03078	19020.5375
2063.04927	19048.9375
2066.06582	19012.0375
2069.08042	18971.5375
2072.09307	18959.8375
2075.10378	18935.7375
2078.11255	18910.2375
2081.11938	18907.5375
2084.12426	18902.4375
2087.12722	18892.6375
2090.12824	18845.3375
2093.12732	18886.8375
2096.12447	18868.9375
2099.11969	18868.4375
2102.11299	18885.3375
2105.10435	18889.1375
2108.09379	18889.5375
2111.08131	18903.4375
2114.0669	18895.0375
2117.05057	18922.1375
2120.03233	18931.6375
2123.01216	18975.4375
2125.99008	19009.1375
2128.96609	19011.3375
2131.94018	19027.2375
2134.91236	19032.2375
2137.88263	19038.7375
2140.851	19028.4375
2143.81746	19031.4375
2146.78201	19056.5375
2149.74466	19066.4375
2152.7054	19050.6375
2155.66425	19072.5375
2158.6212	19049.6375
2161.57625	19023.0375
2164.52941	18986.1375
2167.48067	18989.1375
2170.43004	18975.0375
2173.37752	19007.2375
2176.32311	19022.5375
2179.26681	19052.9375
2182.20863	19024.2375
2185.14856	19074.9375
2188.08661	19024.5375
2191.02278	19034.9375
2193.95707	18958.9375
2196.88948	18953.7375
2199.82001	18982.4375
2202.74867	18975.0375
2205.67545	18951.0375
2208.60037	18918.7375
2211.52341	18917.2375
2214.44458	18920.9375
2217.36388	18915.2375
2220.28132	18822.2375
2223.1969	18795.3375
2226.11061	18776.3375
2229.02246	18708.8375
2231.93245	18667.8375
2234.84058	18642.4375
2237.74686	18642.0375
2240.65128	18622.6375
2243.55385	18594.6375
2246.45456	18574.3375
2249.35343	18577.6375
2252.25044	18566.1375
2255.14561	18586.2375
2258.03893	18569.6375
2260.93041	18554.6375
2263.82004	18508.2375
2266.70783	18469.1375
2269.59378	18372.7375
2272.4779	18394.9375
2275.36017	18315.9375
2278.24061	18306.8375
2281.11922	18251.3375
2283.996	18206.7375
2286.87094	18208.9375
2289.74405	18167.2375
2292.61534	18157.5375
2295.4848	18114.1375
2298.35243	18136.8375
2301.21824	18095.7375
2304.08223	18095.3375
2306.94439	18096.7375
2309.80474	18139.4375
2312.66327	18148.5375
2315.51999	18121.2375
2318.37489	18118.8375
2321.22797	18091.3375
2324.07925	18079.4375
2326.92871	18040.7375
2329.77637	18038.1375
2332.62222	17990.1375
2335.46626	18018.9375
2338.3085	17982.0375
2341.14893	18031.2375
2343.98756	18014.5375
2346.8244	18023.8375
2349.65943	18049.2375
2352.49267	18058.9375
2355.32411	18089.2375
2358.15376	18073.8375
2360.98161	18088.4375
2363.80768	18090.1375
2366.63195	18064.1375
2369.45444	18075.7375
2372.27514	18034.2375
2375.09405	18000.5375
2377.91118	17962.7375
2380.72652	17875.0375
2383.54009	17839.3375
2386.35187	17759.1375
2389.16188	17678.2375
2391.97011	17658.1375
2394.77657	17593.5375
2397.58125	17596.5375
2400.38416	17536.7375
2403.18529	17493.0375
2405.98466	17487.8375
2408.78226	17449.1375
2411.57809	17436.5375
2414.37216	17393.0375
2417.16446	17396.3375
2419.955	17330.5375
2422.74378	17343.2375
2425.5308	17330.1375
2428.31606	17314.6375
2431.09956	17329.3375
2433.88131	17314.3375
2436.6613	17311.1375
2439.43954	17340.1375
2442.21603	17293.9375
2444.99077	17270.7375
2447.76377	17284.7375
2450.53501	17297.4375
2453.30451	17276.3375
2456.07226	17271.3375
2458.83827	17241.5375
2461.60254	17217.9375
2464.36507	17261.0375
2467.12586	17238.6375
2469.88492	17213.1375
2472.64224	17227.0375
2475.39782	17246.7375
2478.15167	17242.5375
2480.90379	17275.6375
2483.65417	17337.9375
2486.40283	17330.0375
2489.14976	17386.4375
2491.89497	17375.9375
2494.63845	17396.3375
2497.3802	17366.9375
2500.12024	17349.4375
2502.85855	17309.6375
2505.59514	17283.1375
2508.33002	17222.4375
2511.06318	17167.8375
2513.79462	17144.1375
2516.52435	17110.8375
2519.25237	17029.2375
2521.97867	17012.3375
2524.70327	17009.9375
2527.42616	16960.6375
2530.14734	16978.1375
2532.86681	16940.5375
2535.58458	16928.7375
2538.30065	16916.4375
2541.01501	16948.4375
2543.72768	16953.6375
2546.43864	16932.7375
2549.14791	16901.9375
2551.85548	16945.7375
2554.56136	16862.9375
2557.26554	16843.9375
2559.96803	16813.8375
2562.66883	16782.4375
2565.36794	16780.9375
2568.06536	16767.6375
2570.7611	16725.5375
2573.45514	16704.9375
2576.14751	16662.9375
2578.83819	16646.2375
2581.52719	16667.8375
2584.21451	16614.3375
2586.90015	16630.4375
2589.58411	16609.3375
2592.2664	16610.2375
2594.94701	16604.1375
2597.62594	16611.4375
2600.30321	16603.3375
2602.9788	16574.7375
2605.65273	16568.1375
2608.32498	16565.8375
2610.99557	16575.9375
2613.66449	16550.9375
2616.33175	16545.6375
2618.99734	16551.7375
2621.66128	16542.2375
2624.32355	16533.0375
2626.98416	16520.7375
2629.64311	16506.8375
2632.30041	16509.2375
2634.95605	16457.7375
2637.61004	16447.4375
2640.26238	16400.7375
2642.91306	16393.6375
2645.56209	16358.4375
2648.20948	16347.8375
2650.85521	16332.3375
2653.4993	16309.4375
2656.14175	16339.0375
2658.78255	16356.0375
2661.42171	16351.5375
2664.05923	16386.9375
2666.6951	16426.0375
2669.32934	16409.9375
2671.96194	16418.9375
2674.59291	16462.5375
2677.22224	16479.3375
2679.84993	16506.0375
2682.476	16492.7375
2685.10043	16461.8375
2687.72324	16442.1375
2690.34441	16432.0375
2692.96396	16416.7375
2695.58188	16443.0375
2698.19818	16403.4375
2700.81285	16407.7375
2703.4259	16427.5375
2706.03733	16461.4375
2708.64714	16401.0375
2711.25533	16402.9375
2713.86191	16416.3375
2716.46687	16447.1375
2719.07021	16418.2375
2721.67194	16440.9375
2724.27206	16422.1375
2726.87057	16470.3375
2729.46747	16435.3375
2732.06276	16442.1375
2734.65644	16436.7375
2737.24852	16421.8375
2739.83899	16402.7375
2742.42786	16440.9375
2745.01513	16431.6375
2747.60079	16390.4375
2750.18486	16395.2375
2752.76733	16378.2375
2755.3482	16379.8375
2757.92747	16340.6375
2760.50515	16328.4375
2763.08123	16339.3375
2765.65573	16283.3375
2768.22863	16303.9375
2770.79994	16251.7375
2773.36967	16258.8375
2775.9378	16264.2375
2778.50435	16274.6375
2781.06932	16257.0375
2783.6327	16238.5375
2786.1945	16269.4375
2788.75471	16208.9375
2791.31335	16176.1375
2793.87041	16206.4375
2796.42589	16149.8375
2798.97979	16140.9375
2801.53212	16089.0375
2804.08288	16086.2375
2806.63206	16061.1375
2809.17967	16054.6375
2811.72571	16023.0375
2814.27018	15975.9375
2816.81308	15971.9375
2819.35442	15968.9375
2821.89419	15956.8375
2824.43239	15999.0375
2826.96904	15991.6375
2829.50412	16016.5375
2832.03763	15953.7375
2834.56959	15978.0375
2837.1	15934.6375
2839.62884	15949.2375
2842.15613	15919.5375
2844.68186	15945.1375
2847.20604	15895.4375
2849.72867	15915.9375
2852.24974	15902.0375
2854.76927	15884.6375
2857.28724	15868.3375
2859.80367	15882.5375
2862.31855	15869.0375
2864.83189	15836.9375
2867.34368	15800.8375
2869.85393	15823.5375
2872.36264	15794.1375
2874.8698	15801.2375
2877.37543	15759.5375
2879.87952	15771.1375
2882.38207	15735.7375
2884.88308	15701.0375
2887.38256	15703.0375
2889.88051	15725.2375
2892.37692	15719.7375
2894.8718	15727.2375
2897.36515	15744.9375
2899.85698	15745.0375
2902.34727	15789.4375
2904.83604	15750.3375
2907.32328	15765.2375
2909.809	15739.1375
2912.29319	15758.5375
2914.77587	15768.7375
2917.25702	15787.6375
2919.73665	15760.6375
2922.21476	15750.7375
2924.69136	15679.0375
2927.16644	15693.0375
2929.64	15673.2375
2932.11205	15670.4375
2934.58258	15623.4375
2937.05161	15626.4375
2939.51912	15637.9375
2941.98513	15616.3375
2944.44962	15579.7375
2946.91261	15545.2375
2949.37409	15538.5375
2951.83407	15544.8375
2954.29254	15502.7375
2956.74951	15492.4375
2959.20498	15515.7375
2961.65895	15478.1375
2964.11142	15455.9375
2966.56239	15441.2375
2969.01186	15440.2375
2971.45984	15390.9375
2973.90632	15356.2375
2976.35131	15332.3375
2978.7948	15334.1375
2981.23681	15269.0375
2983.67732	15254.2375
2986.11635	15202.0375
2988.55388	15165.8375
2990.98993	15174.6375
2993.4245	15107.5375
2995.85758	15103.4375
2998.28917	15046.5375
3000.71928	15008.4375
3003.14791	14969.2375
3005.57506	14962.4375
3008.00073	14937.3375
3010.42493	14941.9375
3012.84764	14889.2375
3015.26888	14872.5375
3017.68865	14824.2375
3020.10694	14816.9375
3022.52376	14781.0375
3024.9391	14765.4375
