Data from AgNPs_FTO_APTES_UA_20uM_CRN_10uM_R6G_10uM_NaF_0.1M_Addition_RamanShift__5__14-16-12-187.txt Node

Date: Thu Feb 17 14:16:12 GMT 2022
User: TCL
Spectrometer: QEP01345
Trigger mode: 4
Integration Time (sec): 7.000000E0
Scans to average: 10
Electric dark correction enabled: true
Nonlinearity correction enabled: false
Boxcar width: 0
XAxis mode: Raman Shifts
Number of Pixels in Spectrum: 1044
>>>>>Begin Spectral Data<<<<<
46.04893	-0.0875
50.45542	-1.1875
54.85868	-3.7875
59.25871	-0.2875
63.6555	119.0125
68.04907	123.1125
72.43941	129.3125
76.82654	125.6125
81.21044	129.7125
85.59113	135.8125
89.96862	136.6125
94.34289	143.9125
98.71396	149.5125
103.08183	151.3125
107.4465	155.2125
111.80798	160.8125
116.16626	168.2125
120.52136	176.6125
124.87327	182.9125
129.222	195.6125
133.56755	211.9125
137.90993	226.9125
142.24913	252.4125
146.58517	283.0125
150.91804	337.3125
155.24774	398.2125
159.57429	505.3125
163.89768	654.0125
168.21792	869.8125
172.53501	1217.2125
176.84895	1705.0125
181.15975	2398.5125
185.46741	3384.1125
189.77193	4661.1125
194.07331	6274.6125
198.37157	8095.3125
202.6667	10028.6125
206.9587	11954.7125
211.24758	13814.2125
215.53334	15675.9125
219.81599	17682.6125
224.09553	19838.2125
228.37195	22247.7125
232.64527	24920.3125
236.91549	27685.1125
241.18261	30544.6125
245.44663	33178.1125
249.70755	35547.2125
253.96539	37649.7125
258.22014	39452.8125
262.4718	40865.4125
266.72039	41989.8125
270.96589	42505.9125
275.20832	42548.6125
279.44768	42374.7125
283.68397	41916.3125
287.91719	41566.2125
292.14735	41393.7125
296.37445	41371.7125
300.59849	41484.9125
304.81948	41672.0125
309.03742	41791.8125
313.25231	41632.3125
317.46415	41183.7125
321.67296	40575.3125
325.87872	39954.6125
330.08145	39672.3125
334.28114	39685.2125
338.47781	39993.9125
342.67145	40442.1125
346.86207	41115.4125
351.04966	41846.3125
355.23424	42537.4125
359.4158	43106.8125
363.59435	43576.7125
367.76989	43887.8125
371.94243	44202.6125
376.11196	44444.3125
380.27849	44711.1125
384.44203	44988.8125
388.60257	45329.2125
392.76012	45693.6125
396.91468	46197.1125
401.06626	46806.5125
405.21485	47204.1125
409.36047	47048.5125
413.50311	46614.5125
417.64277	46352.1125
421.77947	46342.4125
425.9132	46534.6125
430.04396	46753.8125
434.17176	47062.4125
438.2966	47529.1125
442.41849	48418.9125
446.53742	49715.3125
450.6534	51214.2125
454.76644	52267.7125
458.87653	52508.5125
462.98368	52193.5125
467.08789	51420.0125
471.18916	50647.6125
475.2875	49891.9125
479.38291	49365.7125
483.4754	49042.1125
487.56496	48605.7125
491.6516	48096.5125
495.73531	47653.2125
499.81612	47350.7125
503.89401	47501.6125
507.96899	47669.1125
512.04106	47590.8125
516.11023	47461.8125
520.1765	47190.0125
524.23987	47123.2125
528.30034	47017.8125
532.35792	46755.1125
536.41261	46404.5125
540.46441	45988.4125
544.51333	45963.1125
548.55936	46303.5125
552.60252	47150.0125
556.64279	48234.3125
560.6802	49087.3125
564.71473	49464.8125
568.7464	50063.6125
572.7752	51238.1125
576.80114	52324.9125
580.82422	53499.8125
584.84444	54918.0125
588.86181	56997.4125
592.87633	58744.2125
596.888	58699.1125
600.89682	56721.1125
604.9028	56269.1125
608.90594	58943.0125
612.90624	62028.1125
616.90371	58914.1125
620.89834	51686.9125
624.89015	48442.1125
628.87913	48059.5125
632.86528	48152.9125
636.84862	48033.4125
640.82913	47430.0125
644.80683	46590.7125
648.78172	45996.9125
652.75379	46020.1125
656.72306	46568.9125
660.68952	47233.3125
664.65319	47050.6125
668.61405	46348.6125
672.57211	46301.2125
676.52738	46568.6125
680.47986	46575.8125
684.42955	46259.3125
688.37646	46152.5125
692.32058	46425.5125
696.26192	47076.7125
700.20048	47674.9125
704.13626	48019.5125
708.06928	47995.9125
711.99952	47818.3125
715.927	47773.0125
719.85171	47931.3125
723.77365	47867.1125
727.69284	47390.6125
731.60928	46855.8125
735.52295	46734.8125
739.43388	46803.7125
743.34206	47035.9125
747.24749	47194.3125
751.15017	47591.2125
755.05012	48288.2125
758.94733	49306.3125
762.8418	51101.5125
766.73354	54020.3125
770.62254	56700.9125
774.50882	57125.3125
778.39237	55057.1125
782.27321	52033.6125
786.15132	49622.8125
790.02671	48084.7125
793.89938	47365.9125
797.76935	47045.2125
801.6366	46917.4125
805.50115	46778.9125
809.36299	46666.4125
813.22213	46460.3125
817.07857	46320.0125
820.93231	46248.3125
824.78336	46137.0125
828.63172	45957.2125
832.47738	46037.0125
836.32036	46041.7125
840.16066	46230.0125
843.99827	46297.2125
847.8332	46269.3125
851.66546	46242.9125
855.49504	46291.9125
859.32195	46243.7125
863.1462	46235.2125
866.96777	46216.3125
870.78668	46161.0125
874.60293	46237.1125
878.41652	46259.3125
882.22745	46374.9125
886.03573	46411.5125
889.84136	46445.0125
893.64433	46201.7125
897.44466	46056.3125
901.24235	45924.4125
905.0374	45893.3125
908.8298	45791.9125
912.61957	45862.3125
916.40671	46234.1125
920.19121	46721.4125
923.97308	47125.7125
927.75233	47183.9125
931.52895	46816.8125
935.30295	46280.5125
939.07433	45749.4125
942.84309	45384.0125
946.60924	45172.0125
950.37278	45130.8125
954.13371	45235.5125
957.89203	45177.0125
961.64774	45126.5125
965.40086	45015.8125
969.15137	44984.8125
972.89929	44843.0125
976.64461	44794.3125
980.38733	44812.6125
984.12747	44947.7125
987.86502	45273.3125
991.59999	45617.4125
995.33237	46232.7125
999.06217	47082.3125
1002.78939	48134.4125
1006.51404	49073.0125
1010.23611	49805.9125
1013.95561	50290.5125
1017.67255	50326.8125
1021.38692	49968.8125
1025.09872	49246.9125
1028.80796	48981.4125
1032.51465	49355.0125
1036.21877	49901.9125
1039.92035	50026.5125
1043.61937	49869.9125
1047.31584	49310.3125
1051.00976	48696.3125
1054.70114	48463.3125
1058.38998	48489.2125
1062.07627	48752.3125
1065.76003	49104.4125
1069.44126	49651.3125
1073.11995	50288.3125
1076.79611	50798.7125
1080.46974	51243.0125
1084.14085	51615.3125
1087.80943	52088.6125
1091.47549	52437.4125
1095.13903	52380.4125
1098.80005	51781.6125
1102.45857	50996.5125
1106.11456	50483.5125
1109.76805	50222.5125
1113.41903	50384.7125
1117.06751	50667.6125
1120.71348	50976.1125
1124.35696	51384.6125
1127.99793	51652.9125
1131.63641	51774.0125
1135.2724	51601.1125
1138.90589	51471.1125
1142.5369	51552.1125
1146.16542	51772.8125
1149.79145	52057.2125
1153.415	52508.4125
1157.03607	53053.7125
1160.65467	54208.9125
1164.27079	56046.6125
1167.88443	58468.2125
1171.49561	61206.5125
1175.10432	64678.2125
1178.71056	69045.3125
1182.31434	73177.1125
1185.91565	74979.8125
1189.51451	74361.7125
1193.11091	72379.3125
1196.70485	70029.9125
1200.29634	67833.2125
1203.88538	66394.4125
1207.47197	65555.2125
1211.05612	64732.3125
1214.63782	63670.3125
1218.21708	62658.5125
1221.79391	61815.3125
1225.36829	61335.3125
1228.94024	60734.3125
1232.50976	59643.5125
1236.07685	58529.8125
1239.6415	57903.0125
1243.20374	57807.4125
1246.76355	58278.4125
1250.32093	59049.9125
1253.8759	60120.0125
1257.42845	61465.9125
1260.97859	62848.0125
1264.52631	64398.0125
1268.07163	65969.5125
1271.61453	67620.1125
1275.15503	69196.7125
1278.69312	70867.3125
1282.22882	72454.0125
1285.76211	74279.6125
1289.29301	76606.0125
1292.82151	79482.8125
1296.34761	83204.8125
1299.87133	87606.9125
1303.39266	92656.8125
1306.9116	97425.0125
1310.42815	101481.3125
1313.94233	103724.8125
1317.45412	103250.8125
1320.96354	101205.1125
1324.47058	99182.7125
1327.97525	97257.6125
1331.47754	95527.3125
1334.97747	94389.7125
1338.47502	93413.1125
1341.97022	92569.0125
1345.46305	91563.2125
1348.95352	90850.7125
1352.44163	90896.2125
1355.92738	92707.1125
1359.41078	96349.7125
1362.89183	99230.7125
1366.37053	97606.0125
1369.84688	90765.7125
1373.32088	81996.9125
1376.79254	76176.3125
1380.26186	74056.0125
1383.72883	74174.0125
1387.19347	74551.3125
1390.65578	74077.4125
1394.11575	73831.4125
1397.57339	74334.8125
1401.0287	75334.4125
1404.48168	76066.9125
1407.93234	76013.0125
1411.38068	75055.9125
1414.82669	73148.1125
1418.27039	70793.4125
1421.71177	68352.0125
1425.15083	66331.2125
1428.58758	65552.4125
1432.02203	66185.2125
1435.45416	67719.6125
1438.88399	69508.8125
1442.31151	70871.2125
1445.73673	71505.1125
1449.15965	71755.1125
1452.58027	71764.3125
1455.9986	71466.7125
1459.41463	71726.5125
1462.82837	72545.8125
1466.23982	73707.0125
1469.64898	74908.8125
1473.05586	75829.8125
1476.46045	76171.4125
1479.86276	75735.3125
1483.26279	75040.1125
1486.66054	74568.9125
1490.05602	74733.8125
1493.44922	75356.2125
1496.84016	75906.3125
1500.22882	76902.2125
1503.61521	78718.2125
1506.99934	80952.6125
1510.38121	82579.1125
1513.76081	82447.3125
1517.13816	80710.5125
1520.51324	78105.9125
1523.88607	76529.4125
1527.25665	76157.7125
1530.62498	76439.6125
1533.99105	76722.0125
1537.35488	76249.6125
1540.71647	75054.2125
1544.07581	73423.2125
1547.4329	71712.6125
1550.78776	70157.7125
1554.14038	69032.1125
1557.49077	68334.1125
1560.83892	67900.0125
1564.18484	67707.4125
1567.52853	67971.5125
1570.86999	68618.1125
1574.20922	69557.0125
1577.54624	70350.1125
1580.88103	70441.6125
1584.2136	70887.1125
1587.54395	72917.0125
1590.87208	76417.0125
1594.19801	81008.3125
1597.52172	85426.3125
1600.84321	86779.1125
1604.16251	83466.6125
1607.47959	77512.7125
1610.79447	71260.2125
1614.10715	65740.7125
1617.41763	61524.3125
1620.7259	58692.9125
1624.03199	57325.7125
1627.33587	57341.1125
1630.63757	58808.0125
1633.93707	62027.0125
1637.23439	67531.0125
1640.52951	75460.6125
1643.82246	84675.4125
1647.11321	91548.1125
1650.40179	92000.8125
1653.68819	85276.0125
1656.97241	74768.0125
1660.25446	65093.3125
1663.53433	58062.7125
1666.81203	53708.7125
1670.08756	50931.2125
1673.36092	49223.6125
1676.63211	48087.0125
1679.90115	47294.5125
1683.16801	46624.3125
1686.43272	46204.2125
1689.69527	45887.1125
1692.95567	45630.5125
1696.2139	45488.8125
1699.46999	45393.0125
1702.72392	45250.6125
1705.97571	45212.4125
1709.22535	45075.3125
1712.47284	45109.2125
1715.71819	45073.5125
1718.96139	44950.2125
1722.20246	44848.5125
1725.44139	44645.6125
1728.67818	44485.6125
1731.91284	44275.0125
1735.14537	44081.5125
1738.37576	43874.4125
1741.60403	43776.9125
1744.83017	43627.9125
1748.05418	43509.1125
1751.27607	43413.0125
1754.49584	43406.2125
1757.71349	43417.3125
1760.92903	43392.4125
1764.14244	43353.7125
1767.35375	43321.3125
1770.56294	43251.5125
1773.77002	43262.4125
1776.97499	43199.0125
1780.17785	43132.4125
1783.37861	43066.1125
1786.57727	42951.1125
1789.77382	42873.3125
1792.96828	42882.8125
1796.16064	42863.1125
1799.3509	42772.0125
1802.53907	42693.5125
1805.72514	42570.2125
1808.90913	42511.4125
1812.09102	42413.7125
1815.27083	42365.3125
1818.44856	42311.8125
1821.6242	42262.9125
1824.79776	42234.5125
1827.96924	42250.9125
1831.13864	42172.2125
1834.30597	42178.2125
1837.47122	42183.8125
1840.6344	42036.6125
1843.7955	42120.7125
1846.95454	42107.3125
1850.11151	42062.6125
1853.26642	42061.9125
1856.41926	42035.9125
1859.57004	42030.2125
1862.71876	41916.4125
1865.86542	41924.4125
1869.01003	41867.9125
1872.15258	41810.6125
1875.29308	41789.4125
1878.43152	41713.2125
1881.56792	41780.0125
1884.70227	41779.4125
1887.83457	41764.4125
1890.96482	41749.3125
1894.09304	41651.0125
1897.21921	41635.3125
1900.34335	41576.9125
1903.46544	41495.2125
1906.58551	41547.4125
1909.70353	41495.3125
1912.81953	41498.0125
1915.93349	41406.4125
1919.04543	41307.6125
1922.15534	41267.1125
1925.26322	41189.4125
1928.36908	41104.4125
1931.47292	41070.5125
1934.57473	40980.2125
1937.67453	40939.4125
1940.77232	40815.4125
1943.86808	40736.9125
1946.96184	40676.8125
1950.05358	40519.6125
1953.14331	40421.2125
1956.23103	40359.0125
1959.31675	40208.5125
1962.40046	40113.7125
1965.48217	39962.6125
1968.56188	39906.5125
1971.63959	39741.7125
1974.7153	39653.7125
1977.78901	39534.4125
1980.86073	39455.4125
1983.93046	39364.4125
1986.99819	39231.8125
1990.06394	39189.5125
1993.1277	39072.2125
1996.18947	38970.8125
1999.24925	38914.7125
2002.30706	38788.1125
2005.36288	38647.8125
2008.41672	38547.7125
2011.46859	38484.5125
2014.51848	38402.4125
2017.56639	38228.4125
2020.61233	38184.7125
2023.6563	38127.5125
2026.6983	37973.1125
2029.73833	37912.9125
2032.7764	37872.7125
2035.8125	37869.8125
2038.84664	37742.0125
2041.87881	37699.7125
2044.90903	37712.0125
2047.93729	37640.6125
2050.96359	37622.8125
2053.98794	37550.2125
2057.01034	37614.3125
2060.03078	37549.0125
2063.04927	37494.6125
2066.06582	37477.2125
2069.08042	37456.7125
2072.09307	37390.5125
2075.10378	37357.9125
2078.11255	37347.4125
2081.11938	37377.2125
2084.12426	37370.1125
2087.12722	37316.5125
2090.12824	37358.5125
2093.12732	37362.5125
2096.12447	37413.3125
2099.11969	37355.7125
2102.11299	37366.3125
2105.10435	37371.6125
2108.09379	37443.1125
2111.08131	37461.9125
2114.0669	37410.9125
2117.05057	37445.6125
2120.03233	37490.9125
2123.01216	37554.4125
2125.99008	37627.0125
2128.96609	37659.8125
2131.94018	37685.5125
2134.91236	37709.9125
2137.88263	37767.5125
2140.851	37744.4125
2143.81746	37810.5125
2146.78201	37814.8125
2149.74466	37904.2125
2152.7054	37856.7125
2155.66425	37823.9125
2158.6212	37858.2125
2161.57625	37782.7125
2164.52941	37833.6125
2167.48067	37759.7125
2170.43004	37752.3125
2173.37752	37792.4125
2176.32311	37835.3125
2179.26681	37839.9125
2182.20863	37843.0125
2185.14856	37901.5125
2188.08661	37855.9125
2191.02278	37863.7125
2193.95707	37826.5125
2196.88948	37805.3125
2199.82001	37792.1125
2202.74867	37724.7125
2205.67545	37714.6125
2208.60037	37697.6125
2211.52341	37641.8125
2214.44458	37663.7125
2217.36388	37567.7125
2220.28132	37514.8125
2223.1969	37428.9125
2226.11061	37386.8125
2229.02246	37301.2125
2231.93245	37263.8125
2234.84058	37164.0125
2237.74686	37177.7125
2240.65128	37117.6125
2243.55385	37024.7125
2246.45456	37107.8125
2249.35343	37094.6125
2252.25044	37043.4125
2255.14561	36871.7125
2258.03893	36848.7125
2260.93041	36826.8125
2263.82004	36709.5125
2266.70783	36631.2125
2269.59378	36553.1125
2272.4779	36509.2125
2275.36017	36445.3125
2278.24061	36423.9125
2281.11922	36282.8125
2283.996	36238.7125
2286.87094	36300.0125
2289.74405	36234.1125
2292.61534	36165.5125
2295.4848	36158.5125
2298.35243	36188.9125
2301.21824	36154.4125
2304.08223	36178.8125
2306.94439	36149.5125
2309.80474	36146.4125
2312.66327	36198.4125
2315.51999	36159.4125
2318.37489	36126.0125
2321.22797	36130.1125
2324.07925	36074.9125
2326.92871	35993.3125
2329.77637	35902.8125
2332.62222	35896.4125
2335.46626	35905.0125
2338.3085	35858.0125
2341.14893	35892.9125
2343.98756	35808.5125
2346.8244	35813.5125
2349.65943	35792.6125
2352.49267	35800.2125
2355.32411	35845.4125
2358.15376	35822.8125
2360.98161	35817.5125
2363.80768	35743.7125
2366.63195	35781.4125
2369.45444	35720.4125
2372.27514	35636.1125
2375.09405	35642.9125
2377.91118	35597.0125
2380.72652	35525.4125
2383.54009	35400.8125
2386.35187	35339.5125
2389.16188	35263.6125
2391.97011	35253.5125
2394.77657	35192.4125
2397.58125	35091.2125
2400.38416	35141.0125
2403.18529	35070.6125
2405.98466	35034.4125
2408.78226	34949.2125
2411.57809	34924.4125
2414.37216	34890.0125
2417.16446	34901.6125
2419.955	34845.5125
2422.74378	34773.2125
2425.5308	34796.8125
2428.31606	34751.5125
2431.09956	34734.0125
2433.88131	34714.4125
2436.6613	34761.2125
2439.43954	34757.4125
2442.21603	34721.4125
2444.99077	34679.5125
2447.76377	34682.2125
2450.53501	34615.3125
2453.30451	34651.4125
2456.07226	34575.8125
2458.83827	34567.5125
2461.60254	34577.4125
2464.36507	34585.7125
2467.12586	34594.7125
2469.88492	34635.0125
2472.64224	34589.3125
2475.39782	34563.6125
2478.15167	34621.2125
2480.90379	34607.5125
2483.65417	34652.0125
2486.40283	34613.1125
2489.14976	34642.3125
2491.89497	34571.7125
2494.63845	34678.9125
2497.3802	34611.4125
2500.12024	34655.9125
2502.85855	34587.6125
2505.59514	34589.4125
2508.33002	34547.2125
2511.06318	34495.9125
2513.79462	34454.5125
2516.52435	34430.4125
2519.25237	34428.6125
2521.97867	34420.3125
2524.70327	34411.9125
2527.42616	34388.0125
2530.14734	34402.9125
2532.86681	34297.4125
2535.58458	34304.2125
2538.30065	34251.0125
2541.01501	34275.8125
2543.72768	34240.3125
2546.43864	34240.9125
2549.14791	34233.3125
2551.85548	34142.9125
2554.56136	34062.4125
2557.26554	34042.4125
2559.96803	33977.5125
2562.66883	33979.2125
2565.36794	33932.6125
2568.06536	33899.0125
2570.7611	33869.9125
2573.45514	33846.0125
2576.14751	33790.4125
2578.83819	33787.9125
2581.52719	33804.3125
2584.21451	33747.0125
2586.90015	33760.6125
2589.58411	33738.5125
2592.2664	33710.9125
2594.94701	33630.8125
2597.62594	33610.7125
2600.30321	33618.9125
2602.9788	33608.9125
2605.65273	33538.0125
2608.32498	33602.2125
2610.99557	33576.3125
2613.66449	33597.8125
2616.33175	33574.5125
2618.99734	33516.3125
2621.66128	33476.8125
2624.32355	33438.6125
2626.98416	33386.0125
2629.64311	33433.3125
2632.30041	33403.5125
2634.95605	33371.3125
2637.61004	33316.4125
2640.26238	33358.2125
2642.91306	33237.5125
2645.56209	33235.1125
2648.20948	33225.1125
2650.85521	33225.9125
2653.4993	33265.1125
2656.14175	33272.1125
2658.78255	33312.7125
2661.42171	33323.0125
2664.05923	33373.7125
2666.6951	33393.4125
2669.32934	33381.9125
2671.96194	33347.0125
2674.59291	33415.4125
2677.22224	33379.4125
2679.84993	33385.4125
2682.476	33335.0125
2685.10043	33343.8125
2687.72324	33306.3125
2690.34441	33313.6125
2692.96396	33316.7125
2695.58188	33314.4125
2698.19818	33289.4125
2700.81285	33251.4125
2703.4259	33250.0125
2706.03733	33344.3125
2708.64714	33326.4125
2711.25533	33385.5125
2713.86191	33377.6125
2716.46687	33484.8125
2719.07021	33405.1125
2721.67194	33445.6125
2724.27206	33411.7125
2726.87057	33434.6125
2729.46747	33439.8125
2732.06276	33447.9125
2734.65644	33476.7125
2737.24852	33500.3125
2739.83899	33459.3125
2742.42786	33538.2125
2745.01513	33498.0125
2747.60079	33467.1125
2750.18486	33421.2125
2752.76733	33386.7125
2755.3482	33317.8125
2757.92747	33322.2125
2760.50515	33268.4125
2763.08123	33261.0125
2765.65573	33240.2125
2768.22863	33286.2125
2770.79994	33247.5125
2773.36967	33273.8125
2775.9378	33293.7125
2778.50435	33282.9125
2781.06932	33252.4125
2783.6327	33184.6125
2786.1945	33179.2125
2788.75471	33120.9125
2791.31335	33102.3125
2793.87041	33063.7125
2796.42589	32984.9125
2798.97979	32972.6125
2801.53212	32878.7125
2804.08288	32885.1125
2806.63206	32774.8125
2809.17967	32698.0125
2811.72571	32573.4125
2814.27018	32522.1125
2816.81308	32414.2125
2819.35442	32363.1125
2821.89419	32373.0125
2824.43239	32372.3125
2826.96904	32337.6125
2829.50412	32403.7125
2832.03763	32244.2125
2834.56959	32267.4125
2837.1	32197.0125
2839.62884	32149.5125
2842.15613	32089.4125
2844.68186	32116.0125
2847.20604	32087.3125
2849.72867	32086.1125
2852.24974	32013.8125
2854.76927	31969.6125
2857.28724	31983.7125
2859.80367	32000.6125
2862.31855	31913.1125
2864.83189	31869.2125
2867.34368	31827.9125
2869.85393	31893.3125
2872.36264	31833.7125
2874.8698	31800.1125
2877.37543	31760.0125
2879.87952	31724.9125
2882.38207	31712.5125
2884.88308	31729.0125
2887.38256	31782.2125
2889.88051	31750.9125
2892.37692	31793.2125
2894.8718	31794.9125
2897.36515	31846.4125
2899.85698	31860.3125
2902.34727	31914.8125
2904.83604	31870.4125
2907.32328	31941.2125
2909.809	31956.8125
2912.29319	31979.1125
2914.77587	32011.5125
2917.25702	31977.2125
2919.73665	31922.9125
2922.21476	31957.5125
2924.69136	31900.2125
2927.16644	31894.1125
2929.64	31826.0125
2932.11205	31816.2125
2934.58258	31728.1125
2937.05161	31809.7125
2939.51912	31849.1125
2941.98513	31787.2125
2944.44962	31768.8125
2946.91261	31695.9125
2949.37409	31784.1125
2951.83407	31715.7125
2954.29254	31688.0125
2956.74951	31672.1125
2959.20498	31725.9125
2961.65895	31682.9125
2964.11142	31691.2125
2966.56239	31623.3125
2969.01186	31627.3125
2971.45984	31532.1125
2973.90632	31540.4125
2976.35131	31508.4125
2978.7948	31429.8125
2981.23681	31376.2125
2983.67732	31339.5125
2986.11635	31271.9125
2988.55388	31252.5125
2990.98993	31200.8125
2993.4245	31111.1125
2995.85758	31095.0125
2998.28917	31036.9125
3000.71928	30917.4125
3003.14791	30912.2125
3005.57506	30848.6125
3008.00073	30789.9125
3010.42493	30744.8125
3012.84764	30655.7125
3015.26888	30629.7125
3017.68865	30614.9125
3020.10694	30607.2125
3022.52376	30482.6125
