Data from AgNPs_FTO_APTES_UA_20uM_CRN_200uM_R6G_10uM_NaF_0.1M_Addition_RamanShift__29__18-26-14-945.txt Node

Date: Thu Feb 17 18:26:14 GMT 2022
User: TCL
Spectrometer: QEP01345
Trigger mode: 4
Integration Time (sec): 1.000000E1
Scans to average: 7
Electric dark correction enabled: true
Nonlinearity correction enabled: false
Boxcar width: 0
XAxis mode: Raman Shifts
Number of Pixels in Spectrum: 1044
>>>>>Begin Spectral Data<<<<<
46.04893	0.35714
50.45542	-0.64286
54.85868	0.78571
59.25871	-1.35714
63.6555	76.92857
68.04907	78.5
72.43941	80.35714
76.82654	85.64286
81.21044	86.35714
85.59113	90.35714
89.96862	97.78571
94.34289	97.92857
98.71396	104.35714
103.08183	101.5
107.4465	114.07143
111.80798	108.35714
116.16626	109.35714
120.52136	117.64286
124.87327	121.07143
129.222	120.64286
133.56755	125.07143
137.90993	137.92857
142.24913	148.78571
146.58517	162.64286
150.91804	189.21429
155.24774	223.92857
159.57429	273.21429
163.89768	354.21429
168.21792	464.35714
172.53501	641.78571
176.84895	884.92857
181.15975	1240.78571
185.46741	1744.64286
189.77193	2425.21429
194.07331	3275.64286
198.37157	4248.35714
202.6667	5278.21429
206.9587	6336.5
211.24758	7373.35714
215.53334	8498.35714
219.81599	9746.21429
224.09553	11131.21429
228.37195	12727.64286
232.64527	14454.78571
236.91549	16184.35714
241.18261	17730.92857
245.44663	19076.78571
249.70755	20147.21429
253.96539	20968.21429
258.22014	21635.21429
262.4718	22056.5
266.72039	22252.35714
270.96589	22184.35714
275.20832	21849.07143
279.44768	21368.78571
283.68397	20805.5
287.91719	20453.21429
292.14735	20543.35714
296.37445	21117.5
300.59849	22272.78571
304.81948	23735.07143
309.03742	24937.78571
313.25231	25207.35714
317.46415	23994.64286
321.67296	21864.5
325.87872	19990.78571
330.08145	19144.64286
334.28114	19166.35714
338.47781	19613.21429
342.67145	20329.07143
346.86207	21366.07143
351.04966	23033.35714
355.23424	25022.35714
359.4158	26424.92857
363.59435	27053.35714
367.76989	27141.5
371.94243	26904.07143
376.11196	26696.21429
380.27849	26421.92857
384.44203	26014.35714
388.60257	25481.5
392.76012	25064.07143
396.91468	25155.5
401.06626	25810.07143
405.21485	26250.64286
409.36047	25727.21429
413.50311	24048.35714
417.64277	22454.78571
421.77947	21409.92857
425.9132	21011.07143
430.04396	20937.07143
434.17176	21048.92857
438.2966	21454.92857
442.41849	22120.64286
446.53742	22862.92857
450.6534	23583.64286
454.76644	23990.64286
458.87653	23953.5
462.98368	23635.5
467.08789	23103.35714
471.18916	22434.64286
475.2875	21758.35714
479.38291	21167.5
483.4754	20730.78571
487.56496	20477.21429
491.6516	20300.92857
495.73531	20195.64286
499.81612	20299.64286
503.89401	20596.5
507.96899	20988.78571
512.04106	21532.92857
516.11023	22183.5
520.1765	22596.21429
524.23987	22626.64286
528.30034	22285.92857
532.35792	21767.07143
536.41261	21234.92857
540.46441	20661.5
544.51333	20291.78571
548.55936	20298.5
552.60252	20702.07143
556.64279	21222.64286
560.6802	21571.5
564.71473	22059.07143
568.7464	23211.64286
572.7752	23865.78571
576.80114	22814.21429
580.82422	21443.5
584.84444	20928.35714
588.86181	20939.07143
592.87633	21229.21429
596.888	21665.35714
600.89682	22511.21429
604.9028	25590.64286
608.90594	34345.21429
612.90624	46833.5
616.90371	45985.92857
620.89834	30998.92857
624.89015	23489.35714
628.87913	21982.21429
632.86528	22252.5
636.84862	22690.5
640.82913	22272.64286
644.80683	21006.64286
648.78172	20126.35714
652.75379	20196.64286
656.72306	21211.21429
660.68952	22471.92857
664.65319	22209.5
668.61405	20840.21429
672.57211	20132.35714
676.52738	20089.92857
680.47986	20156.35714
684.42955	20037.5
688.37646	19837.07143
692.32058	19904.5
696.26192	20127.92857
700.20048	20436.5
704.13626	20626.21429
708.06928	20469.92857
711.99952	20235.78571
715.927	20227.92857
719.85171	20380.92857
723.77365	20449.64286
727.69284	20292.07143
731.60928	20139.78571
735.52295	20065.78571
739.43388	20168.92857
743.34206	20325.78571
747.24749	20381.92857
751.15017	20511.64286
755.05012	20869.35714
758.94733	22111.35714
762.8418	24968.78571
766.73354	29651.35714
770.62254	34453.35714
774.50882	37403.35714
778.39237	36758.78571
782.27321	31698.07143
786.15132	25975.92857
790.02671	22603.35714
793.89938	21152.78571
797.76935	20586.07143
801.6366	20334.35714
805.50115	20226.5
809.36299	20164.21429
813.22213	20098.64286
817.07857	20059.64286
820.93231	20037.78571
824.78336	20086.07143
828.63172	20217.07143
832.47738	20307.78571
836.32036	20203.64286
840.16066	20021.5
843.99827	20022.07143
847.8332	19940.07143
851.66546	19974.92857
855.49504	19970.21429
859.32195	19965.92857
863.1462	19847.07143
866.96777	19764.21429
870.78668	19790.78571
874.60293	19885.92857
878.41652	19988.5
882.22745	20182.78571
886.03573	20333.21429
889.84136	20302.21429
893.64433	20150.64286
897.44466	20136.35714
901.24235	20146.21429
905.0374	20031.5
908.8298	19884.92857
912.61957	19715.21429
916.40671	19723.21429
920.19121	19830.92857
923.97308	20049.92857
927.75233	20404.64286
931.52895	20791.64286
935.30295	20649.21429
939.07433	19976.5
942.84309	19351.92857
946.60924	19040.5
950.37278	18846.64286
954.13371	18765.92857
957.89203	18737.5
961.64774	18693.92857
965.40086	18666.5
969.15137	18595.78571
972.89929	18555.07143
976.64461	18552.64286
980.38733	18551.78571
984.12747	18626.5
987.86502	18714.92857
991.59999	18836.64286
995.33237	19115.35714
999.06217	19523.5
1002.78939	20051.21429
1006.51404	20520.07143
1010.23611	20968.64286
1013.95561	21261.35714
1017.67255	21245.5
1021.38692	20957.92857
1025.09872	20721.5
1028.80796	20588.78571
1032.51465	20778.92857
1036.21877	21152.21429
1039.92035	21254.92857
1043.61937	21250.07143
1047.31584	21051.92857
1051.00976	20812.5
1054.70114	20578.5
1058.38998	20483.07143
1062.07627	20559.92857
1065.76003	20554.5
1069.44126	20576.35714
1073.11995	20793.35714
1076.79611	21138.5
1080.46974	21687.78571
1084.14085	22421.07143
1087.80943	23147.64286
1091.47549	23285.35714
1095.13903	22755.64286
1098.80005	21898.78571
1102.45857	21295.35714
1106.11456	21202.5
1109.76805	21510.35714
1113.41903	22211.35714
1117.06751	23322.5
1120.71348	24767.92857
1124.35696	26411.07143
1127.99793	27419.78571
1131.63641	26763.92857
1135.2724	24989.92857
1138.90589	23507.21429
1142.5369	22600.5
1146.16542	22021.78571
1149.79145	21621.64286
1153.415	21537.21429
1157.03607	21661.5
1160.65467	22056.64286
1164.27079	22772.35714
1167.88443	23991.5
1171.49561	25976.92857
1175.10432	29222.21429
1178.71056	33827.92857
1182.31434	37445.64286
1185.91565	38335.78571
1189.51451	36892.21429
1193.11091	34356.92857
1196.70485	31639.78571
1200.29634	29766.35714
1203.88538	28273.92857
1207.47197	26457.78571
1211.05612	24744.5
1214.63782	23793.78571
1218.21708	23466.21429
1221.79391	23352.21429
1225.36829	23409.92857
1228.94024	23386.21429
1232.50976	23253.35714
1236.07685	23264.21429
1239.6415	23415.92857
1243.20374	23641.21429
1246.76355	23887.78571
1250.32093	24204.21429
1253.8759	24767.07143
1257.42845	25541.5
1260.97859	26389.64286
1264.52631	27253.21429
1268.07163	27966.21429
1271.61453	28588.21429
1275.15503	28983.78571
1278.69312	29209.21429
1282.22882	29513.64286
1285.76211	30228.21429
1289.29301	31203.5
1292.82151	32246.64286
1296.34761	33392.64286
1299.87133	35473.35714
1303.39266	39018.64286
1306.9116	44323.64286
1310.42815	49855.07143
1313.94233	51614.64286
1317.45412	48662.5
1320.96354	43597.21429
1324.47058	38840.92857
1327.97525	35319.21429
1331.47754	33558.35714
1334.97747	33208.07143
1338.47502	34129.21429
1341.97022	36014.64286
1345.46305	38600.78571
1348.95352	41752.5
1352.44163	45563.64286
1355.92738	51346.35714
1359.41078	59743.78571
1362.89183	65587.64286
1366.37053	61088.78571
1369.84688	50694.64286
1373.32088	41770.92857
1376.79254	36050.07143
1380.26186	32704.64286
1383.72883	30609.07143
1387.19347	29151.35714
1390.65578	27853.92857
1394.11575	26908.64286
1397.57339	26465.92857
1401.0287	26505.92857
1404.48168	26813.78571
1407.93234	27302.5
1411.38068	27868.07143
1414.82669	28177.35714
1418.27039	28119.07143
1421.71177	27709.92857
1425.15083	27224.78571
1428.58758	27177.64286
1432.02203	27408.35714
1435.45416	27655.21429
1438.88399	27579.21429
1442.31151	27472.07143
1445.73673	27549.5
1449.15965	27588.21429
1452.58027	27430.92857
1455.9986	27063.35714
1459.41463	26947.21429
1462.82837	27289.64286
1466.23982	27873.78571
1469.64898	28485.78571
1473.05586	28889.35714
1476.46045	29305.64286
1479.86276	29839.21429
1483.26279	30666.35714
1486.66054	31672.92857
1490.05602	33069.35714
1493.44922	35071.92857
1496.84016	38013.35714
1500.22882	42638.5
1503.61521	49066.64286
1506.99934	56268.5
1510.38121	61788.07143
1513.76081	62344.07143
1517.13816	56701.92857
1520.51324	47990.92857
1523.88607	40470.78571
1527.25665	35738.92857
1530.62498	33205.92857
1533.99105	31726.92857
1537.35488	30988.78571
1540.71647	30753.92857
1544.07581	30838.5
1547.4329	31037.92857
1550.78776	31205.5
1554.14038	31253.07143
1557.49077	31335.5
1560.83892	31739.78571
1564.18484	32653.21429
1567.52853	33858.92857
1570.86999	34879.64286
1574.20922	35354.5
1577.54624	34861.07143
1580.88103	32750.78571
1584.2136	30206.21429
1587.54395	28861.64286
1590.87208	29079.21429
1594.19801	30760.07143
1597.52172	33106.07143
1600.84321	34319.21429
1604.16251	33459.92857
1607.47959	31565.78571
1610.79447	29274.5
1614.10715	27005.35714
1617.41763	25295.07143
1620.7259	24222.5
1624.03199	23757.07143
1627.33587	23810.92857
1630.63757	24382.78571
1633.93707	25521.92857
1637.23439	27484.21429
1640.52951	30334.35714
1643.82246	34396.5
1647.11321	39248.35714
1650.40179	42352.5
1653.68819	40693.64286
1656.97241	35052.5
1660.25446	29195.92857
1663.53433	25279.07143
1666.81203	22945.78571
1670.08756	21673.92857
1673.36092	20854.21429
1676.63211	20325.64286
1679.90115	19942.07143
1683.16801	19627.78571
1686.43272	19393.21429
1689.69527	19267.78571
1692.95567	19152.78571
1696.2139	19133.78571
1699.46999	19050.78571
1702.72392	19037.07143
1705.97571	19007.5
1709.22535	19035.64286
1712.47284	19025.78571
1715.71819	19038.07143
1718.96139	18968.21429
1722.20246	18984.07143
1725.44139	18823.07143
1728.67818	18737.07143
1731.91284	18559.64286
1735.14537	18488.78571
1738.37576	18455.21429
1741.60403	18345.21429
1744.83017	18236.07143
1748.05418	18229.21429
1751.27607	18190.78571
1754.49584	18140.35714
1757.71349	18103.5
1760.92903	18083.64286
1764.14244	18032.07143
1767.35375	18035.78571
1770.56294	17913.07143
1773.77002	17896.07143
1776.97499	17838.35714
1780.17785	17788.78571
1783.37861	17744.78571
1786.57727	17698.21429
1789.77382	17707.64286
1792.96828	17663.92857
1796.16064	17646.35714
1799.3509	17573.78571
1802.53907	17584.21429
1805.72514	17548.5
1808.90913	17493.92857
1812.09102	17457.35714
1815.27083	17380.5
1818.44856	17370.5
1821.6242	17382.35714
1824.79776	17339.78571
1827.96924	17336.5
1831.13864	17279.78571
1834.30597	17269.35714
1837.47122	17269.5
1840.6344	17218.07143
1843.7955	17217.21429
1846.95454	17218.64286
1850.11151	17228.5
1853.26642	17189.92857
1856.41926	17183.5
1859.57004	17174.92857
1862.71876	17168.78571
1865.86542	17216.92857
1869.01003	17191.35714
1872.15258	17162.07143
1875.29308	17193.21429
1878.43152	17181.78571
1881.56792	17202.92857
1884.70227	17174.78571
1887.83457	17187.64286
1890.96482	17163.35714
1894.09304	17105.21429
1897.21921	17110.07143
1900.34335	17075.78571
1903.46544	17101.35714
1906.58551	17106.64286
1909.70353	17074.64286
1912.81953	17046.07143
1915.93349	17031.35714
1919.04543	17030.5
1922.15534	17027.07143
1925.26322	16957.78571
1928.36908	16943.64286
1931.47292	16895.07143
1934.57473	16868.92857
1937.67453	16840.35714
1940.77232	16765.78571
1943.86808	16709.64286
1946.96184	16670.64286
1950.05358	16611.07143
1953.14331	16564.07143
1956.23103	16528.64286
1959.31675	16530.64286
1962.40046	16454.35714
1965.48217	16397.35714
1968.56188	16397.07143
1971.63959	16350.21429
1974.7153	16296.92857
1977.78901	16301.5
1980.86073	16174.07143
1983.93046	16162.92857
1986.99819	16091.07143
1990.06394	16024.92857
1993.1277	15984.5
1996.18947	15888.21429
1999.24925	15866.78571
2002.30706	15776.21429
2005.36288	15748.5
2008.41672	15724.5
2011.46859	15693.35714
2014.51848	15628.64286
2017.56639	15583.21429
2020.61233	15543.78571
2023.6563	15519.5
2026.6983	15465.92857
2029.73833	15438.78571
2032.7764	15417.35714
2035.8125	15388.64286
2038.84664	15358.07143
2041.87881	15343.21429
2044.90903	15289.35714
2047.93729	15264.21429
2050.96359	15290.78571
2053.98794	15252.07143
2057.01034	15229.78571
2060.03078	15230.92857
2063.04927	15179.07143
2066.06582	15158.78571
2069.08042	15136.92857
2072.09307	15163.92857
2075.10378	15166.64286
2078.11255	15124.35714
2081.11938	15113.92857
2084.12426	15124.92857
2087.12722	15137.64286
2090.12824	15116.64286
2093.12732	15156.92857
2096.12447	15146.78571
2099.11969	15145.92857
2102.11299	15078.07143
2105.10435	15096.92857
2108.09379	15141.5
2111.08131	15134.35714
2114.0669	15140.92857
2117.05057	15162.07143
2120.03233	15191.5
2123.01216	15190.78571
2125.99008	15263.64286
2128.96609	15271.5
2131.94018	15249.64286
2134.91236	15251.5
2137.88263	15226.64286
2140.851	15265.78571
2143.81746	15240.07143
2146.78201	15234.64286
2149.74466	15230.07143
2152.7054	15262.92857
2155.66425	15230.92857
2158.6212	15190.78571
2161.57625	15188.64286
2164.52941	15178.78571
2167.48067	15160.5
2170.43004	15157.35714
2173.37752	15140.21429
2176.32311	15155.78571
2179.26681	15198.64286
2182.20863	15189.5
2185.14856	15194.21429
2188.08661	15170.78571
2191.02278	15176.21429
2193.95707	15179.07143
2196.88948	15180.64286
2199.82001	15118.64286
2202.74867	15105.5
2205.67545	15083.5
2208.60037	15114.5
2211.52341	15089.78571
2214.44458	15060.5
2217.36388	15058.07143
2220.28132	15029.35714
2223.1969	14944.35714
2226.11061	14939.35714
2229.02246	14900.78571
2231.93245	14855.78571
2234.84058	14847.35714
2237.74686	14785.92857
2240.65128	14849.92857
2243.55385	14862.92857
2246.45456	14809.5
2249.35343	14784.64286
2252.25044	14783.92857
2255.14561	14758.35714
2258.03893	14789.07143
2260.93041	14772.64286
2263.82004	14756.92857
2266.70783	14715.5
2269.59378	14668.92857
2272.4779	14634.64286
2275.36017	14564.21429
2278.24061	14573.5
2281.11922	14543.78571
2283.996	14541.5
2286.87094	14509.35714
2289.74405	14487.64286
2292.61534	14459.92857
2295.4848	14403.5
2298.35243	14408.92857
2301.21824	14417.35714
2304.08223	14392.78571
2306.94439	14379.21429
2309.80474	14374.07143
2312.66327	14378.64286
2315.51999	14370.21429
2318.37489	14370.07143
2321.22797	14345.21429
2324.07925	14329.07143
2326.92871	14307.92857
2329.77637	14276.92857
2332.62222	14243.5
2335.46626	14262.07143
2338.3085	14252.07143
2341.14893	14257.07143
2343.98756	14282.64286
2346.8244	14269.35714
2349.65943	14239.21429
2352.49267	14270.5
2355.32411	14277.21429
2358.15376	14289.07143
2360.98161	14285.64286
2363.80768	14336.78571
2366.63195	14302.21429
2369.45444	14278.64286
2372.27514	14297.5
2375.09405	14255.92857
2377.91118	14252.07143
2380.72652	14187.64286
2383.54009	14137.07143
2386.35187	14077.92857
2389.16188	14026.64286
2391.97011	14015.07143
2394.77657	13980.78571
2397.58125	13935.5
2400.38416	13889.35714
2403.18529	13876.07143
2405.98466	13863.78571
2408.78226	13792.21429
2411.57809	13773.07143
2414.37216	13745.78571
2417.16446	13748.64286
2419.955	13706.35714
2422.74378	13698.78571
2425.5308	13705.78571
2428.31606	13702.35714
2431.09956	13690.64286
2433.88131	13694.5
2436.6613	13681.07143
2439.43954	13685.92857
2442.21603	13706.78571
2444.99077	13663.21429
2447.76377	13663.35714
2450.53501	13694.78571
2453.30451	13683.35714
2456.07226	13653.07143
2458.83827	13648.78571
2461.60254	13639.64286
2464.36507	13606.35714
2467.12586	13589.21429
2469.88492	13603.5
2472.64224	13588.64286
2475.39782	13602.64286
2478.15167	13602.92857
2480.90379	13650.5
2483.65417	13699.78571
2486.40283	13752.07143
2489.14976	13754.78571
2491.89497	13751.64286
2494.63845	13767.78571
2497.3802	13771.78571
2500.12024	13737.07143
2502.85855	13689.78571
2505.59514	13625.21429
2508.33002	13602.07143
2511.06318	13569.21429
2513.79462	13490.64286
2516.52435	13446.78571
2519.25237	13404.35714
2521.97867	13367.21429
2524.70327	13347.07143
2527.42616	13343.64286
2530.14734	13318.64286
2532.86681	13310.5
2535.58458	13332.5
2538.30065	13292.21429
2541.01501	13308.78571
2543.72768	13275.07143
2546.43864	13258.64286
2549.14791	13286.92857
2551.85548	13266.64286
2554.56136	13244.07143
2557.26554	13237.92857
2559.96803	13210.21429
2562.66883	13186.21429
2565.36794	13196.21429
2568.06536	13159.78571
2570.7611	13101.5
2573.45514	13111.92857
2576.14751	13088.5
2578.83819	13067.35714
2581.52719	13079.07143
2584.21451	13028.07143
2586.90015	12990.35714
2589.58411	13009.5
2592.2664	12994.78571
2594.94701	12968.64286
2597.62594	12950.35714
2600.30321	12942.78571
2602.9788	12916.07143
2605.65273	12874.5
2608.32498	12921.64286
2610.99557	12945.35714
2613.66449	12945.07143
2616.33175	12922.92857
2618.99734	12943.21429
2621.66128	12916.5
2624.32355	12896.21429
2626.98416	12818.64286
2629.64311	12830.5
2632.30041	12845.64286
2634.95605	12809.21429
2637.61004	12779.21429
2640.26238	12736.21429
2642.91306	12715.64286
2645.56209	12718.92857
2648.20948	12722.78571
2650.85521	12701.5
2653.4993	12708.35714
2656.14175	12721.64286
2658.78255	12742.92857
2661.42171	12759.78571
2664.05923	12781.92857
2666.6951	12766.35714
2669.32934	12760.64286
2671.96194	12796.92857
2674.59291	12807.64286
2677.22224	12788.21429
2679.84993	12786.07143
2682.476	12763.78571
2685.10043	12799.78571
2687.72324	12783.07143
2690.34441	12767.5
2692.96396	12766.92857
2695.58188	12777.21429
2698.19818	12745.07143
2700.81285	12780.5
2703.4259	12804.07143
2706.03733	12775.5
2708.64714	12815.92857
2711.25533	12800.5
2713.86191	12806.5
2716.46687	12811.35714
2719.07021	12832.5
2721.67194	12808.92857
2724.27206	12804.64286
2726.87057	12835.07143
2729.46747	12779.92857
2732.06276	12782.21429
2734.65644	12758.78571
2737.24852	12759.64286
2739.83899	12730.07143
2742.42786	12759.92857
2745.01513	12724.35714
2747.60079	12708.07143
2750.18486	12671.5
2752.76733	12674.35714
2755.3482	12668.78571
2757.92747	12665.64286
2760.50515	12668.64286
2763.08123	12634.5
2765.65573	12612.5
2768.22863	12609.21429
2770.79994	12591.21429
2773.36967	12587.92857
2775.9378	12576.92857
2778.50435	12568.64286
2781.06932	12562.92857
2783.6327	12570.07143
2786.1945	12555.07143
2788.75471	12574.78571
2791.31335	12536.07143
2793.87041	12509.92857
2796.42589	12513.92857
2798.97979	12526.92857
2801.53212	12502.35714
2804.08288	12511.5
2806.63206	12464.21429
2809.17967	12437.21429
2811.72571	12463.64286
2814.27018	12458.21429
2816.81308	12454.64286
2819.35442	12442.07143
2821.89419	12445.35714
2824.43239	12451.5
2826.96904	12489.64286
2829.50412	12463.92857
2832.03763	12427.21429
2834.56959	12442.78571
2837.1	12441.92857
2839.62884	12441.5
2842.15613	12446.35714
2844.68186	12481.5
2847.20604	12481.21429
2849.72867	12499.35714
2852.24974	12516.35714
2854.76927	12508.35714
2857.28724	12542.07143
2859.80367	12515.07143
2862.31855	12492.78571
2864.83189	12479.78571
2867.34368	12459.78571
2869.85393	12451.64286
2872.36264	12459.21429
2874.8698	12452.21429
2877.37543	12442.07143
2879.87952	12424.21429
2882.38207	12403.64286
2884.88308	12371.21429
2887.38256	12381.92857
2889.88051	12380.5
2892.37692	12340.5
2894.8718	12333.35714
2897.36515	12379.35714
2899.85698	12372.78571
2902.34727	12386.35714
2904.83604	12396.21429
2907.32328	12391.21429
2909.809	12395.5
2912.29319	12368.92857
2914.77587	12395.5
2917.25702	12366.5
2919.73665	12335.5
2922.21476	12324.5
2924.69136	12298.35714
2927.16644	12311.21429
2929.64	12257.92857
2932.11205	12279.92857
2934.58258	12238.21429
2937.05161	12255.35714
2939.51912	12229.21429
2941.98513	12221.5
2944.44962	12182.5
2946.91261	12119.21429
2949.37409	12133.78571
2951.83407	12119.92857
2954.29254	12086.78571
2956.74951	12087.35714
2959.20498	12059.35714
2961.65895	12039.5
2964.11142	12045.78571
2966.56239	12007.64286
2969.01186	11978.78571
2971.45984	11986.07143
2973.90632	11933.35714
2976.35131	11897.35714
2978.7948	11883.92857
2981.23681	11847.64286
2983.67732	11821.5
2986.11635	11815.5
