Data from AgNPs_FTO_APTES_UA_20uM_CRN_10uM_R6G_10uM_NaF_0.1M_Addition_RamanShift__2__14-12-42-182.txt Node

Date: Thu Feb 17 14:12:42 GMT 2022
User: TCL
Spectrometer: QEP01345
Trigger mode: 4
Integration Time (sec): 7.000000E0
Scans to average: 10
Electric dark correction enabled: true
Nonlinearity correction enabled: false
Boxcar width: 0
XAxis mode: Raman Shifts
Number of Pixels in Spectrum: 1044
>>>>>Begin Spectral Data<<<<<
46.04893	-0.325
50.45542	-1.225
54.85868	-1.925
59.25871	-2.325
63.6555	125.375
68.04907	129.475
72.43941	133.375
76.82654	136.675
81.21044	139.775
85.59113	144.475
89.96862	146.475
94.34289	150.675
98.71396	160.275
103.08183	163.375
107.4465	167.775
111.80798	170.175
116.16626	175.075
120.52136	185.075
124.87327	192.975
129.222	203.875
133.56755	222.975
137.90993	234.975
142.24913	259.975
146.58517	302.575
150.91804	356.575
155.24774	424.175
159.57429	531.275
163.89768	692.675
168.21792	931.175
172.53501	1288.275
176.84895	1798.575
181.15975	2542.675
185.46741	3571.975
189.77193	4939.175
194.07331	6643.575
198.37157	8598.675
202.6667	10663.275
206.9587	12691.875
211.24758	14670.175
215.53334	16667.275
219.81599	18781.975
224.09553	21123.975
228.37195	23684.175
232.64527	26456.275
236.91549	29437.275
241.18261	32458.675
245.44663	35289.975
249.70755	37868.575
253.96539	40084.175
258.22014	42022.175
262.4718	43519.575
266.72039	44681.575
270.96589	45265.775
275.20832	45383.275
279.44768	45121.575
283.68397	44627.475
287.91719	44244.775
292.14735	43963.275
296.37445	43923.675
300.59849	44042.575
304.81948	44285.475
309.03742	44446.575
313.25231	44318.375
317.46415	43793.975
321.67296	43088.875
325.87872	42478.575
330.08145	42219.575
334.28114	42199.575
338.47781	42548.875
342.67145	43080.675
346.86207	43765.575
351.04966	44593.375
355.23424	45438.175
359.4158	46089.775
363.59435	46545.575
367.76989	46979.375
371.94243	47222.975
376.11196	47562.275
380.27849	47829.875
384.44203	48072.775
388.60257	48400.375
392.76012	48860.575
396.91468	49353.875
401.06626	49977.575
405.21485	50398.175
409.36047	50305.175
413.50311	49771.775
417.64277	49404.575
421.77947	49235.575
425.9132	49407.275
430.04396	49671.475
434.17176	49975.175
438.2966	50498.275
442.41849	51363.475
446.53742	52745.075
450.6534	54230.175
454.76644	55263.375
458.87653	55562.175
462.98368	55140.675
467.08789	54470.275
471.18916	53635.575
475.2875	52900.275
479.38291	52433.475
483.4754	52065.275
487.56496	51586.375
491.6516	51166.175
495.73531	50725.475
499.81612	50541.175
503.89401	50669.375
507.96899	50838.575
512.04106	50768.075
516.11023	50628.875
520.1765	50539.975
524.23987	50475.775
528.30034	50407.275
532.35792	50123.775
536.41261	49693.875
540.46441	49232.875
544.51333	49252.775
548.55936	49596.975
552.60252	50388.975
556.64279	51432.075
560.6802	52282.375
564.71473	52655.775
568.7464	53190.375
572.7752	54365.675
576.80114	55266.975
580.82422	56278.275
584.84444	57568.275
588.86181	59450.775
592.87633	61302.275
596.888	61447.075
600.89682	59851.675
604.9028	59697.275
608.90594	63071.375
612.90624	66947.575
616.90371	63789.975
620.89834	55771.175
624.89015	52125.175
628.87913	51637.275
632.86528	51770.675
636.84862	51710.475
640.82913	51134.175
644.80683	50175.175
648.78172	49562.975
652.75379	49568.675
656.72306	50186.775
660.68952	51023.575
664.65319	50766.675
668.61405	50078.175
672.57211	50009.375
676.52738	50223.275
680.47986	50248.075
684.42955	49940.475
688.37646	49887.575
692.32058	50154.375
696.26192	50763.375
700.20048	51472.675
704.13626	51816.975
708.06928	51725.275
711.99952	51474.575
715.927	51427.975
719.85171	51647.875
723.77365	51594.375
727.69284	51045.675
731.60928	50583.575
735.52295	50426.875
739.43388	50514.975
743.34206	50715.875
747.24749	50960.375
751.15017	51230.275
755.05012	51913.375
758.94733	52974.075
762.8418	54879.875
766.73354	57946.875
770.62254	60846.075
774.50882	61546.775
778.39237	59580.175
782.27321	56432.475
786.15132	53657.875
790.02671	52019.575
793.89938	51238.375
797.76935	50883.375
801.6366	50769.875
805.50115	50598.075
809.36299	50417.075
813.22213	50229.475
817.07857	50102.875
820.93231	50070.475
824.78336	49977.275
828.63172	49916.175
832.47738	49886.675
836.32036	50046.875
840.16066	50197.475
843.99827	50234.475
847.8332	50283.675
851.66546	50258.575
855.49504	50212.875
859.32195	50222.675
863.1462	50208.875
866.96777	50163.075
870.78668	50184.675
874.60293	50190.875
878.41652	50263.975
882.22745	50407.775
886.03573	50493.375
889.84136	50468.075
893.64433	50219.975
897.44466	50013.675
901.24235	49953.575
905.0374	49867.475
908.8298	49780.075
912.61957	49867.875
916.40671	50215.675
920.19121	50657.375
923.97308	51095.575
927.75233	51265.775
931.52895	50912.075
935.30295	50471.075
939.07433	49851.275
942.84309	49440.975
946.60924	49239.075
950.37278	49303.075
954.13371	49265.175
957.89203	49204.375
961.64774	49143.275
965.40086	49099.175
969.15137	49028.375
972.89929	48924.675
976.64461	48943.975
980.38733	49039.475
984.12747	49170.475
987.86502	49549.175
991.59999	49974.875
995.33237	50589.675
999.06217	51420.975
1002.78939	52431.375
1006.51404	53402.275
1010.23611	54130.575
1013.95561	54594.275
1017.67255	54665.475
1021.38692	54256.175
1025.09872	53601.475
1028.80796	53279.175
1032.51465	53783.875
1036.21877	54305.175
1039.92035	54497.675
1043.61937	54258.475
1047.31584	53801.875
1051.00976	53119.175
1054.70114	52829.975
1058.38998	52920.775
1062.07627	53126.875
1065.76003	53509.675
1069.44126	53971.275
1073.11995	54663.575
1076.79611	55315.175
1080.46974	55815.375
1084.14085	56248.175
1087.80943	56721.475
1091.47549	57040.375
1095.13903	56933.575
1098.80005	56307.275
1102.45857	55564.375
1106.11456	55039.975
1109.76805	54797.675
1113.41903	55026.775
1117.06751	55185.975
1120.71348	55599.275
1124.35696	56007.975
1127.99793	56378.475
1131.63641	56440.375
1135.2724	56258.175
1138.90589	55969.275
1142.5369	55871.475
1146.16542	56077.675
1149.79145	56326.675
1153.415	56667.275
1157.03607	57207.175
1160.65467	58197.575
1164.27079	60033.075
1167.88443	62351.675
1171.49561	65055.875
1175.10432	68543.775
1178.71056	73050.975
1182.31434	77322.275
1185.91565	79183.675
1189.51451	78457.875
1193.11091	76433.775
1196.70485	73959.175
1200.29634	71829.275
1203.88538	70322.075
1207.47197	69324.075
1211.05612	68436.275
1214.63782	67320.475
1218.21708	66327.575
1221.79391	65550.275
1225.36829	65130.975
1228.94024	64614.775
1232.50976	63616.175
1236.07685	62533.975
1239.6415	62003.175
1243.20374	61975.375
1246.76355	62408.475
1250.32093	63252.275
1253.8759	64335.375
1257.42845	65634.575
1260.97859	67067.175
1264.52631	68612.875
1268.07163	70253.275
1271.61453	71831.875
1275.15503	73437.875
1278.69312	74965.675
1282.22882	76441.775
1285.76211	78127.675
1289.29301	80448.875
1292.82151	83157.075
1296.34761	86557.575
1299.87133	90789.975
1303.39266	95658.575
1306.9116	100483.775
1310.42815	104797.675
1313.94233	107150.275
1317.45412	106539.075
1320.96354	104272.675
1324.47058	101807.275
1327.97525	99544.275
1331.47754	97681.575
1334.97747	96424.275
1338.47502	95688.575
1341.97022	94986.875
1345.46305	94164.775
1348.95352	93831.375
1352.44163	94273.875
1355.92738	96562.175
1359.41078	100723.475
1362.89183	104161.975
1366.37053	102604.575
1369.84688	95170.375
1373.32088	86134.675
1376.79254	80027.975
1380.26186	77772.275
1383.72883	77584.875
1387.19347	77660.975
1390.65578	77058.775
1394.11575	76599.275
1397.57339	76919.575
1401.0287	77655.175
1404.48168	78203.975
1407.93234	78213.975
1411.38068	77350.375
1414.82669	75806.975
1418.27039	73769.675
1421.71177	71639.875
1425.15083	69823.875
1428.58758	69027.675
1432.02203	69610.175
1435.45416	71090.275
1438.88399	72712.575
1442.31151	73898.875
1445.73673	74454.775
1449.15965	74747.075
1452.58027	74643.375
1455.9986	74440.675
1459.41463	74603.475
1462.82837	75400.075
1466.23982	76615.075
1469.64898	77815.775
1473.05586	78814.075
1476.46045	79220.075
1479.86276	79031.475
1483.26279	78555.375
1486.66054	78174.475
1490.05602	78629.175
1493.44922	79361.775
1496.84016	80204.975
1500.22882	81520.475
1503.61521	83785.475
1506.99934	86484.175
1510.38121	88459.575
1513.76081	88530.575
1517.13816	86395.175
1520.51324	83289.275
1523.88607	80815.375
1527.25665	79841.675
1530.62498	79808.875
1533.99105	79718.175
1537.35488	79161.675
1540.71647	77959.975
1544.07581	76538.075
1547.4329	75018.975
1550.78776	73646.075
1554.14038	72727.075
1557.49077	72200.175
1560.83892	71938.775
1564.18484	71878.875
1567.52853	72290.975
1570.86999	72863.775
1574.20922	73863.175
1577.54624	74496.675
1580.88103	74239.275
1584.2136	74495.375
1587.54395	76166.975
1590.87208	79497.375
1594.19801	83862.875
1597.52172	88269.875
1600.84321	89597.875
1604.16251	86445.475
1607.47959	80877.675
1610.79447	74783.375
1614.10715	69382.675
1617.41763	65298.875
1620.7259	62616.675
1624.03199	61296.775
1627.33587	61367.775
1630.63757	62749.375
1633.93707	65830.375
1637.23439	70924.575
1640.52951	78534.575
1643.82246	87451.575
1647.11321	94512.975
1650.40179	95366.075
1653.68819	89243.275
1656.97241	78841.675
1660.25446	69243.475
1663.53433	62356.375
1666.81203	57946.875
1670.08756	55282.075
1673.36092	53612.375
1676.63211	52503.475
1679.90115	51634.275
1683.16801	50992.475
1686.43272	50610.675
1689.69527	50330.775
1692.95567	50089.275
1696.2139	49924.275
1699.46999	49824.475
1702.72392	49714.675
1705.97571	49682.975
1709.22535	49601.375
1712.47284	49605.875
1715.71819	49589.975
1718.96139	49508.375
1722.20246	49367.475
1725.44139	49211.275
1728.67818	49006.375
1731.91284	48794.675
1735.14537	48650.775
1738.37576	48393.575
1741.60403	48294.075
1744.83017	48097.475
1748.05418	47962.375
1751.27607	47930.475
1754.49584	47978.675
1757.71349	48015.275
1760.92903	47888.275
1764.14244	47871.375
1767.35375	47763.775
1770.56294	47715.875
1773.77002	47745.475
1776.97499	47697.275
1780.17785	47652.375
1783.37861	47535.475
1786.57727	47485.975
1789.77382	47406.575
1792.96828	47389.975
1796.16064	47335.075
1799.3509	47300.775
1802.53907	47171.875
1805.72514	47136.875
1808.90913	47029.375
1812.09102	46933.375
1815.27083	46878.075
1818.44856	46795.475
1821.6242	46782.675
1824.79776	46747.875
1827.96924	46673.775
1831.13864	46638.975
1834.30597	46627.275
1837.47122	46610.275
1840.6344	46574.075
1843.7955	46522.075
1846.95454	46540.675
1850.11151	46514.375
1853.26642	46465.375
1856.41926	46460.075
1859.57004	46461.075
1862.71876	46395.675
1865.86542	46370.275
1869.01003	46349.475
1872.15258	46334.575
1875.29308	46262.175
1878.43152	46187.875
1881.56792	46238.975
1884.70227	46252.775
1887.83457	46191.275
1890.96482	46214.975
1894.09304	46127.775
1897.21921	46102.975
1900.34335	46038.675
1903.46544	45948.775
1906.58551	45954.175
1909.70353	45949.575
1912.81953	45868.875
1915.93349	45831.375
1919.04543	45707.275
1922.15534	45641.275
1925.26322	45628.175
1928.36908	45537.775
1931.47292	45481.275
1934.57473	45382.975
1937.67453	45387.875
1940.77232	45271.075
1943.86808	45146.775
1946.96184	45013.175
1950.05358	44915.175
1953.14331	44864.275
1956.23103	44701.775
1959.31675	44586.375
1962.40046	44541.575
1965.48217	44320.275
1968.56188	44240.875
1971.63959	44098.775
1974.7153	44008.675
1977.78901	43878.075
1980.86073	43827.275
1983.93046	43673.975
1986.99819	43529.775
1990.06394	43487.975
1993.1277	43361.975
1996.18947	43231.075
1999.24925	43189.075
2002.30706	43085.875
2005.36288	42912.475
2008.41672	42743.075
2011.46859	42684.575
2014.51848	42571.675
2017.56639	42490.775
2020.61233	42390.575
2023.6563	42291.275
2026.6983	42224.875
2029.73833	42125.675
2032.7764	42039.675
2035.8125	41965.275
2038.84664	41882.175
2041.87881	41897.575
2044.90903	41847.475
2047.93729	41807.875
2050.96359	41804.075
2053.98794	41741.975
2057.01034	41755.275
2060.03078	41684.975
2063.04927	41647.575
2066.06582	41614.675
2069.08042	41605.975
2072.09307	41524.875
2075.10378	41481.975
2078.11255	41526.475
2081.11938	41535.475
2084.12426	41531.275
2087.12722	41503.475
2090.12824	41457.275
2093.12732	41541.675
2096.12447	41565.275
2099.11969	41541.675
2102.11299	41516.175
2105.10435	41554.875
2108.09379	41603.675
2111.08131	41636.175
2114.0669	41580.675
2117.05057	41662.675
2120.03233	41713.075
2123.01216	41764.975
2125.99008	41840.175
2128.96609	41957.175
2131.94018	41931.175
2134.91236	41989.775
2137.88263	41993.775
2140.851	42021.475
2143.81746	42100.675
2146.78201	42135.475
2149.74466	42207.975
2152.7054	42191.175
2155.66425	42121.775
2158.6212	42128.375
2161.57625	42100.275
2164.52941	42138.175
2167.48067	42118.275
2170.43004	42057.775
2173.37752	42103.275
2176.32311	42093.475
2179.26681	42112.075
2182.20863	42138.075
2185.14856	42214.275
2188.08661	42211.175
2191.02278	42210.275
2193.95707	42170.975
2196.88948	42115.175
2199.82001	42121.275
2202.74867	42097.875
2205.67545	42040.375
2208.60037	41985.475
2211.52341	41924.775
2214.44458	41933.875
2217.36388	41901.275
2220.28132	41876.475
2223.1969	41736.175
2226.11061	41666.875
2229.02246	41558.875
2231.93245	41513.075
2234.84058	41432.875
2237.74686	41410.275
2240.65128	41320.675
2243.55385	41325.475
2246.45456	41376.475
2249.35343	41286.275
2252.25044	41281.275
2255.14561	41147.975
2258.03893	41103.775
2260.93041	41110.075
2263.82004	40970.275
2266.70783	40918.075
2269.59378	40754.675
2272.4779	40742.475
2275.36017	40697.275
2278.24061	40672.175
2281.11922	40550.175
2283.996	40444.475
2286.87094	40478.075
2289.74405	40460.875
2292.61534	40378.175
2295.4848	40380.775
2298.35243	40374.775
2301.21824	40424.175
2304.08223	40399.375
2306.94439	40369.475
2309.80474	40412.975
2312.66327	40435.075
2315.51999	40394.975
2318.37489	40336.375
2321.22797	40316.375
2324.07925	40278.275
2326.92871	40163.075
2329.77637	40153.475
2332.62222	40083.075
2335.46626	40045.875
2338.3085	40064.275
2341.14893	40036.475
2343.98756	40002.075
2346.8244	40039.875
2349.65943	39998.875
2352.49267	39957.775
2355.32411	40071.675
2358.15376	40027.275
2360.98161	40029.475
2363.80768	39967.775
2366.63195	39896.075
2369.45444	39839.775
2372.27514	39813.375
2375.09405	39800.775
2377.91118	39731.775
2380.72652	39675.975
2383.54009	39571.775
2386.35187	39539.475
2389.16188	39405.275
2391.97011	39337.375
2394.77657	39308.775
2397.58125	39237.375
2400.38416	39211.475
2403.18529	39192.875
2405.98466	39129.675
2408.78226	39070.175
2411.57809	39024.575
2414.37216	38988.575
2417.16446	38965.275
2419.955	38913.875
2422.74378	38882.475
2425.5308	38914.575
2428.31606	38885.175
2431.09956	38872.875
2433.88131	38862.275
2436.6613	38813.375
2439.43954	38844.875
2442.21603	38835.975
2444.99077	38755.975
2447.76377	38747.075
2450.53501	38688.675
2453.30451	38718.175
2456.07226	38672.375
2458.83827	38653.275
2461.60254	38630.175
2464.36507	38660.175
2467.12586	38627.575
2469.88492	38686.275
2472.64224	38657.475
2475.39782	38619.675
2478.15167	38748.375
2480.90379	38673.275
2483.65417	38697.575
2486.40283	38706.775
2489.14976	38678.075
2491.89497	38658.775
2494.63845	38712.575
2497.3802	38684.475
2500.12024	38674.075
2502.85855	38647.375
2505.59514	38627.275
2508.33002	38547.275
2511.06318	38547.275
2513.79462	38487.375
2516.52435	38463.875
2519.25237	38419.375
2521.97867	38415.775
2524.70327	38406.875
2527.42616	38355.575
2530.14734	38390.675
2532.86681	38293.875
2535.58458	38385.975
2538.30065	38233.375
2541.01501	38256.175
2543.72768	38237.275
2546.43864	38247.275
2549.14791	38211.675
2551.85548	38140.075
2554.56136	38040.475
2557.26554	37970.175
2559.96803	37940.975
2562.66883	37948.775
2565.36794	37846.075
2568.06536	37881.675
2570.7611	37847.375
2573.45514	37772.375
2576.14751	37734.575
2578.83819	37725.775
2581.52719	37705.175
2584.21451	37653.475
2586.90015	37657.275
2589.58411	37571.575
2592.2664	37570.975
2594.94701	37521.675
2597.62594	37455.075
2600.30321	37455.575
2602.9788	37459.575
2605.65273	37415.675
2608.32498	37427.875
2610.99557	37425.875
2613.66449	37459.175
2616.33175	37371.275
2618.99734	37373.375
2621.66128	37285.275
2624.32355	37230.075
2626.98416	37253.975
2629.64311	37184.575
2632.30041	37241.775
2634.95605	37145.175
2637.61004	37132.875
2640.26238	37137.475
2642.91306	37058.275
2645.56209	37020.175
2648.20948	37030.975
2650.85521	37067.375
2653.4993	37022.375
2656.14175	36990.375
2658.78255	37089.075
2661.42171	37073.275
2664.05923	37147.575
2666.6951	37094.075
2669.32934	37130.175
2671.96194	37114.975
2674.59291	37161.875
2677.22224	37159.975
2679.84993	37167.575
2682.476	37131.375
2685.10043	37137.875
2687.72324	37106.775
2690.34441	37127.275
2692.96396	37073.675
2695.58188	37118.375
2698.19818	37105.575
2700.81285	37060.775
2703.4259	37056.775
2706.03733	37176.675
2708.64714	37117.275
2711.25533	37134.575
2713.86191	37148.975
2716.46687	37281.875
2719.07021	37229.075
2721.67194	37250.075
2724.27206	37188.575
2726.87057	37224.275
2729.46747	37204.575
2732.06276	37225.175
2734.65644	37229.475
2737.24852	37341.975
2739.83899	37271.575
2742.42786	37321.175
2745.01513	37278.075
2747.60079	37217.475
2750.18486	37204.575
2752.76733	37160.575
2755.3482	37053.075
2757.92747	37057.475
2760.50515	37033.675
2763.08123	37045.675
2765.65573	37040.575
2768.22863	37007.975
2770.79994	36955.675
2773.36967	36990.575
2775.9378	37014.775
2778.50435	37051.175
2781.06932	36974.275
2783.6327	36966.275
2786.1945	36899.975
2788.75471	36850.775
2791.31335	36789.975
2793.87041	36788.075
2796.42589	36665.675
2798.97979	36645.775
2801.53212	36558.375
2804.08288	36526.975
2806.63206	36455.975
2809.17967	36353.175
2811.72571	36205.875
2814.27018	36109.875
2816.81308	36053.675
2819.35442	36005.275
2821.89419	36000.975
2824.43239	36024.175
2826.96904	35927.375
2829.50412	35981.675
2832.03763	35912.875
2834.56959	35875.875
2837.1	35840.475
2839.62884	35764.275
2842.15613	35682.175
2844.68186	35675.475
2847.20604	35668.675
2849.72867	35685.675
2852.24974	35584.475
2854.76927	35563.675
2857.28724	35525.475
2859.80367	35514.275
2862.31855	35530.475
2864.83189	35451.575
2867.34368	35410.275
2869.85393	35410.275
2872.36264	35449.175
2874.8698	35369.875
2877.37543	35333.675
2879.87952	35290.475
2882.38207	35305.375
2884.88308	35308.475
2887.38256	35366.575
2889.88051	35313.075
2892.37692	35384.675
2894.8718	35331.975
2897.36515	35416.775
2899.85698	35355.775
2902.34727	35434.075
2904.83604	35442.275
2907.32328	35492.175
2909.809	35511.975
2912.29319	35527.775
2914.77587	35530.075
2917.25702	35537.575
2919.73665	35506.675
2922.21476	35480.475
2924.69136	35457.175
2927.16644	35448.275
2929.64	35371.575
2932.11205	35360.975
2934.58258	35250.275
2937.05161	35341.575
2939.51912	35367.175
2941.98513	35332.475
2944.44962	35284.275
2946.91261	35199.375
2949.37409	35332.375
2951.83407	35283.475
2954.29254	35220.775
2956.74951	35268.875
2959.20498	35280.875
2961.65895	35235.275
2964.11142	35244.975
2966.56239	35203.075
2969.01186	35187.575
2971.45984	35095.275
2973.90632	35072.775
2976.35131	35044.575
2978.7948	34988.575
2981.23681	34894.075
2983.67732	34869.475
2986.11635	34812.175
2988.55388	34768.275
2990.98993	34732.375
2993.4245	34668.275
2995.85758	34584.275
2998.28917	34527.975
3000.71928	34440.875
3003.14791	34414.075
3005.57506	34371.075
3008.00073	34285.475
3010.42493	34232.575
3012.84764	34122.275
3015.26888	34104.075
3017.68865	34073.675
3020.10694	34110.075
3022.52376	33986.675
3024.9391	34009.375
3027.35298	33964.475
3029.76539	33916.075
3032.17632	33896.575
3034.5858	33859.175
3036.9938	33808.275
3039.40034	33798.275
3041.80542	33787.275
3044.20903	33686.375
3046.61118	33687.975
3049.01187	33592.775
3051.4111	33503.375
3053.80888	33382.475
3056.20519	33424.075
3058.60005	33338.175
3060.99345	33315.075
3063.3854	33215.175
3065.7759	33099.575
3068.16494	33046.275
3070.55254	32952.275
3072.93868	32910.375
3075.32338	32768.275
3077.70662	32697.375
3080.08842	32600.475
3082.46878	32555.475
3084.84769	32551.275
3087.22515	32530.175
3089.60118	32525.175
3091.97576	32475.175
3094.3489	32485.775
3096.72061	32444.175
3099.09087	32485.375
3101.4597	32464.275
3103.82709	32510.175
3106.19305	32396.875
3108.55757	32426.975
3110.92066	32342.875
3113.28232	32301.775
3115.64255	32242.675
3118.00134	32144.575
3120.35871	32043.775
3122.71466	31989.475
3125.06917	31914.675
