Data from AgNPs_FTO_APTES_UA_20uM_CRN_20uM_R6G_10uM_NaF_0.1M_Addition_RamanShift__28__15-22-42-274.txt Node

Date: Thu Feb 17 15:22:42 GMT 2022
User: TCL
Spectrometer: QEP01345
Trigger mode: 4
Integration Time (sec): 7.000000E0
Scans to average: 10
Electric dark correction enabled: true
Nonlinearity correction enabled: false
Boxcar width: 0
XAxis mode: Raman Shifts
Number of Pixels in Spectrum: 1044
>>>>>Begin Spectral Data<<<<<
46.04893	0.35
50.45542	-0.15
54.85868	-3.65
59.25871	-1.75
63.6555	96.25
68.04907	98.35
72.43941	102.45
76.82654	103.35
81.21044	107.95
85.59113	112.05
89.96862	110.55
94.34289	112.35
98.71396	120.85
103.08183	120.75
107.4465	125.05
111.80798	124.45
116.16626	134.35
120.52136	134.05
124.87327	139.95
129.222	149.65
133.56755	161.95
137.90993	169.75
142.24913	187.45
146.58517	210.55
150.91804	245.35
155.24774	283.85
159.57429	355.75
163.89768	461.25
168.21792	604.65
172.53501	833.35
176.84895	1174.45
181.15975	1648.75
185.46741	2321.45
189.77193	3213.95
194.07331	4333.65
198.37157	5610.55
202.6667	6949.45
206.9587	8301.15
211.24758	9602.25
215.53334	10944.35
219.81599	12314.35
224.09553	13837.85
228.37195	15572.55
232.64527	17451.75
236.91549	19508.35
241.18261	21559.85
245.44663	23484.05
249.70755	25235.85
253.96539	26794.85
258.22014	28055.65
262.4718	29147.05
266.72039	29936.15
270.96589	30294.95
275.20832	30327.55
279.44768	30120.55
283.68397	29700.85
287.91719	29367.05
292.14735	29113.25
296.37445	29172.25
300.59849	29391.35
304.81948	29784.05
309.03742	30007.35
313.25231	29864.75
317.46415	29342.55
321.67296	28525.75
325.87872	27881.35
330.08145	27575.75
334.28114	27733.65
338.47781	27994.65
342.67145	28458.25
346.86207	29079.85
351.04966	29920.35
355.23424	30805.95
359.4158	31591.85
363.59435	32139.05
367.76989	32591.65
371.94243	32918.25
376.11196	33103.05
380.27849	33326.85
384.44203	33398.85
388.60257	33475.45
392.76012	33595.45
396.91468	33885.45
401.06626	34365.55
405.21485	34783.15
409.36047	34767.35
413.50311	34206.95
417.64277	33628.95
421.77947	33370.65
425.9132	33257.65
430.04396	33441.75
434.17176	33705.65
438.2966	34119.25
442.41849	34661.75
446.53742	35330.85
450.6534	36038.95
454.76644	36691.95
458.87653	37047.55
462.98368	36948.25
467.08789	36614.55
471.18916	36072.95
475.2875	35487.35
479.38291	35066.65
483.4754	34740.75
487.56496	34513.55
491.6516	34251.45
495.73531	34108.45
499.81612	34069.35
503.89401	34224.25
507.96899	34358.75
512.04106	34567.95
516.11023	34849.75
520.1765	35139.45
524.23987	35159.05
528.30034	35037.55
532.35792	34771.75
536.41261	34516.15
540.46441	34247.05
544.51333	34164.25
548.55936	34355.25
552.60252	34647.05
556.64279	35023.75
560.6802	35132.25
564.71473	35164.55
568.7464	35552.75
572.7752	35874.45
576.80114	35795.85
580.82422	35678.15
584.84444	35734.85
588.86181	35969.95
592.87633	36398.05
596.888	36813.55
600.89682	37383.25
604.9028	39238.15
608.90594	43931.05
612.90624	49429.65
616.90371	47905.65
620.89834	40739.05
624.89015	37467.85
628.87913	36923.05
632.86528	36750.95
636.84862	36543.05
640.82913	36213.95
644.80683	35511.85
648.78172	35011.85
652.75379	35080.65
656.72306	35656.45
660.68952	36362.55
664.65319	36321.35
668.61405	35704.15
672.57211	35463.75
676.52738	35493.15
680.47986	35525.45
684.42955	35496.95
688.37646	35549.25
692.32058	35800.75
696.26192	35938.85
700.20048	36263.85
704.13626	36366.75
708.06928	36214.95
711.99952	36001.65
715.927	36023.75
719.85171	36067.05
723.77365	36038.25
727.69284	35945.45
731.60928	35807.75
735.52295	35823.15
739.43388	35941.45
743.34206	36096.05
747.24749	36232.25
751.15017	36436.75
755.05012	36808.95
758.94733	37523.75
762.8418	38954.25
766.73354	41384.55
770.62254	44039.85
774.50882	45439.15
778.39237	44290.85
782.27321	41306.55
786.15132	38693.95
790.02671	37229.95
793.89938	36631.45
797.76935	36485.45
801.6366	36357.85
805.50115	36237.25
809.36299	36180.95
813.22213	36117.95
817.07857	36090.15
820.93231	36130.65
824.78336	36255.45
828.63172	36363.35
832.47738	36472.25
836.32036	36588.45
840.16066	36677.65
843.99827	36796.45
847.8332	36804.05
851.66546	36723.45
855.49504	36706.95
859.32195	36709.85
863.1462	36618.05
866.96777	36452.85
870.78668	36454.15
874.60293	36507.45
878.41652	36562.35
882.22745	36680.95
886.03573	36766.35
889.84136	36690.25
893.64433	36564.15
897.44466	36484.95
901.24235	36484.15
905.0374	36440.35
908.8298	36422.95
912.61957	36468.05
916.40671	36571.65
920.19121	36914.05
923.97308	37190.25
927.75233	37440.45
931.52895	37564.45
935.30295	37343.45
939.07433	36994.75
942.84309	36620.25
946.60924	36471.65
950.37278	36268.65
954.13371	36122.55
957.89203	35894.65
961.64774	35735.95
965.40086	35678.05
969.15137	35605.05
972.89929	35525.85
976.64461	35520.65
980.38733	35597.85
984.12747	35722.05
987.86502	35989.05
991.59999	36333.65
995.33237	36956.55
999.06217	37923.15
1002.78939	39032.15
1006.51404	39608.05
1010.23611	39853.65
1013.95561	40077.55
1017.67255	40148.25
1021.38692	40097.55
1025.09872	40165.85
1028.80796	40923.85
1032.51465	42151.25
1036.21877	43262.35
1039.92035	43260.05
1043.61937	42562.65
1047.31584	41393.35
1051.00976	40078.65
1054.70114	39321.45
1058.38998	38997.05
1062.07627	38853.65
1065.76003	38801.25
1069.44126	38760.95
1073.11995	38864.85
1076.79611	38975.25
1080.46974	39222.05
1084.14085	39590.85
1087.80943	39928.45
1091.47549	39992.65
1095.13903	39677.75
1098.80005	39182.75
1102.45857	38863.75
1106.11456	38771.25
1109.76805	39030.95
1113.41903	39485.55
1117.06751	39955.25
1120.71348	40424.05
1124.35696	40845.75
1127.99793	41197.75
1131.63641	41116.45
1135.2724	40525.35
1138.90589	39910.65
1142.5369	39537.65
1146.16542	39230.75
1149.79145	39094.35
1153.415	39121.15
1157.03607	39297.35
1160.65467	39634.75
1164.27079	40306.75
1167.88443	41288.55
1171.49561	42864.55
1175.10432	45238.05
1178.71056	48492.25
1182.31434	51564.55
1185.91565	53016.75
1189.51451	52501.95
1193.11091	50505.55
1196.70485	48110.15
1200.29634	46343.35
1203.88538	45198.55
1207.47197	44181.25
1211.05612	43345.15
1214.63782	42837.25
1218.21708	42821.35
1221.79391	43044.45
1225.36829	43366.15
1228.94024	43169.55
1232.50976	42732.05
1236.07685	42431.95
1239.6415	42485.05
1243.20374	42781.45
1246.76355	43125.45
1250.32093	43690.05
1253.8759	44500.15
1257.42845	45470.15
1260.97859	46094.65
1264.52631	46602.65
1268.07163	47154.25
1271.61453	47929.95
1275.15503	48845.65
1278.69312	49787.25
1282.22882	50521.85
1285.76211	51061.25
1289.29301	51514.35
1292.82151	52078.35
1296.34761	53006.15
1299.87133	54659.75
1303.39266	57320.45
1306.9116	61038.45
1310.42815	64814.95
1313.94233	66622.65
1317.45412	65525.95
1320.96354	62876.15
1324.47058	59876.45
1327.97525	57252.75
1331.47754	55767.85
1334.97747	55463.05
1338.47502	56241.55
1341.97022	57531.75
1345.46305	58542.65
1348.95352	59341.05
1352.44163	60455.45
1355.92738	62781.25
1359.41078	67167.75
1362.89183	71163.65
1366.37053	69744.25
1369.84688	63145.35
1373.32088	56339.65
1376.79254	51873.05
1380.26186	49492.15
1383.72883	48391.85
1387.19347	47688.25
1390.65578	47015.75
1394.11575	46512.75
1397.57339	46433.75
1401.0287	46739.75
1404.48168	47366.95
1407.93234	48149.75
1411.38068	49020.35
1414.82669	49543.85
1418.27039	49188.05
1421.71177	48392.85
1425.15083	47525.05
1428.58758	47058.65
1432.02203	47094.55
1435.45416	47278.55
1438.88399	47439.55
1442.31151	47555.35
1445.73673	47709.15
1449.15965	47940.65
1452.58027	47795.45
1455.9986	47478.65
1459.41463	47287.25
1462.82837	47434.05
1466.23982	48006.35
1469.64898	48844.85
1473.05586	49606.95
1476.46045	50203.55
1479.86276	50786.95
1483.26279	51488.85
1486.66054	52173.65
1490.05602	53029.15
1493.44922	54083.45
1496.84016	55198.35
1500.22882	56711.85
1503.61521	58957.95
1506.99934	61921.45
1510.38121	64377.05
1513.76081	64794.55
1517.13816	62687.05
1520.51324	58935.45
1523.88607	55525.55
1527.25665	53093.95
1530.62498	51642.75
1533.99105	50865.35
1537.35488	50480.15
1540.71647	50279.45
1544.07581	50263.35
1547.4329	50251.25
1550.78776	50073.55
1554.14038	49987.45
1557.49077	49988.95
1560.83892	50005.35
1564.18484	50096.75
1567.52853	50153.75
1570.86999	50235.85
1574.20922	50354.35
1577.54624	50197.95
1580.88103	49448.95
1584.2136	48838.15
1587.54395	48993.95
1590.87208	50406.15
1594.19801	53080.35
1597.52172	56180.85
1600.84321	57619.15
1604.16251	56483.75
1607.47959	53767.55
1610.79447	50619.35
1614.10715	47835.65
1617.41763	45688.35
1620.7259	44351.75
1624.03199	43668.45
1627.33587	43845.95
1630.63757	44591.35
1633.93707	45946.45
1637.23439	47772.85
1640.52951	49735.85
1643.82246	51916.55
1647.11321	54021.65
1650.40179	54974.75
1653.68819	53315.95
1656.97241	49279.35
1660.25446	45231.95
1663.53433	42272.95
1666.81203	40489.55
1670.08756	39488.55
1673.36092	38801.85
1676.63211	38282.75
1679.90115	37903.55
1683.16801	37586.25
1686.43272	37364.15
1689.69527	37228.35
1692.95567	37152.75
1696.2139	37097.35
1699.46999	37071.85
1702.72392	37074.15
1705.97571	37054.95
1709.22535	36980.35
1712.47284	37022.45
1715.71819	37078.35
1718.96139	37047.55
1722.20246	37012.15
1725.44139	36860.35
1728.67818	36807.35
1731.91284	36626.45
1735.14537	36528.45
1738.37576	36416.75
1741.60403	36419.45
1744.83017	36375.55
1748.05418	36238.75
1751.27607	36232.35
1754.49584	36209.05
1757.71349	36237.45
1760.92903	36227.55
1764.14244	36235.75
1767.35375	36212.65
1770.56294	36187.45
1773.77002	36106.05
1776.97499	36093.25
1780.17785	36049.25
1783.37861	36068.35
1786.57727	36040.45
1789.77382	36059.55
1792.96828	36026.95
1796.16064	35946.75
1799.3509	35951.05
1802.53907	35898.75
1805.72514	35829.85
1808.90913	35813.35
1812.09102	35760.15
1815.27083	35717.75
1818.44856	35656.25
1821.6242	35628.75
1824.79776	35652.85
1827.96924	35591.55
1831.13864	35616.35
1834.30597	35645.85
1837.47122	35546.95
1840.6344	35509.25
1843.7955	35588.25
1846.95454	35565.05
1850.11151	35527.65
1853.26642	35562.75
1856.41926	35500.55
1859.57004	35492.95
1862.71876	35521.75
1865.86542	35513.55
1869.01003	35539.55
1872.15258	35494.05
1875.29308	35513.05
1878.43152	35518.45
1881.56792	35479.35
1884.70227	35488.65
1887.83457	35426.35
1890.96482	35412.15
1894.09304	35387.15
1897.21921	35415.55
1900.34335	35368.25
1903.46544	35292.95
1906.58551	35370.65
1909.70353	35356.05
1912.81953	35305.55
1915.93349	35274.85
1919.04543	35156.15
1922.15534	35160.35
1925.26322	35161.35
1928.36908	35094.05
1931.47292	35094.25
1934.57473	35048.35
1937.67453	34983.05
1940.77232	34950.55
1943.86808	34856.15
1946.96184	34788.65
1950.05358	34693.15
1953.14331	34619.75
1956.23103	34562.75
1959.31675	34460.55
1962.40046	34364.15
1965.48217	34277.85
1968.56188	34185.15
1971.63959	34101.45
1974.7153	33980.85
1977.78901	33905.05
1980.86073	33807.25
1983.93046	33763.75
1986.99819	33638.15
1990.06394	33631.05
1993.1277	33507.65
1996.18947	33384.15
1999.24925	33328.85
2002.30706	33241.15
2005.36288	33170.45
2008.41672	33043.25
2011.46859	32990.45
2014.51848	32929.95
2017.56639	32841.05
2020.61233	32732.75
2023.6563	32687.95
2026.6983	32638.75
2029.73833	32643.55
2032.7764	32593.35
2035.8125	32571.45
2038.84664	32436.35
2041.87881	32401.35
2044.90903	32355.35
2047.93729	32327.55
2050.96359	32344.95
2053.98794	32288.65
2057.01034	32295.45
2060.03078	32257.05
2063.04927	32310.55
2066.06582	32217.45
2069.08042	32174.85
2072.09307	32199.35
2075.10378	32129.65
2078.11255	32085.35
2081.11938	32128.75
2084.12426	32092.65
2087.12722	32096.45
2090.12824	32081.55
2093.12732	32094.75
2096.12447	32096.55
2099.11969	32097.05
2102.11299	32124.35
2105.10435	32127.95
2108.09379	32148.15
2111.08131	32217.85
2114.0669	32173.55
2117.05057	32242.15
2120.03233	32342.05
2123.01216	32362.45
2125.99008	32350.35
2128.96609	32366.35
2131.94018	32386.25
2134.91236	32432.35
2137.88263	32454.55
2140.851	32465.25
2143.81746	32495.15
2146.78201	32533.55
2149.74466	32554.75
2152.7054	32531.85
2155.66425	32544.75
2158.6212	32534.75
2161.57625	32529.15
2164.52941	32552.45
2167.48067	32563.75
2170.43004	32535.65
2173.37752	32544.15
2176.32311	32606.85
2179.26681	32608.15
2182.20863	32597.05
2185.14856	32625.55
2188.08661	32599.45
2191.02278	32650.35
2193.95707	32644.95
2196.88948	32595.65
2199.82001	32601.95
2202.74867	32637.95
2205.67545	32620.65
2208.60037	32626.35
2211.52341	32565.55
2214.44458	32565.55
2217.36388	32511.65
2220.28132	32486.65
2223.1969	32450.15
2226.11061	32414.25
2229.02246	32341.65
2231.93245	32282.15
2234.84058	32239.75
2237.74686	32181.25
2240.65128	32141.95
2243.55385	32098.25
2246.45456	32093.05
2249.35343	32051.95
2252.25044	32054.65
2255.14561	31999.95
2258.03893	32004.15
2260.93041	31945.65
2263.82004	31885.65
2266.70783	31823.95
2269.59378	31731.25
2272.4779	31693.85
2275.36017	31638.25
2278.24061	31548.65
2281.11922	31466.25
2283.996	31477.45
2286.87094	31413.05
2289.74405	31410.65
2292.61534	31415.65
2295.4848	31422.65
2298.35243	31394.35
2301.21824	31379.15
2304.08223	31433.25
2306.94439	31474.05
2309.80474	31472.35
2312.66327	31485.85
2315.51999	31491.95
2318.37489	31466.65
2321.22797	31476.45
2324.07925	31445.75
2326.92871	31377.35
2329.77637	31387.95
2332.62222	31325.55
2335.46626	31350.65
2338.3085	31371.15
2341.14893	31370.25
2343.98756	31381.65
2346.8244	31359.15
2349.65943	31366.95
2352.49267	31382.75
2355.32411	31398.45
2358.15376	31411.65
2360.98161	31325.95
2363.80768	31306.15
2366.63195	31240.25
2369.45444	31215.55
2372.27514	31084.15
2375.09405	31042.65
2377.91118	30984.35
2380.72652	30906.55
2383.54009	30834.95
2386.35187	30853.55
2389.16188	30783.55
2391.97011	30724.35
2394.77657	30656.75
2397.58125	30596.25
2400.38416	30584.35
2403.18529	30501.55
2405.98466	30463.95
2408.78226	30406.75
2411.57809	30362.55
2414.37216	30285.35
2417.16446	30269.95
2419.955	30249.35
2422.74378	30258.25
2425.5308	30189.25
2428.31606	30187.85
2431.09956	30195.25
2433.88131	30154.25
2436.6613	30190.75
2439.43954	30203.15
2442.21603	30147.85
2444.99077	30096.95
2447.76377	30102.75
2450.53501	30089.55
2453.30451	30102.75
2456.07226	30062.25
2458.83827	30021.15
2461.60254	30014.85
2464.36507	29947.35
2467.12586	29983.35
2469.88492	29955.25
2472.64224	29949.65
2475.39782	29952.55
2478.15167	30047.95
2480.90379	30054.05
2483.65417	30080.95
2486.40283	30111.45
2489.14976	30089.25
2491.89497	30116.85
2494.63845	30123.75
2497.3802	30057.05
2500.12024	30092.65
2502.85855	30032.75
2505.59514	30018.15
2508.33002	29968.45
2511.06318	29951.95
2513.79462	29867.45
2516.52435	29823.15
2519.25237	29828.65
2521.97867	29715.85
2524.70327	29815.05
2527.42616	29746.95
2530.14734	29730.85
2532.86681	29676.35
2535.58458	29694.05
2538.30065	29656.15
2541.01501	29683.55
2543.72768	29652.65
2546.43864	29632.55
2549.14791	29612.25
2551.85548	29551.95
2554.56136	29512.75
2557.26554	29437.05
2559.96803	29434.15
2562.66883	29380.95
2565.36794	29392.25
2568.06536	29409.15
2570.7611	29299.85
2573.45514	29287.15
2576.14751	29255.45
2578.83819	29241.55
2581.52719	29272.15
2584.21451	29179.65
2586.90015	29179.55
2589.58411	29127.65
2592.2664	29143.15
2594.94701	29055.65
2597.62594	29082.45
2600.30321	29111.55
2602.9788	29078.45
2605.65273	29024.35
2608.32498	29014.35
2610.99557	28973.85
2613.66449	29049.75
2616.33175	29002.15
2618.99734	29052.55
2621.66128	29007.55
2624.32355	29005.35
2626.98416	29008.55
2629.64311	28966.85
2632.30041	28976.65
2634.95605	28918.45
2637.61004	28919.15
2640.26238	28898.35
2642.91306	28850.45
2645.56209	28786.95
2648.20948	28770.25
2650.85521	28743.45
2653.4993	28720.85
2656.14175	28702.45
2658.78255	28774.95
2661.42171	28755.55
2664.05923	28768.05
2666.6951	28736.85
2669.32934	28828.15
2671.96194	28792.25
2674.59291	28835.85
2677.22224	28826.25
2679.84993	28817.75
2682.476	28812.35
2685.10043	28833.25
2687.72324	28746.55
2690.34441	28796.55
2692.96396	28764.05
2695.58188	28729.95
2698.19818	28685.85
2700.81285	28687.55
2703.4259	28680.85
2706.03733	28750.05
2708.64714	28688.35
2711.25533	28702.25
2713.86191	28675.45
2716.46687	28777.75
2719.07021	28751.35
2721.67194	28812.45
2724.27206	28780.25
2726.87057	28782.35
2729.46747	28816.15
2732.06276	28809.85
2734.65644	28811.45
2737.24852	28791.45
2739.83899	28774.95
2742.42786	28770.65
2745.01513	28754.05
2747.60079	28731.35
2750.18486	28651.65
2752.76733	28651.35
2755.3482	28641.35
2757.92747	28662.15
2760.50515	28600.05
2763.08123	28589.85
2765.65573	28574.65
2768.22863	28573.15
2770.79994	28482.75
2773.36967	28488.45
2775.9378	28466.35
2778.50435	28500.65
2781.06932	28476.55
2783.6327	28477.65
2786.1945	28400.95
2788.75471	28436.85
2791.31335	28341.95
2793.87041	28322.75
2796.42589	28233.95
2798.97979	28198.75
2801.53212	28117.65
2804.08288	28128.15
2806.63206	28050.25
2809.17967	28002.85
2811.72571	27922.25
2814.27018	27941.05
2816.81308	27850.95
2819.35442	27844.75
2821.89419	27840.45
2824.43239	27880.25
2826.96904	27793.35
2829.50412	27849.65
2832.03763	27745.85
2834.56959	27749.35
2837.1	27702.05
2839.62884	27701.05
2842.15613	27668.35
2844.68186	27678.55
2847.20604	27612.85
2849.72867	27642.65
2852.24974	27544.15
2854.76927	27541.95
2857.28724	27525.65
2859.80367	27549.55
2862.31855	27407.65
2864.83189	27439.15
2867.34368	27457.25
2869.85393	27487.85
2872.36264	27433.15
2874.8698	27386.55
2877.37543	27404.05
2879.87952	27360.15
2882.38207	27368.55
2884.88308	27359.35
2887.38256	27355.45
2889.88051	27343.25
2892.37692	27372.15
2894.8718	27372.55
2897.36515	27417.35
2899.85698	27396.35
2902.34727	27423.05
2904.83604	27421.25
2907.32328	27503.15
2909.809	27515.85
2912.29319	27546.95
2914.77587	27544.15
2917.25702	27571.55
2919.73665	27460.95
2922.21476	27474.15
2924.69136	27459.95
2927.16644	27453.15
2929.64	27408.95
2932.11205	27374.65
2934.58258	27295.35
2937.05161	27303.45
2939.51912	27364.45
2941.98513	27334.15
2944.44962	27359.65
2946.91261	27279.15
2949.37409	27351.45
2951.83407	27317.35
2954.29254	27316.65
2956.74951	27328.95
2959.20498	27340.35
2961.65895	27270.55
2964.11142	27285.55
2966.56239	27246.15
2969.01186	27279.25
2971.45984	27170.55
2973.90632	27147.05
2976.35131	27103.05
2978.7948	27079.15
2981.23681	27039.35
2983.67732	27015.85
2986.11635	26963.45
2988.55388	26924.95
2990.98993	26837.45
2993.4245	26802.05
2995.85758	26766.65
2998.28917	26652.25
3000.71928	26686.55
3003.14791	26609.25
3005.57506	26607.15
3008.00073	26507.25
3010.42493	26508.65
3012.84764	26464.25
3015.26888	26518.25
3017.68865	26402.15
3020.10694	26345.95
3022.52376	26328.55
3024.9391	26330.55
3027.35298	26293.95
3029.76539	26258.45
3032.17632	26216.55
3034.5858	26259.45
3036.9938	26250.25
3039.40034	26208.25
3041.80542	26218.25
3044.20903	26167.65
3046.61118	26131.55
3049.01187	26060.05
3051.4111	26075.35
3053.80888	25981.15
3056.20519	25942.55
3058.60005	25855.95
3060.99345	25858.95
3063.3854	25818.35
3065.7759	25703.25
3068.16494	25604.05
3070.55254	25551.25
3072.93868	25509.85
3075.32338	25444.65
3077.70662	25409.45
3080.08842	25308.45
3082.46878	25346.95
3084.84769	25315.45
3087.22515	25324.85
3089.60118	25282.75
3091.97576	25281.45
3094.3489	25262.45
3096.72061	25318.35
3099.09087	25312.55
3101.4597	25326.15
3103.82709	25340.35
3106.19305	25271.75
3108.55757	25233.65
3110.92066	25175.15
3113.28232	25147.55
3115.64255	25087.15
3118.00134	25057.45
3120.35871	25045.15
3122.71466	24979.45
3125.06917	24945.65
3127.42226	24899.35
3129.77393	24897.65
3132.12417	24853.55
3134.47299	24797.55
3136.82039	24804.25
3139.16636	24776.65
3141.51092	24766.05
3143.85406	24761.35
3146.19579	24758.45
3148.53609	24779.95
3150.87499	24778.35
3153.21246	24835.95
3155.54853	24864.65
3157.88318	24871.55
3160.21642	24868.05
3162.54826	24885.55
3164.87868	24807.45
3167.2077	24867.55
3169.5353	24904.05
3171.86151	24838.55
3174.18631	24814.25
3176.5097	24772.45
3178.83169	24705.25
3181.15228	24718.45
3183.47147	24649.15
3185.78926	24669.25
3188.10565	24610.55
3190.42065	24627.75
3192.73424	24627.15
3195.04645	24568.45
3197.35725	24576.55
3199.66667	24592.65
3201.97469	24629.05
3204.28132	24589.75
3206.58656	24607.85
3208.8904	24620.75
3211.19287	24637.95
3213.49394	24653.25
3215.79363	24636.25
3218.09193	24664.05
3220.38884	24728.05
3222.68438	24698.35
3224.97853	24702.45
3227.2713	24711.75
3229.56269	24685.15
3231.8527	24663.25
3234.14133	24575.95
3236.42858	24530.95
3238.71446	24535.25
