Data from AgNPs_FTO_APTES_UA_20uM_CRN_20uM_R6G_10uM_NaF_0.1M_Addition_RamanShift__29__15-23-52-275.txt Node

Date: Thu Feb 17 15:23:52 GMT 2022
User: TCL
Spectrometer: QEP01345
Trigger mode: 4
Integration Time (sec): 7.000000E0
Scans to average: 10
Electric dark correction enabled: true
Nonlinearity correction enabled: false
Boxcar width: 0
XAxis mode: Raman Shifts
Number of Pixels in Spectrum: 1044
>>>>>Begin Spectral Data<<<<<
46.04893	-0.475
50.45542	-0.375
54.85868	-0.975
59.25871	-0.375
63.6555	75.725
68.04907	74.925
72.43941	79.225
76.82654	80.525
81.21044	82.725
85.59113	87.025
89.96862	88.325
94.34289	89.825
98.71396	94.725
103.08183	98.525
107.4465	99.125
111.80798	99.625
116.16626	107.925
120.52136	109.425
124.87327	110.525
129.222	115.025
133.56755	123.525
137.90993	124.925
142.24913	138.925
146.58517	153.025
150.91804	177.725
155.24774	205.625
159.57429	250.425
163.89768	314.425
168.21792	411.925
172.53501	556.625
176.84895	780.725
181.15975	1097.525
185.46741	1534.825
189.77193	2122.925
194.07331	2863.125
198.37157	3706.125
202.6667	4612.025
206.9587	5497.725
211.24758	6357.425
215.53334	7256.325
219.81599	8172.425
224.09553	9209.425
228.37195	10403.525
232.64527	11702.325
236.91549	13074.325
241.18261	14450.425
245.44663	15727.925
249.70755	16890.025
253.96539	17857.325
258.22014	18735.325
262.4718	19455.025
266.72039	19944.925
270.96589	20215.825
275.20832	20272.525
279.44768	20147.825
283.68397	19847.925
287.91719	19614.925
292.14735	19492.525
296.37445	19598.925
300.59849	19910.925
304.81948	20302.925
309.03742	20568.025
313.25231	20509.125
317.46415	20031.625
321.67296	19344.925
325.87872	18723.525
330.08145	18539.225
334.28114	18564.525
338.47781	18853.325
342.67145	19212.625
346.86207	19701.425
351.04966	20394.025
355.23424	21147.025
359.4158	21836.125
363.59435	22278.425
367.76989	22576.225
371.94243	22804.025
376.11196	22951.225
380.27849	23097.625
384.44203	23126.725
388.60257	23121.525
392.76012	23223.525
396.91468	23365.425
401.06626	23732.325
405.21485	24062.725
409.36047	24032.625
413.50311	23538.125
417.64277	23107.325
421.77947	22860.325
425.9132	22796.325
430.04396	22875.125
434.17176	23051.225
438.2966	23306.225
442.41849	23726.125
446.53742	24193.125
450.6534	24716.525
454.76644	25107.825
458.87653	25323.525
462.98368	25262.625
467.08789	25045.525
471.18916	24697.325
475.2875	24249.125
479.38291	23943.125
483.4754	23765.625
487.56496	23615.425
491.6516	23551.125
495.73531	23418.425
499.81612	23452.925
503.89401	23557.425
507.96899	23745.025
512.04106	23958.725
516.11023	24272.925
520.1765	24455.625
524.23987	24532.425
528.30034	24342.025
532.35792	24117.625
536.41261	23945.625
540.46441	23758.425
544.51333	23708.725
548.55936	23766.225
552.60252	23979.725
556.64279	24289.625
560.6802	24364.125
564.71473	24444.925
568.7464	24801.325
572.7752	25088.925
576.80114	24954.425
580.82422	24713.725
584.84444	24732.325
588.86181	24841.825
592.87633	25022.525
596.888	25278.525
600.89682	25758.825
604.9028	27290.625
608.90594	31085.125
612.90624	35952.825
616.90371	35077.025
620.89834	29046.225
624.89015	26316.725
628.87913	25834.025
632.86528	25795.925
636.84862	25750.525
640.82913	25558.725
644.80683	25098.325
648.78172	24712.025
652.75379	24781.625
656.72306	25298.125
660.68952	25933.925
664.65319	25836.325
668.61405	25371.325
672.57211	25120.525
676.52738	25146.525
680.47986	25151.125
684.42955	25165.125
688.37646	25241.425
692.32058	25385.525
696.26192	25531.325
700.20048	25740.325
704.13626	25865.725
708.06928	25773.725
711.99952	25698.525
715.927	25708.825
719.85171	25704.225
723.77365	25713.125
727.69284	25711.125
731.60928	25616.725
735.52295	25625.925
739.43388	25764.825
743.34206	25909.525
747.24749	26054.225
751.15017	26160.825
755.05012	26483.125
758.94733	27049.625
762.8418	28215.525
766.73354	30100.025
770.62254	32265.425
774.50882	33526.325
778.39237	32815.425
782.27321	30391.925
786.15132	28208.325
790.02671	26953.925
793.89938	26450.625
797.76935	26246.125
801.6366	26194.525
805.50115	26177.725
809.36299	26094.625
813.22213	26070.125
817.07857	26134.725
820.93231	26187.225
824.78336	26255.425
828.63172	26378.225
832.47738	26434.925
836.32036	26511.525
840.16066	26529.125
843.99827	26611.025
847.8332	26563.925
851.66546	26553.125
855.49504	26571.225
859.32195	26579.525
863.1462	26581.425
866.96777	26488.225
870.78668	26519.325
874.60293	26597.525
878.41652	26666.925
882.22745	26743.325
886.03573	26800.725
889.84136	26836.325
893.64433	26702.525
897.44466	26708.125
901.24235	26703.125
905.0374	26714.125
908.8298	26675.825
912.61957	26702.725
916.40671	26774.425
920.19121	26895.325
923.97308	27104.325
927.75233	27275.325
931.52895	27347.825
935.30295	27284.325
939.07433	26951.525
942.84309	26737.025
946.60924	26601.125
950.37278	26498.225
954.13371	26413.425
957.89203	26341.525
961.64774	26253.825
965.40086	26169.725
969.15137	26147.225
972.89929	26126.625
976.64461	26133.125
980.38733	26147.525
984.12747	26221.525
987.86502	26389.825
991.59999	26572.225
995.33237	26850.225
999.06217	27442.025
1002.78939	28081.525
1006.51404	28424.725
1010.23611	28714.925
1013.95561	28948.625
1017.67255	29105.925
1021.38692	28972.825
1025.09872	28925.225
1028.80796	29149.925
1032.51465	29749.025
1036.21877	30234.125
1039.92035	30300.725
1043.61937	29993.925
1047.31584	29417.725
1051.00976	28893.625
1054.70114	28589.525
1058.38998	28530.325
1062.07627	28542.225
1065.76003	28609.525
1069.44126	28641.225
1073.11995	28726.525
1076.79611	28820.025
1080.46974	28991.025
1084.14085	29240.925
1087.80943	29497.425
1091.47549	29624.725
1095.13903	29344.625
1098.80005	28931.225
1102.45857	28630.525
1106.11456	28585.125
1109.76805	28735.725
1113.41903	29037.025
1117.06751	29499.925
1120.71348	29942.725
1124.35696	30368.625
1127.99793	30719.425
1131.63641	30617.125
1135.2724	30077.125
1138.90589	29557.225
1142.5369	29176.725
1146.16542	28964.625
1149.79145	28787.425
1153.415	28818.025
1157.03607	28884.225
1160.65467	29109.025
1164.27079	29565.425
1167.88443	30195.425
1171.49561	31232.625
1175.10432	32920.225
1178.71056	35322.025
1182.31434	37341.625
1185.91565	38229.825
1189.51451	37775.025
1193.11091	36359.225
1196.70485	34665.325
1200.29634	33423.525
1203.88538	32730.625
1207.47197	31980.225
1211.05612	31314.125
1214.63782	30885.425
1218.21708	30831.125
1221.79391	30978.525
1225.36829	31190.525
1228.94024	31239.325
1232.50976	31117.925
1236.07685	31081.125
1239.6415	31225.525
1243.20374	31468.025
1246.76355	31704.725
1250.32093	32080.925
1253.8759	32641.325
1257.42845	33275.725
1260.97859	33744.725
1264.52631	33943.725
1268.07163	34266.325
1271.61453	34653.125
1275.15503	35155.925
1278.69312	35655.325
1282.22882	36080.725
1285.76211	36499.325
1289.29301	36911.425
1292.82151	37325.825
1296.34761	37909.025
1299.87133	38922.125
1303.39266	40669.225
1306.9116	43275.025
1310.42815	45857.725
1313.94233	47067.025
1317.45412	46076.025
1320.96354	44011.925
1324.47058	41807.725
1327.97525	40072.225
1331.47754	39209.825
1334.97747	39391.325
1338.47502	40220.925
1341.97022	41440.125
1345.46305	42528.825
1348.95352	43337.425
1352.44163	44225.925
1355.92738	45945.325
1359.41078	49338.725
1362.89183	52363.825
1366.37053	51094.625
1369.84688	45994.525
1373.32088	41111.625
1376.79254	37895.925
1380.26186	36111.625
1383.72883	35206.325
1387.19347	34740.025
1390.65578	34218.025
1394.11575	33805.025
1397.57339	33632.525
1401.0287	33756.125
1404.48168	34220.825
1407.93234	34952.925
1411.38068	35802.425
1414.82669	36299.025
1418.27039	36186.625
1421.71177	35641.025
1425.15083	35083.925
1428.58758	34853.925
1432.02203	34958.325
1435.45416	35057.025
1438.88399	34952.725
1442.31151	34962.425
1445.73673	35030.825
1449.15965	35085.525
1452.58027	34976.025
1455.9986	34660.025
1459.41463	34456.925
1462.82837	34582.825
1466.23982	34909.925
1469.64898	35466.125
1473.05586	35952.425
1476.46045	36374.625
1479.86276	36847.425
1483.26279	37550.225
1486.66054	38203.825
1490.05602	39114.625
1493.44922	40137.925
1496.84016	41374.125
1500.22882	43001.225
1503.61521	45284.525
1506.99934	47903.425
1510.38121	49887.225
1513.76081	50099.525
1517.13816	47959.225
1520.51324	44523.925
1523.88607	41452.325
1527.25665	39467.125
1530.62498	38268.325
1533.99105	37558.425
1537.35488	37244.325
1540.71647	37188.725
1544.07581	37241.325
1547.4329	37397.625
1550.78776	37394.225
1554.14038	37346.825
1557.49077	37353.325
1560.83892	37516.425
1564.18484	37722.625
1567.52853	37886.925
1570.86999	38051.425
1574.20922	38112.825
1577.54624	37916.825
1580.88103	37172.025
1584.2136	36338.925
1587.54395	36207.425
1590.87208	36981.725
1594.19801	38632.625
1597.52172	40760.425
1600.84321	41826.225
1604.16251	41265.525
1607.47959	39497.525
1610.79447	37530.725
1614.10715	35644.225
1617.41763	34240.025
1620.7259	33298.725
1624.03199	32869.925
1627.33587	32939.325
1630.63757	33427.525
1633.93707	34340.525
1637.23439	35613.625
1640.52951	37064.325
1643.82246	38625.125
1647.11321	40284.125
1650.40179	41252.025
1653.68819	40147.025
1656.97241	37302.125
1660.25446	34314.125
1663.53433	32246.225
1666.81203	31041.425
1670.08756	30251.825
1673.36092	29798.725
1676.63211	29465.325
1679.90115	29137.125
1683.16801	28965.425
1686.43272	28798.925
1689.69527	28701.625
1692.95567	28633.625
1696.2139	28650.325
1699.46999	28670.725
1702.72392	28662.325
1705.97571	28651.025
1709.22535	28596.625
1712.47284	28649.225
1715.71819	28652.425
1718.96139	28684.725
1722.20246	28643.325
1725.44139	28530.625
1728.67818	28468.225
1731.91284	28341.925
1735.14537	28295.825
1738.37576	28183.225
1741.60403	28160.725
1744.83017	28217.625
1748.05418	28099.625
1751.27607	28115.425
1754.49584	28120.125
1757.71349	28142.225
1760.92903	28131.625
1764.14244	28145.325
1767.35375	28136.925
1770.56294	28089.725
1773.77002	28037.825
1776.97499	28023.425
1780.17785	28029.825
1783.37861	27996.025
1786.57727	28008.225
1789.77382	28007.125
1792.96828	28025.125
1796.16064	27968.725
1799.3509	27979.625
1802.53907	27912.125
1805.72514	27875.525
1808.90913	27854.525
1812.09102	27822.425
1815.27083	27747.725
1818.44856	27752.025
1821.6242	27773.425
1824.79776	27724.625
1827.96924	27741.525
1831.13864	27725.725
1834.30597	27755.025
1837.47122	27704.825
1840.6344	27696.725
1843.7955	27724.625
1846.95454	27685.125
1850.11151	27699.925
1853.26642	27701.725
1856.41926	27690.425
1859.57004	27699.425
1862.71876	27668.825
1865.86542	27680.125
1869.01003	27709.025
1872.15258	27742.125
1875.29308	27731.625
1878.43152	27690.425
1881.56792	27699.425
1884.70227	27643.325
1887.83457	27608.325
1890.96482	27652.925
1894.09304	27642.525
1897.21921	27605.525
1900.34335	27612.125
1903.46544	27577.125
1906.58551	27619.625
1909.70353	27576.725
1912.81953	27599.525
1915.93349	27556.425
1919.04543	27484.325
1922.15534	27490.725
1925.26322	27453.125
1928.36908	27451.825
1931.47292	27425.025
1934.57473	27431.825
1937.67453	27369.825
1940.77232	27319.425
1943.86808	27282.625
1946.96184	27198.725
1950.05358	27181.525
1953.14331	27094.425
1956.23103	27039.425
1959.31675	26984.125
1962.40046	26886.725
1965.48217	26813.225
1968.56188	26764.725
1971.63959	26703.225
1974.7153	26593.525
1977.78901	26531.925
1980.86073	26497.725
1983.93046	26429.125
1986.99819	26360.925
1990.06394	26323.425
1993.1277	26268.725
1996.18947	26181.725
1999.24925	26143.325
2002.30706	26061.125
2005.36288	26006.425
2008.41672	25942.925
2011.46859	25857.725
2014.51848	25799.725
2017.56639	25761.225
2020.61233	25683.625
2023.6563	25659.925
2026.6983	25582.725
2029.73833	25543.825
2032.7764	25539.425
2035.8125	25494.125
2038.84664	25465.325
2041.87881	25410.725
2044.90903	25350.525
2047.93729	25326.025
2050.96359	25320.025
2053.98794	25300.725
2057.01034	25314.025
2060.03078	25322.325
2063.04927	25284.025
2066.06582	25243.925
2069.08042	25268.325
2072.09307	25237.425
2075.10378	25222.625
2078.11255	25178.025
2081.11938	25215.525
2084.12426	25205.225
2087.12722	25224.825
2090.12824	25176.525
2093.12732	25162.825
2096.12447	25195.725
2099.11969	25253.025
2102.11299	25232.025
2105.10435	25254.025
2108.09379	25252.225
2111.08131	25275.825
2114.0669	25280.225
2117.05057	25305.025
2120.03233	25391.625
2123.01216	25374.225
2125.99008	25405.225
2128.96609	25410.725
2131.94018	25450.125
2134.91236	25476.025
2137.88263	25520.225
2140.851	25489.725
2143.81746	25569.525
2146.78201	25563.325
2149.74466	25566.225
2152.7054	25587.325
2155.66425	25589.925
2158.6212	25561.525
2161.57625	25581.925
2164.52941	25534.725
2167.48067	25556.125
2170.43004	25573.325
2173.37752	25600.425
2176.32311	25669.025
2179.26681	25614.425
2182.20863	25649.425
2185.14856	25615.625
2188.08661	25651.525
2191.02278	25660.325
2193.95707	25638.725
2196.88948	25649.025
2199.82001	25592.425
2202.74867	25604.325
2205.67545	25627.125
2208.60037	25577.325
2211.52341	25601.925
2214.44458	25575.425
2217.36388	25517.825
2220.28132	25476.425
2223.1969	25458.125
2226.11061	25430.625
2229.02246	25374.925
2231.93245	25344.625
2234.84058	25266.725
2237.74686	25225.725
2240.65128	25231.525
2243.55385	25214.825
2246.45456	25221.725
2249.35343	25170.725
2252.25044	25148.025
2255.14561	25118.025
2258.03893	25146.525
2260.93041	25108.525
2263.82004	25047.825
2266.70783	24993.925
2269.59378	24950.025
2272.4779	24870.125
2275.36017	24829.225
2278.24061	24802.425
2281.11922	24729.625
2283.996	24735.325
2286.87094	24668.625
2289.74405	24650.725
2292.61534	24644.725
2295.4848	24645.925
2298.35243	24648.925
2301.21824	24643.225
2304.08223	24598.025
2306.94439	24623.425
2309.80474	24638.225
2312.66327	24635.425
2315.51999	24636.025
2318.37489	24622.225
2321.22797	24640.325
2324.07925	24567.725
2326.92871	24545.425
2329.77637	24531.625
2332.62222	24462.525
2335.46626	24460.925
2338.3085	24482.025
2341.14893	24497.625
2343.98756	24497.625
2346.8244	24487.625
2349.65943	24470.625
2352.49267	24496.525
2355.32411	24475.925
2358.15376	24490.825
2360.98161	24446.525
2363.80768	24439.425
2366.63195	24460.825
2369.45444	24414.325
2372.27514	24331.225
2375.09405	24302.525
2377.91118	24270.425
2380.72652	24195.025
2383.54009	24152.425
2386.35187	24097.725
2389.16188	24037.825
2391.97011	24046.425
2394.77657	23990.525
2397.58125	23961.325
2400.38416	23928.925
2403.18529	23875.525
2405.98466	23821.225
2408.78226	23770.925
2411.57809	23728.225
2414.37216	23718.325
2417.16446	23696.425
2419.955	23682.925
2422.74378	23726.625
2425.5308	23682.225
2428.31606	23666.525
2431.09956	23642.825
2433.88131	23616.925
2436.6613	23615.025
2439.43954	23662.125
2442.21603	23599.625
2444.99077	23541.825
2447.76377	23543.825
2450.53501	23544.225
2453.30451	23546.625
2456.07226	23493.125
2458.83827	23481.325
2461.60254	23442.425
2464.36507	23441.925
2467.12586	23415.925
2469.88492	23414.225
2472.64224	23427.325
2475.39782	23414.325
2478.15167	23481.625
2480.90379	23437.125
2483.65417	23478.225
2486.40283	23449.125
2489.14976	23476.925
2491.89497	23471.025
2494.63845	23500.425
2497.3802	23464.825
2500.12024	23489.625
2502.85855	23412.925
2505.59514	23397.525
2508.33002	23375.925
2511.06318	23366.525
2513.79462	23253.125
2516.52435	23257.425
2519.25237	23258.025
2521.97867	23167.025
2524.70327	23195.625
2527.42616	23181.625
2530.14734	23168.625
2532.86681	23112.325
2535.58458	23106.125
2538.30065	23099.925
2541.01501	23091.825
2543.72768	23065.925
2546.43864	23034.625
2549.14791	23045.525
2551.85548	23016.025
2554.56136	22961.825
2557.26554	22919.425
2559.96803	22886.625
2562.66883	22862.125
2565.36794	22809.325
2568.06536	22854.125
2570.7611	22782.625
2573.45514	22756.825
2576.14751	22731.925
2578.83819	22737.925
2581.52719	22710.325
2584.21451	22680.025
2586.90015	22638.725
2589.58411	22599.025
2592.2664	22586.025
2594.94701	22534.025
2597.62594	22541.525
2600.30321	22536.225
2602.9788	22513.325
2605.65273	22488.925
2608.32498	22467.925
2610.99557	22438.825
2613.66449	22478.225
2616.33175	22427.425
2618.99734	22471.525
2621.66128	22435.125
2624.32355	22455.925
2626.98416	22436.125
2629.64311	22410.125
2632.30041	22371.225
2634.95605	22367.325
2637.61004	22354.725
2640.26238	22330.725
2642.91306	22271.925
2645.56209	22260.925
2648.20948	22273.325
2650.85521	22218.725
2653.4993	22224.225
2656.14175	22181.125
2658.78255	22242.225
2661.42171	22215.425
2664.05923	22233.725
2666.6951	22253.925
2669.32934	22302.725
2671.96194	22254.725
2674.59291	22315.425
2677.22224	22256.725
2679.84993	22285.225
2682.476	22270.525
2685.10043	22276.125
2687.72324	22288.125
2690.34441	22258.025
2692.96396	22271.025
2695.58188	22242.625
2698.19818	22219.325
2700.81285	22263.725
2703.4259	22272.025
2706.03733	22265.325
2708.64714	22240.025
2711.25533	22226.425
2713.86191	22227.625
2716.46687	22258.925
2719.07021	22301.625
2721.67194	22305.825
2724.27206	22327.425
2726.87057	22350.025
2729.46747	22339.625
2732.06276	22360.525
2734.65644	22309.025
2737.24852	22314.525
2739.83899	22270.325
2742.42786	22300.925
2745.01513	22286.725
2747.60079	22275.225
2750.18486	22212.525
2752.76733	22193.525
2755.3482	22193.625
2757.92747	22193.725
2760.50515	22129.625
2763.08123	22147.925
2765.65573	22103.925
2768.22863	22063.325
2770.79994	22047.825
2773.36967	22068.425
2775.9378	22043.525
2778.50435	22057.725
2781.06932	22036.425
2783.6327	22007.125
2786.1945	21982.925
2788.75471	21957.925
2791.31335	21923.925
2793.87041	21902.025
2796.42589	21875.525
2798.97979	21827.825
2801.53212	21735.025
2804.08288	21723.225
2806.63206	21693.025
2809.17967	21666.325
2811.72571	21598.625
2814.27018	21548.125
2816.81308	21527.625
2819.35442	21525.625
2821.89419	21498.025
2824.43239	21531.325
2826.96904	21499.625
2829.50412	21492.725
2832.03763	21450.025
2834.56959	21447.925
2837.1	21421.525
2839.62884	21415.925
2842.15613	21359.025
2844.68186	21400.725
2847.20604	21347.325
2849.72867	21337.625
2852.24974	21338.625
2854.76927	21311.425
2857.28724	21298.925
2859.80367	21288.825
2862.31855	21243.925
2864.83189	21225.225
2867.34368	21173.725
2869.85393	21215.825
2872.36264	21161.325
2874.8698	21126.825
2877.37543	21135.725
2879.87952	21116.325
2882.38207	21105.725
2884.88308	21111.425
2887.38256	21107.525
2889.88051	21094.625
2892.37692	21125.825
2894.8718	21111.725
2897.36515	21142.825
2899.85698	21121.325
2902.34727	21142.825
2904.83604	21183.225
2907.32328	21204.425
2909.809	21179.425
2912.29319	21198.925
2914.77587	21209.325
2917.25702	21202.225
2919.73665	21193.125
2922.21476	21184.725
2924.69136	21145.625
2927.16644	21136.725
2929.64	21123.225
2932.11205	21099.525
2934.58258	21031.325
2937.05161	21076.025
2939.51912	21075.025
2941.98513	21090.925
2944.44962	21078.125
2946.91261	21059.825
2949.37409	21069.825
2951.83407	21067.625
2954.29254	21044.325
2956.74951	21083.325
2959.20498	21097.325
2961.65895	21014.925
2964.11142	21015.225
2966.56239	21021.625
2969.01186	21002.725
2971.45984	20969.825
2973.90632	20922.425
2976.35131	20900.625
2978.7948	20867.825
2981.23681	20860.425
2983.67732	20810.025
2986.11635	20794.525
2988.55388	20752.625
2990.98993	20699.025
2993.4245	20659.725
2995.85758	20629.325
2998.28917	20607.025
3000.71928	20570.825
3003.14791	20523.725
3005.57506	20497.325
3008.00073	20452.225
3010.42493	20451.625
3012.84764	20413.625
3015.26888	20433.825
3017.68865	20378.125
3020.10694	20372.425
3022.52376	20309.725
3024.9391	20313.625
3027.35298	20276.925
3029.76539	20286.625
3032.17632	20243.025
3034.5858	20252.225
3036.9938	20236.425
3039.40034	20206.825
3041.80542	20235.425
3044.20903	20159.725
3046.61118	20140.825
3049.01187	20071.425
3051.4111	20110.525
3053.80888	20011.925
3056.20519	19997.125
3058.60005	19946.225
3060.99345	19903.325
3063.3854	19882.125
3065.7759	19811.925
3068.16494	19739.325
3070.55254	19704.725
3072.93868	19695.725
3075.32338	19625.325
3077.70662	19577.525
3080.08842	19512.525
3082.46878	19535.525
3084.84769	19502.225
3087.22515	19482.225
3089.60118	19477.325
3091.97576	19528.525
3094.3489	19468.725
3096.72061	19485.025
3099.09087	19488.825
3101.4597	19513.725
3103.82709	19517.825
3106.19305	19484.725
3108.55757	19488.325
3110.92066	19393.525
3113.28232	19384.225
3115.64255	19340.725
3118.00134	19311.525
3120.35871	19295.025
3122.71466	19275.425
3125.06917	19227.425
3127.42226	19188.425
