Data from AgNPs_FTO_APTES_UA_20uM_CRN_0uM_R6G_10uM_NaF_0.1M_Addition_RamanShift__9__11-00-11-930.txt Node

Date: Thu Feb 17 11:00:11 GMT 2022
User: TCL
Spectrometer: QEP01345
Trigger mode: 4
Integration Time (sec): 7.000000E0
Scans to average: 10
Electric dark correction enabled: true
Nonlinearity correction enabled: false
Boxcar width: 0
XAxis mode: Raman Shifts
Number of Pixels in Spectrum: 1044
>>>>>Begin Spectral Data<<<<<
46.04893	0.9875
50.45542	0.3875
54.85868	-2.3125
59.25871	0.3875
63.6555	37.0875
68.04907	35.9875
72.43941	41.8875
76.82654	40.8875
81.21044	42.4875
85.59113	46.1875
89.96862	49.8875
94.34289	52.9875
98.71396	50.5875
103.08183	51.8875
107.4465	54.5875
111.80798	52.6875
116.16626	55.9875
120.52136	59.0875
124.87327	58.4875
129.222	62.1875
133.56755	65.3875
137.90993	67.3875
142.24913	73.6875
146.58517	87.7875
150.91804	98.4875
155.24774	118.5875
159.57429	144.3875
163.89768	185.0875
168.21792	250.1875
172.53501	338.9875
176.84895	475.4875
181.15975	670.1875
185.46741	941.2875
189.77193	1298.8875
194.07331	1761.1875
198.37157	2285.1875
202.6667	2833.0875
206.9587	3407.6875
211.24758	3956.4875
215.53334	4532.5875
219.81599	5126.7875
224.09553	5786.0875
228.37195	6504.3875
232.64527	7289.9875
236.91549	8099.5875
241.18261	8919.5875
245.44663	9613.0875
249.70755	10243.0875
253.96539	10748.8875
258.22014	11199.0875
262.4718	11515.1875
266.72039	11741.1875
270.96589	11783.9875
275.20832	11736.4875
279.44768	11511.3875
283.68397	11273.0875
287.91719	11079.3875
292.14735	10949.6875
296.37445	10919.6875
300.59849	10990.0875
304.81948	11162.1875
309.03742	11320.8875
313.25231	11381.2875
317.46415	11172.2875
321.67296	10756.7875
325.87872	10303.3875
330.08145	9975.8875
334.28114	9893.4875
338.47781	9952.5875
342.67145	10078.9875
346.86207	10368.6875
351.04966	10700.9875
355.23424	11070.3875
359.4158	11326.0875
363.59435	11373.1875
367.76989	11336.9875
371.94243	11218.0875
376.11196	11125.0875
380.27849	11056.5875
384.44203	10998.3875
388.60257	10972.5875
392.76012	11035.9875
396.91468	11183.4875
401.06626	11406.7875
405.21485	11498.2875
409.36047	11343.2875
413.50311	10995.9875
417.64277	10676.9875
421.77947	10571.3875
425.9132	10592.1875
430.04396	10632.8875
434.17176	10635.0875
438.2966	10652.1875
442.41849	10738.3875
446.53742	10918.2875
450.6534	11039.1875
454.76644	11103.4875
458.87653	11095.5875
462.98368	11035.9875
467.08789	10932.0875
471.18916	10816.2875
475.2875	10653.7875
479.38291	10511.0875
483.4754	10376.5875
487.56496	10306.2875
491.6516	10280.7875
495.73531	10239.0875
499.81612	10237.9875
503.89401	10276.2875
507.96899	10378.2875
512.04106	10449.7875
516.11023	10518.6875
520.1765	10557.8875
524.23987	10549.9875
528.30034	10468.8875
532.35792	10391.6875
536.41261	10254.3875
540.46441	10119.6875
544.51333	10055.0875
548.55936	10114.0875
552.60252	10271.6875
556.64279	10497.3875
560.6802	10633.6875
564.71473	10727.0875
568.7464	10967.3875
572.7752	11221.3875
576.80114	11304.3875
580.82422	11384.2875
584.84444	11588.3875
588.86181	11884.3875
592.87633	12226.9875
596.888	12429.7875
600.89682	12225.8875
604.9028	12420.1875
608.90594	14076.4875
612.90624	16557.8875
616.90371	16196.8875
620.89834	12636.5875
624.89015	10720.6875
628.87913	10360.9875
632.86528	10495.2875
636.84862	10607.2875
640.82913	10400.9875
644.80683	10058.8875
648.78172	9780.5875
652.75379	9773.5875
656.72306	9985.6875
660.68952	10251.3875
664.65319	10227.6875
668.61405	9878.1875
672.57211	9678.7875
676.52738	9681.6875
680.47986	9702.5875
684.42955	9675.6875
688.37646	9626.9875
692.32058	9675.2875
696.26192	9715.7875
700.20048	9825.2875
704.13626	9916.2875
708.06928	9908.6875
711.99952	9854.3875
715.927	9811.3875
719.85171	9798.5875
723.77365	9787.5875
727.69284	9651.3875
731.60928	9522.9875
735.52295	9482.8875
739.43388	9487.7875
743.34206	9524.1875
747.24749	9567.2875
751.15017	9611.5875
755.05012	9788.0875
758.94733	10113.6875
762.8418	10904.5875
766.73354	12244.3875
770.62254	13489.2875
774.50882	13800.5875
778.39237	13165.5875
782.27321	12053.9875
786.15132	10917.7875
790.02671	10132.8875
793.89938	9746.3875
797.76935	9544.9875
801.6366	9446.6875
805.50115	9398.2875
809.36299	9341.7875
813.22213	9275.8875
817.07857	9240.8875
820.93231	9218.0875
824.78336	9208.6875
828.63172	9185.8875
832.47738	9196.4875
836.32036	9194.1875
840.16066	9136.0875
843.99827	9110.2875
847.8332	9120.8875
851.66546	9163.9875
855.49504	9169.9875
859.32195	9155.5875
863.1462	9116.1875
866.96777	9112.2875
870.78668	9127.2875
874.60293	9146.0875
878.41652	9162.2875
882.22745	9209.7875
886.03573	9258.2875
889.84136	9277.3875
893.64433	9289.1875
897.44466	9320.8875
901.24235	9376.7875
905.0374	9376.4875
908.8298	9340.6875
912.61957	9340.6875
916.40671	9367.9875
920.19121	9425.8875
923.97308	9534.5875
927.75233	9630.5875
931.52895	9689.9875
935.30295	9504.7875
939.07433	9265.4875
942.84309	9077.2875
946.60924	8957.1875
950.37278	8860.0875
954.13371	8820.0875
957.89203	8798.6875
961.64774	8729.8875
965.40086	8698.4875
969.15137	8697.0875
972.89929	8651.6875
976.64461	8608.1875
980.38733	8573.5875
984.12747	8555.8875
987.86502	8605.8875
991.59999	8613.3875
995.33237	8666.1875
999.06217	8746.5875
1002.78939	8912.9875
1006.51404	9102.0875
1010.23611	9304.7875
1013.95561	9366.2875
1017.67255	9339.1875
1021.38692	9241.2875
1025.09872	9080.4875
1028.80796	8958.2875
1032.51465	8914.5875
1036.21877	8903.7875
1039.92035	8959.5875
1043.61937	9008.3875
1047.31584	9070.6875
1051.00976	9137.7875
1054.70114	9145.2875
1058.38998	9149.5875
1062.07627	9119.8875
1065.76003	9124.3875
1069.44126	9163.2875
1073.11995	9275.6875
1076.79611	9411.2875
1080.46974	9558.7875
1084.14085	9739.0875
1087.80943	9959.8875
1091.47549	10055.2875
1095.13903	9926.9875
1098.80005	9637.8875
1102.45857	9372.9875
1106.11456	9155.0875
1109.76805	9109.6875
1113.41903	9141.7875
1117.06751	9311.8875
1120.71348	9519.0875
1124.35696	9866.1875
1127.99793	10207.3875
1131.63641	10271.5875
1135.2724	10003.9875
1138.90589	9682.9875
1142.5369	9508.0875
1146.16542	9394.8875
1149.79145	9350.5875
1153.415	9364.2875
1157.03607	9434.5875
1160.65467	9675.2875
1164.27079	10049.8875
1167.88443	10649.3875
1171.49561	11396.2875
1175.10432	12384.5875
1178.71056	13712.0875
1182.31434	14891.1875
1185.91565	15408.7875
1189.51451	15314.9875
1193.11091	14832.3875
1196.70485	13971.9875
1200.29634	13082.6875
1203.88538	12343.6875
1207.47197	11720.0875
1211.05612	11229.9875
1214.63782	10881.5875
1218.21708	10602.9875
1221.79391	10452.5875
1225.36829	10367.0875
1228.94024	10377.7875
1232.50976	10339.8875
1236.07685	10304.9875
1239.6415	10254.4875
1243.20374	10224.7875
1246.76355	10228.0875
1250.32093	10228.2875
1253.8759	10382.2875
1257.42845	10656.4875
1260.97859	11028.0875
1264.52631	11462.1875
1268.07163	11879.0875
1271.61453	12257.3875
1275.15503	12509.5875
1278.69312	12769.6875
1282.22882	13005.4875
1285.76211	13360.7875
1289.29301	13880.9875
1292.82151	14421.2875
1296.34761	15012.5875
1299.87133	15748.4875
1303.39266	16724.7875
1306.9116	18067.9875
1310.42815	19542.2875
1313.94233	20324.6875
1317.45412	19841.9875
1320.96354	18654.9875
1324.47058	17580.4875
1327.97525	16746.9875
1331.47754	16180.9875
1334.97747	15903.7875
1338.47502	15885.6875
1341.97022	16056.1875
1345.46305	16546.2875
1348.95352	17367.2875
1352.44163	18139.5875
1355.92738	19026.7875
1359.41078	20378.9875
1362.89183	22063.5875
1366.37053	22027.1875
1369.84688	19379.6875
1373.32088	16230.2875
1376.79254	14149.1875
1380.26186	13154.8875
1383.72883	12634.8875
1387.19347	12214.7875
1390.65578	11843.9875
1394.11575	11672.5875
1397.57339	11662.7875
1401.0287	11733.6875
1404.48168	11740.7875
1407.93234	11693.7875
1411.38068	11502.8875
1414.82669	11298.6875
1418.27039	11070.5875
1421.71177	10873.0875
1425.15083	10655.7875
1428.58758	10562.7875
1432.02203	10657.3875
1435.45416	10846.0875
1438.88399	11038.2875
1442.31151	11099.3875
1445.73673	11143.5875
1449.15965	11215.0875
1452.58027	11295.1875
1455.9986	11362.9875
1459.41463	11445.5875
1462.82837	11569.4875
1466.23982	11739.9875
1469.64898	11900.9875
1473.05586	12028.1875
1476.46045	12094.2875
1479.86276	12166.7875
1483.26279	12263.2875
1486.66054	12504.7875
1490.05602	12933.6875
1493.44922	13589.5875
1496.84016	14501.8875
1500.22882	15776.4875
1503.61521	17274.7875
1506.99934	18936.9875
1510.38121	20337.6875
1513.76081	20700.2875
1517.13816	19520.6875
1520.51324	17481.8875
1523.88607	15640.7875
1527.25665	14374.5875
1530.62498	13618.2875
1533.99105	13114.3875
1537.35488	12637.7875
1540.71647	12206.1875
1544.07581	11872.8875
1547.4329	11594.5875
1550.78776	11480.3875
1554.14038	11464.6875
1557.49077	11582.6875
1560.83892	11781.3875
1564.18484	12013.4875
1567.52853	12317.0875
1570.86999	12622.9875
1574.20922	12804.6875
1577.54624	12801.5875
1580.88103	12364.5875
1584.2136	11735.2875
1587.54395	11461.6875
1590.87208	11600.2875
1594.19801	12053.8875
1597.52172	12636.2875
1600.84321	12778.5875
1604.16251	12245.1875
1607.47959	11565.2875
1610.79447	10912.6875
1614.10715	10226.5875
1617.41763	9579.2875
1620.7259	9063.6875
1624.03199	8813.0875
1627.33587	8830.8875
1630.63757	9075.4875
1633.93707	9670.9875
1637.23439	10708.8875
1640.52951	12228.3875
1643.82246	14135.5875
1647.11321	15873.9875
1650.40179	16745.1875
1653.68819	15910.5875
1656.97241	13673.6875
1660.25446	11247.0875
1663.53433	9526.3875
1666.81203	8459.7875
1670.08756	7871.2875
1673.36092	7546.2875
1676.63211	7304.5875
1679.90115	7150.9875
1683.16801	7036.6875
1686.43272	6922.6875
1689.69527	6880.7875
1692.95567	6797.2875
1696.2139	6781.5875
1699.46999	6738.7875
1702.72392	6711.7875
1705.97571	6689.0875
1709.22535	6659.2875
1712.47284	6672.5875
1715.71819	6702.0875
1718.96139	6716.3875
1722.20246	6702.9875
1725.44139	6660.1875
1728.67818	6649.8875
1731.91284	6632.6875
1735.14537	6602.9875
1738.37576	6558.1875
1741.60403	6601.2875
1744.83017	6645.4875
1748.05418	6665.0875
1751.27607	6688.4875
1754.49584	6735.8875
1757.71349	6764.1875
1760.92903	6825.0875
1764.14244	6852.3875
1767.35375	6879.9875
1770.56294	6884.9875
1773.77002	6895.9875
1776.97499	6888.4875
1780.17785	6898.2875
1783.37861	6854.9875
1786.57727	6809.2875
1789.77382	6754.2875
1792.96828	6703.8875
1796.16064	6628.6875
1799.3509	6567.5875
1802.53907	6503.0875
1805.72514	6426.7875
1808.90913	6307.4875
1812.09102	6272.0875
1815.27083	6192.8875
1818.44856	6136.9875
1821.6242	6069.4875
1824.79776	6028.0875
1827.96924	6002.0875
1831.13864	6002.1875
1834.30597	5972.8875
1837.47122	5962.3875
1840.6344	5934.5875
1843.7955	5924.8875
1846.95454	5928.6875
1850.11151	5914.5875
1853.26642	5911.8875
1856.41926	5897.3875
1859.57004	5887.3875
1862.71876	5874.9875
1865.86542	5854.2875
1869.01003	5831.7875
1872.15258	5795.1875
1875.29308	5788.7875
1878.43152	5774.3875
1881.56792	5755.1875
1884.70227	5726.7875
1887.83457	5724.8875
1890.96482	5709.0875
1894.09304	5697.0875
1897.21921	5669.0875
1900.34335	5647.6875
1903.46544	5623.6875
1906.58551	5627.9875
1909.70353	5618.3875
1912.81953	5593.4875
1915.93349	5566.9875
1919.04543	5560.0875
1922.15534	5541.5875
1925.26322	5524.6875
1928.36908	5501.1875
1931.47292	5470.4875
1934.57473	5459.2875
1937.67453	5425.7875
1940.77232	5404.4875
1943.86808	5384.8875
1946.96184	5376.2875
1950.05358	5350.9875
1953.14331	5342.2875
1956.23103	5309.1875
1959.31675	5295.6875
1962.40046	5272.4875
1965.48217	5237.8875
1968.56188	5207.7875
1971.63959	5206.7875
1974.7153	5200.6875
1977.78901	5163.7875
1980.86073	5141.7875
1983.93046	5119.7875
1986.99819	5095.0875
1990.06394	5083.2875
1993.1277	5048.6875
1996.18947	5036.7875
1999.24925	5024.4875
2002.30706	4988.6875
2005.36288	4965.0875
2008.41672	4938.4875
2011.46859	4940.3875
2014.51848	4927.8875
2017.56639	4898.3875
2020.61233	4876.6875
2023.6563	4849.3875
2026.6983	4854.7875
2029.73833	4836.2875
2032.7764	4812.4875
2035.8125	4810.7875
2038.84664	4782.3875
2041.87881	4798.4875
2044.90903	4777.5875
2047.93729	4762.3875
2050.96359	4754.6875
2053.98794	4738.6875
2057.01034	4740.7875
2060.03078	4737.7875
2063.04927	4732.3875
2066.06582	4723.0875
2069.08042	4720.9875
2072.09307	4721.3875
2075.10378	4700.8875
2078.11255	4696.3875
2081.11938	4698.6875
2084.12426	4681.2875
2087.12722	4672.8875
2090.12824	4672.5875
2093.12732	4683.7875
2096.12447	4673.8875
2099.11969	4681.4875
2102.11299	4662.3875
2105.10435	4665.3875
2108.09379	4665.9875
2111.08131	4658.4875
2114.0669	4655.2875
2117.05057	4645.1875
2120.03233	4655.7875
2123.01216	4656.2875
2125.99008	4652.3875
2128.96609	4648.3875
2131.94018	4642.2875
2134.91236	4632.7875
2137.88263	4621.3875
2140.851	4625.1875
2143.81746	4625.6875
2146.78201	4608.8875
2149.74466	4614.1875
2152.7054	4610.9875
2155.66425	4588.9875
2158.6212	4611.4875
2161.57625	4576.6875
2164.52941	4586.2875
2167.48067	4574.4875
2170.43004	4545.1875
2173.37752	4546.1875
2176.32311	4559.2875
2179.26681	4528.9875
2182.20863	4532.6875
2185.14856	4546.6875
2188.08661	4531.5875
2191.02278	4527.1875
2193.95707	4516.0875
2196.88948	4516.1875
2199.82001	4500.2875
2202.74867	4489.4875
2205.67545	4482.3875
2208.60037	4472.9875
2211.52341	4445.5875
2214.44458	4451.3875
2217.36388	4436.3875
2220.28132	4424.1875
2223.1969	4381.0875
2226.11061	4393.9875
2229.02246	4389.4875
2231.93245	4374.7875
2234.84058	4371.7875
2237.74686	4359.9875
2240.65128	4362.9875
2243.55385	4339.4875
2246.45456	4334.4875
2249.35343	4330.9875
2252.25044	4304.2875
2255.14561	4307.7875
2258.03893	4307.8875
2260.93041	4296.3875
2263.82004	4289.1875
2266.70783	4276.0875
2269.59378	4264.6875
2272.4779	4244.9875
2275.36017	4239.4875
2278.24061	4232.8875
2281.11922	4218.4875
2283.996	4204.1875
2286.87094	4208.9875
2289.74405	4172.7875
2292.61534	4166.6875
2295.4848	4153.5875
2298.35243	4143.6875
2301.21824	4151.8875
2304.08223	4126.0875
2306.94439	4132.8875
2309.80474	4128.6875
2312.66327	4126.1875
2315.51999	4113.3875
2318.37489	4109.2875
2321.22797	4088.1875
2324.07925	4077.3875
2326.92871	4068.4875
2329.77637	4072.6875
2332.62222	4049.3875
2335.46626	4053.5875
2338.3085	4030.7875
2341.14893	4033.0875
2343.98756	4044.9875
2346.8244	4026.2875
2349.65943	4037.2875
2352.49267	4042.6875
2355.32411	4035.0875
2358.15376	4034.1875
2360.98161	4059.0875
2363.80768	4064.6875
2366.63195	4053.2875
2369.45444	4028.1875
2372.27514	4034.1875
2375.09405	4018.4875
2377.91118	4025.1875
2380.72652	3994.1875
2383.54009	3977.1875
2386.35187	3963.3875
2389.16188	3942.4875
2391.97011	3925.2875
2394.77657	3904.2875
2397.58125	3890.2875
2400.38416	3873.7875
2403.18529	3870.1875
2405.98466	3861.2875
2408.78226	3858.3875
2411.57809	3836.3875
2414.37216	3839.8875
2417.16446	3840.5875
2419.955	3829.9875
2422.74378	3822.0875
2425.5308	3828.6875
2428.31606	3830.3875
2431.09956	3826.9875
2433.88131	3819.2875
2436.6613	3812.3875
2439.43954	3814.3875
2442.21603	3801.0875
2444.99077	3801.6875
2447.76377	3794.2875
2450.53501	3795.9875
2453.30451	3796.7875
2456.07226	3790.4875
2458.83827	3781.3875
2461.60254	3779.8875
2464.36507	3779.7875
2467.12586	3773.2875
2469.88492	3779.2875
2472.64224	3757.3875
2475.39782	3765.2875
2478.15167	3763.7875
2480.90379	3761.9875
2483.65417	3765.4875
2486.40283	3752.7875
2489.14976	3770.8875
2491.89497	3765.8875
2494.63845	3757.9875
2497.3802	3741.6875
2500.12024	3747.9875
2502.85855	3739.3875
2505.59514	3742.4875
2508.33002	3724.2875
2511.06318	3714.6875
2513.79462	3693.6875
2516.52435	3682.8875
2519.25237	3670.3875
2521.97867	3655.7875
2524.70327	3656.0875
2527.42616	3650.3875
2530.14734	3635.6875
2532.86681	3617.2875
2535.58458	3617.7875
2538.30065	3611.4875
2541.01501	3607.3875
2543.72768	3614.1875
2546.43864	3608.4875
2549.14791	3605.2875
2551.85548	3601.7875
2554.56136	3591.2875
2557.26554	3573.6875
2559.96803	3567.3875
2562.66883	3558.0875
2565.36794	3559.6875
2568.06536	3543.9875
2570.7611	3550.0875
2573.45514	3535.0875
2576.14751	3528.1875
2578.83819	3512.5875
2581.52719	3513.8875
2584.21451	3493.0875
2586.90015	3506.6875
2589.58411	3480.2875
2592.2664	3476.2875
2594.94701	3469.2875
2597.62594	3470.9875
2600.30321	3466.3875
2602.9788	3453.3875
2605.65273	3458.0875
2608.32498	3454.6875
2610.99557	3447.1875
2613.66449	3441.2875
2616.33175	3435.4875
2618.99734	3450.7875
2621.66128	3428.5875
2624.32355	3433.3875
2626.98416	3417.0875
2629.64311	3400.8875
2632.30041	3404.3875
2634.95605	3397.6875
2637.61004	3382.6875
2640.26238	3385.9875
2642.91306	3384.1875
2645.56209	3385.3875
2648.20948	3372.6875
2650.85521	3365.1875
2653.4993	3368.1875
2656.14175	3361.9875
2658.78255	3367.3875
2661.42171	3374.0875
2664.05923	3383.2875
2666.6951	3397.2875
2669.32934	3386.3875
2671.96194	3373.3875
2674.59291	3369.6875
2677.22224	3376.6875
2679.84993	3380.7875
2682.476	3368.4875
2685.10043	3351.1875
2687.72324	3359.7875
2690.34441	3353.1875
2692.96396	3334.8875
2695.58188	3354.1875
2698.19818	3346.5875
2700.81285	3321.9875
2703.4259	3346.0875
2706.03733	3324.3875
2708.64714	3320.7875
2711.25533	3325.5875
2713.86191	3331.8875
2716.46687	3350.5875
2719.07021	3346.2875
2721.67194	3334.2875
2724.27206	3338.1875
2726.87057	3331.6875
2729.46747	3335.8875
2732.06276	3331.0875
2734.65644	3314.1875
2737.24852	3324.6875
2739.83899	3316.0875
2742.42786	3307.9875
2745.01513	3287.9875
2747.60079	3288.3875
2750.18486	3294.0875
2752.76733	3282.1875
2755.3482	3279.0875
2757.92747	3262.4875
2760.50515	3269.0875
2763.08123	3273.8875
2765.65573	3249.8875
2768.22863	3243.0875
2770.79994	3228.7875
2773.36967	3229.6875
2775.9378	3236.7875
2778.50435	3233.8875
2781.06932	3233.6875
2783.6327	3228.3875
2786.1945	3220.6875
2788.75471	3231.1875
2791.31335	3214.6875
2793.87041	3205.6875
2796.42589	3194.2875
2798.97979	3190.8875
2801.53212	3193.4875
2804.08288	3188.9875
2806.63206	3187.9875
2809.17967	3174.9875
2811.72571	3162.7875
2814.27018	3162.4875
2816.81308	3148.7875
2819.35442	3146.7875
2821.89419	3148.2875
2824.43239	3156.1875
2826.96904	3149.2875
2829.50412	3148.9875
2832.03763	3133.6875
2834.56959	3135.2875
2837.1	3134.8875
2839.62884	3124.8875
2842.15613	3140.1875
2844.68186	3145.2875
2847.20604	3153.0875
2849.72867	3158.2875
2852.24974	3157.2875
2854.76927	3149.4875
2857.28724	3151.5875
2859.80367	3155.1875
2862.31855	3155.6875
2864.83189	3144.6875
2867.34368	3142.0875
2869.85393	3150.9875
2872.36264	3141.9875
2874.8698	3142.4875
2877.37543	3127.4875
2879.87952	3134.1875
2882.38207	3122.7875
2884.88308	3110.7875
2887.38256	3129.1875
2889.88051	3124.1875
2892.37692	3112.5875
2894.8718	3114.5875
2897.36515	3110.4875
2899.85698	3095.7875
2902.34727	3118.8875
2904.83604	3132.6875
2907.32328	3121.1875
2909.809	3141.6875
2912.29319	3149.8875
2914.77587	3144.9875
2917.25702	3137.6875
2919.73665	3136.2875
2922.21476	3137.9875
2924.69136	3130.5875
2927.16644	3118.9875
2929.64	3112.3875
2932.11205	3123.2875
2934.58258	3100.7875
2937.05161	3094.3875
2939.51912	3098.5875
2941.98513	3102.6875
2944.44962	3064.0875
2946.91261	3055.0875
2949.37409	3045.9875
2951.83407	3034.4875
2954.29254	3040.9875
2956.74951	3033.2875
2959.20498	3038.8875
2961.65895	3025.0875
2964.11142	3028.3875
2966.56239	3006.0875
2969.01186	3008.5875
2971.45984	2995.2875
2973.90632	2982.5875
2976.35131	2975.5875
2978.7948	2968.4875
2981.23681	2963.0875
2983.67732	2969.3875
2986.11635	2948.5875
2988.55388	2944.2875
2990.98993	2933.0875
2993.4245	2929.5875
2995.85758	2919.3875
2998.28917	2895.9875
3000.71928	2907.7875
3003.14791	2892.0875
3005.57506	2897.5875
3008.00073	2883.1875
3010.42493	2882.0875
3012.84764	2874.0875
3015.26888	2885.0875
3017.68865	2870.4875
3020.10694	2869.3875
3022.52376	2859.7875
3024.9391	2856.7875
3027.35298	2836.5875
3029.76539	2826.5875
3032.17632	2833.9875
3034.5858	2822.8875
3036.9938	2824.6875
3039.40034	2821.1875
3041.80542	2817.6875
3044.20903	2815.1875
3046.61118	2812.5875
3049.01187	2794.5875
3051.4111	2792.3875
3053.80888	2801.1875
3056.20519	2776.3875
3058.60005	2774.0875
3060.99345	2778.5875
3063.3854	2782.3875
3065.7759	2770.2875
3068.16494	2765.7875
3070.55254	2762.7875
3072.93868	2753.1875
3075.32338	2744.0875
3077.70662	2747.3875
3080.08842	2734.1875
3082.46878	2729.7875
3084.84769	2727.9875
3087.22515	2720.9875
3089.60118	2716.0875
3091.97576	2723.4875
3094.3489	2720.7875
3096.72061	2731.6875
