Data from AgNPs_FTO_APTES_UA_20uM_CRN_10uM_R6G_10uM_NaF_0.1M_Addition_RamanShift__32__14-47-42-228.txt Node

Date: Thu Feb 17 14:47:42 GMT 2022
User: TCL
Spectrometer: QEP01345
Trigger mode: 4
Integration Time (sec): 7.000000E0
Scans to average: 10
Electric dark correction enabled: true
Nonlinearity correction enabled: false
Boxcar width: 0
XAxis mode: Raman Shifts
Number of Pixels in Spectrum: 1044
>>>>>Begin Spectral Data<<<<<
46.04893	0.175
50.45542	-1.125
54.85868	-3.325
59.25871	-0.525
63.6555	67.975
68.04907	66.575
72.43941	74.975
76.82654	74.575
81.21044	78.475
85.59113	78.775
89.96862	84.975
94.34289	87.775
98.71396	87.575
103.08183	93.075
107.4465	96.175
111.80798	92.375
116.16626	102.175
120.52136	105.775
124.87327	106.175
129.222	115.075
133.56755	124.475
137.90993	121.975
142.24913	132.375
146.58517	151.975
150.91804	177.675
155.24774	207.075
159.57429	258.975
163.89768	334.075
168.21792	443.075
172.53501	601.475
176.84895	842.875
181.15975	1167.175
185.46741	1657.975
189.77193	2281.375
194.07331	3060.375
198.37157	3936.975
202.6667	4889.775
206.9587	5829.775
211.24758	6772.275
215.53334	7713.275
219.81599	8777.075
224.09553	10020.475
228.37195	11394.075
232.64527	12895.075
236.91549	14427.475
241.18261	15923.775
245.44663	17156.575
249.70755	18209.875
253.96539	19066.175
258.22014	19813.075
262.4718	20427.975
266.72039	20930.875
270.96589	21211.475
275.20832	21295.675
279.44768	21092.775
283.68397	20784.275
287.91719	20560.175
292.14735	20617.275
296.37445	21034.975
300.59849	21712.475
304.81948	22544.675
309.03742	23096.375
313.25231	22923.975
317.46415	21927.175
321.67296	20451.375
325.87872	19181.675
330.08145	18593.775
334.28114	18525.375
338.47781	18819.375
342.67145	19361.575
346.86207	20128.575
351.04966	21240.875
355.23424	22453.075
359.4158	23440.675
363.59435	23958.975
367.76989	24265.375
371.94243	24340.375
376.11196	24324.775
380.27849	24338.375
384.44203	24191.875
388.60257	23907.075
392.76012	23774.275
396.91468	23927.475
401.06626	24465.275
405.21485	24908.175
409.36047	24555.775
413.50311	23369.475
417.64277	22289.375
421.77947	21666.975
425.9132	21427.875
430.04396	21419.075
434.17176	21592.275
438.2966	21846.775
442.41849	22308.775
446.53742	22898.875
450.6534	23537.275
454.76644	23952.875
458.87653	24105.775
462.98368	23925.275
467.08789	23543.775
471.18916	23048.375
475.2875	22469.875
479.38291	22009.775
483.4754	21646.975
487.56496	21333.275
491.6516	21150.875
495.73531	21036.175
499.81612	21119.075
503.89401	21323.075
507.96899	21621.675
512.04106	21947.075
516.11023	22346.575
520.1765	22642.375
524.23987	22571.975
528.30034	22205.075
532.35792	21801.675
536.41261	21403.975
540.46441	21037.075
544.51333	20837.975
548.55936	20979.675
552.60252	21434.875
556.64279	22014.875
560.6802	22216.175
564.71473	22431.375
568.7464	23139.475
572.7752	23752.775
576.80114	23262.375
580.82422	22638.675
584.84444	22363.175
588.86181	22364.975
592.87633	22430.475
596.888	22680.775
600.89682	23359.675
604.9028	25902.475
608.90594	32687.075
612.90624	41705.575
616.90371	40151.775
620.89834	28716.775
624.89015	23298.475
628.87913	22317.275
632.86528	22418.675
636.84862	22705.675
640.82913	22418.675
644.80683	21523.075
648.78172	20919.875
652.75379	20975.275
656.72306	21839.875
660.68952	22831.275
664.65319	22668.575
668.61405	21606.775
672.57211	21084.475
676.52738	21068.175
680.47986	21104.875
684.42955	20991.475
688.37646	20949.775
692.32058	21046.175
696.26192	21228.375
700.20048	21524.975
704.13626	21691.175
708.06928	21734.975
711.99952	21560.875
715.927	21499.775
719.85171	21588.375
723.77365	21607.375
727.69284	21485.275
731.60928	21315.075
735.52295	21319.675
739.43388	21415.375
743.34206	21585.575
747.24749	21744.675
751.15017	21928.075
755.05012	22349.575
758.94733	23319.075
762.8418	25462.775
766.73354	29242.775
770.62254	33396.475
774.50882	35622.175
778.39237	34099.275
782.27321	29634.275
786.15132	25491.375
790.02671	23274.275
793.89938	22264.875
797.76935	21873.175
801.6366	21669.475
805.50115	21532.075
809.36299	21489.275
813.22213	21416.475
817.07857	21405.275
820.93231	21439.975
824.78336	21562.475
828.63172	21607.575
832.47738	21694.075
836.32036	21657.175
840.16066	21601.975
843.99827	21581.775
847.8332	21499.175
851.66546	21474.775
855.49504	21465.675
859.32195	21448.675
863.1462	21365.475
866.96777	21364.475
870.78668	21357.275
874.60293	21409.375
878.41652	21505.575
882.22745	21590.375
886.03573	21670.875
889.84136	21672.475
893.64433	21526.275
897.44466	21503.675
901.24235	21527.475
905.0374	21500.575
908.8298	21474.075
912.61957	21466.075
916.40671	21582.375
920.19121	21760.475
923.97308	21934.975
927.75233	22146.875
931.52895	22261.575
935.30295	22067.875
939.07433	21589.775
942.84309	21183.175
946.60924	20929.275
950.37278	20790.575
954.13371	20700.575
957.89203	20653.475
961.64774	20621.075
965.40086	20555.675
969.15137	20455.975
972.89929	20422.775
976.64461	20425.075
980.38733	20420.275
984.12747	20454.975
987.86502	20603.175
991.59999	20750.375
995.33237	21067.375
999.06217	21500.175
1002.78939	22118.775
1006.51404	22651.375
1010.23611	23051.675
1013.95561	23415.275
1017.67255	23383.575
1021.38692	23108.175
1025.09872	22894.375
1028.80796	22881.675
1032.51465	23219.775
1036.21877	23614.275
1039.92035	23698.675
1043.61937	23629.875
1047.31584	23287.575
1051.00976	22984.475
1054.70114	22771.375
1058.38998	22726.175
1062.07627	22842.275
1065.76003	22905.075
1069.44126	23026.475
1073.11995	23192.875
1076.79611	23388.275
1080.46974	23739.675
1084.14085	24215.675
1087.80943	24789.075
1091.47549	25011.975
1095.13903	24672.175
1098.80005	23996.975
1102.45857	23402.975
1106.11456	23185.675
1109.76805	23381.175
1113.41903	23863.875
1117.06751	24558.175
1120.71348	25403.975
1124.35696	26185.275
1127.99793	26902.275
1131.63641	26711.475
1135.2724	25712.575
1138.90589	24733.175
1142.5369	24137.075
1146.16542	23737.275
1149.79145	23521.675
1153.415	23545.475
1157.03607	23796.475
1160.65467	24146.475
1164.27079	24861.775
1167.88443	25962.275
1171.49561	27776.875
1175.10432	30696.275
1178.71056	34727.075
1182.31434	37934.475
1185.91565	38826.675
1189.51451	37666.275
1193.11091	35204.875
1196.70485	32473.975
1200.29634	30601.975
1203.88538	29381.475
1207.47197	27998.175
1211.05612	26795.375
1214.63782	26092.375
1218.21708	25927.975
1221.79391	25991.775
1225.36829	26084.175
1228.94024	26066.275
1232.50976	25971.575
1236.07685	25961.875
1239.6415	26090.575
1243.20374	26323.775
1246.76355	26640.375
1250.32093	27028.975
1253.8759	27685.375
1257.42845	28486.575
1260.97859	29206.275
1264.52631	29829.075
1268.07163	30433.275
1271.61453	31030.575
1275.15503	31538.375
1278.69312	31911.875
1282.22882	32192.675
1285.76211	32693.575
1289.29301	33454.175
1292.82151	34288.675
1296.34761	35341.075
1299.87133	36973.375
1303.39266	39719.275
1306.9116	43894.575
1310.42815	48383.475
1313.94233	50676.975
1317.45412	49401.675
1320.96354	46132.175
1324.47058	42734.575
1327.97525	39790.675
1331.47754	38061.375
1334.97747	37727.975
1338.47502	38506.675
1341.97022	39780.975
1345.46305	41287.475
1348.95352	43104.175
1352.44163	45492.075
1355.92738	49372.575
1359.41078	55773.175
1362.89183	62049.475
1366.37053	60402.875
1369.84688	51625.175
1373.32088	42916.875
1376.79254	37319.175
1380.26186	34469.375
1383.72883	33068.875
1387.19347	32189.975
1390.65578	31342.575
1394.11575	30613.875
1397.57339	30244.275
1401.0287	30396.875
1404.48168	30867.075
1407.93234	31598.575
1411.38068	32410.275
1414.82669	32832.075
1418.27039	32497.175
1421.71177	31698.075
1425.15083	30849.175
1428.58758	30388.675
1432.02203	30474.375
1435.45416	30683.375
1438.88399	30864.975
1442.31151	30868.675
1445.73673	31113.175
1449.15965	31314.575
1452.58027	31266.075
1455.9986	30955.275
1459.41463	30775.475
1462.82837	30927.075
1466.23982	31470.775
1469.64898	32205.375
1473.05586	32823.175
1476.46045	33279.975
1479.86276	33994.275
1483.26279	34830.375
1486.66054	35829.475
1490.05602	37044.575
1493.44922	38655.475
1496.84016	40748.675
1500.22882	43886.075
1503.61521	48396.775
1506.99934	53768.975
1510.38121	58366.175
1513.76081	59689.375
1517.13816	56384.275
1520.51324	50031.375
1523.88607	43915.775
1527.25665	39754.275
1530.62498	37392.275
1533.99105	35946.375
1537.35488	35076.575
1540.71647	34591.875
1544.07581	34323.575
1547.4329	34245.975
1550.78776	34108.575
1554.14038	34041.175
1557.49077	34260.575
1560.83892	34735.875
1564.18484	35407.575
1567.52853	36117.475
1570.86999	36748.175
1574.20922	37106.475
1577.54624	36810.075
1580.88103	35189.775
1584.2136	33352.875
1587.54395	32537.175
1590.87208	33197.175
1594.19801	35196.575
1597.52172	37737.875
1600.84321	38991.475
1604.16251	37874.275
1607.47959	35604.375
1610.79447	33068.175
1614.10715	30662.175
1617.41763	28855.775
1620.7259	27663.375
1624.03199	27150.575
1627.33587	27181.175
1630.63757	27725.475
1633.93707	28889.175
1637.23439	30641.175
1640.52951	33078.275
1643.82246	36274.475
1647.11321	40214.375
1650.40179	43082.375
1653.68819	42068.475
1656.97241	37231.175
1660.25446	31804.175
1663.53433	27977.875
1666.81203	25708.575
1670.08756	24336.475
1673.36092	23531.375
1676.63211	22980.375
1679.90115	22632.075
1683.16801	22331.275
1686.43272	22127.375
1689.69527	22054.175
1692.95567	21926.075
1696.2139	21859.475
1699.46999	21865.975
1702.72392	21832.675
1705.97571	21855.675
1709.22535	21785.975
1712.47284	21835.775
1715.71819	21853.175
1718.96139	21827.975
1722.20246	21762.975
1725.44139	21707.275
1728.67818	21554.075
1731.91284	21394.475
1735.14537	21333.875
1738.37576	21197.075
1741.60403	21173.275
1744.83017	21095.375
1748.05418	21079.775
1751.27607	21060.875
1754.49584	21027.375
1757.71349	21064.775
1760.92903	21016.375
1764.14244	21001.275
1767.35375	20992.875
1770.56294	20944.275
1773.77002	20889.275
1776.97499	20886.475
1780.17785	20827.375
1783.37861	20798.375
1786.57727	20774.275
1789.77382	20739.275
1792.96828	20739.075
1796.16064	20769.975
1799.3509	20729.475
1802.53907	20720.075
1805.72514	20648.975
1808.90913	20588.575
1812.09102	20557.175
1815.27083	20536.975
1818.44856	20478.175
1821.6242	20474.875
1824.79776	20458.675
1827.96924	20432.275
1831.13864	20386.575
1834.30597	20455.375
1837.47122	20401.375
1840.6344	20363.575
1843.7955	20381.275
1846.95454	20402.375
1850.11151	20401.475
1853.26642	20345.675
1856.41926	20384.275
1859.57004	20390.075
1862.71876	20377.775
1865.86542	20351.475
1869.01003	20357.675
1872.15258	20346.675
1875.29308	20386.175
1878.43152	20355.975
1881.56792	20335.675
1884.70227	20397.775
1887.83457	20378.975
1890.96482	20368.775
1894.09304	20323.975
1897.21921	20353.575
1900.34335	20314.275
1903.46544	20293.775
1906.58551	20301.875
1909.70353	20327.375
1912.81953	20314.975
1915.93349	20332.875
1919.04543	20241.775
1922.15534	20238.275
1925.26322	20234.375
1928.36908	20198.975
1931.47292	20215.375
1934.57473	20138.975
1937.67453	20074.975
1940.77232	20014.675
1943.86808	19989.975
1946.96184	19910.075
1950.05358	19850.575
1953.14331	19795.775
1956.23103	19760.075
1959.31675	19692.475
1962.40046	19637.375
1965.48217	19581.575
1968.56188	19533.775
1971.63959	19516.175
1974.7153	19445.975
1977.78901	19356.575
1980.86073	19340.375
1983.93046	19269.775
1986.99819	19175.875
1990.06394	19145.375
1993.1277	19060.475
1996.18947	19024.775
1999.24925	19005.475
2002.30706	18986.575
2005.36288	18889.475
2008.41672	18879.375
2011.46859	18804.475
2014.51848	18768.175
2017.56639	18666.575
2020.61233	18660.875
2023.6563	18589.775
2026.6983	18569.875
2029.73833	18497.175
2032.7764	18499.875
2035.8125	18466.675
2038.84664	18435.075
2041.87881	18433.475
2044.90903	18353.775
2047.93729	18354.375
2050.96359	18351.475
2053.98794	18306.675
2057.01034	18277.175
2060.03078	18286.575
2063.04927	18251.575
2066.06582	18275.775
2069.08042	18233.075
2072.09307	18193.075
2075.10378	18166.675
2078.11255	18177.575
2081.11938	18151.175
2084.12426	18114.375
2087.12722	18170.275
2090.12824	18182.975
2093.12732	18153.775
2096.12447	18152.475
2099.11969	18147.375
2102.11299	18115.375
2105.10435	18148.375
2108.09379	18175.475
2111.08131	18194.075
2114.0669	18174.475
2117.05057	18190.875
2120.03233	18210.675
2123.01216	18232.275
2125.99008	18264.575
2128.96609	18269.375
2131.94018	18274.475
2134.91236	18312.575
2137.88263	18308.675
2140.851	18294.175
2143.81746	18322.775
2146.78201	18322.275
2149.74466	18304.475
2152.7054	18330.775
2155.66425	18319.875
2158.6212	18300.175
2161.57625	18280.775
2164.52941	18268.575
2167.48067	18284.575
2170.43004	18273.875
2173.37752	18273.175
2176.32311	18308.975
2179.26681	18293.775
2182.20863	18295.775
2185.14856	18303.975
2188.08661	18305.575
2191.02278	18293.875
2193.95707	18284.275
2196.88948	18262.375
2199.82001	18282.475
2202.74867	18244.175
2205.67545	18216.975
2208.60037	18224.475
2211.52341	18186.175
2214.44458	18227.175
2217.36388	18139.975
2220.28132	18117.975
2223.1969	18074.475
2226.11061	18027.375
2229.02246	17990.975
2231.93245	17971.975
2234.84058	17945.875
2237.74686	17914.975
2240.65128	17892.775
2243.55385	17891.075
2246.45456	17895.875
2249.35343	17876.075
2252.25044	17905.075
2255.14561	17837.175
2258.03893	17825.575
2260.93041	17816.375
2263.82004	17792.875
2266.70783	17761.575
2269.59378	17718.075
2272.4779	17672.775
2275.36017	17662.875
2278.24061	17620.875
2281.11922	17555.575
2283.996	17545.475
2286.87094	17526.875
2289.74405	17476.475
2292.61534	17494.775
2295.4848	17435.775
2298.35243	17414.575
2301.21824	17450.575
2304.08223	17436.875
2306.94439	17424.775
2309.80474	17461.175
2312.66327	17454.175
2315.51999	17436.875
2318.37489	17414.575
2321.22797	17393.875
2324.07925	17413.775
2326.92871	17373.575
2329.77637	17333.875
2332.62222	17327.875
2335.46626	17327.675
2338.3085	17308.975
2341.14893	17330.175
2343.98756	17299.075
2346.8244	17308.875
2349.65943	17337.775
2352.49267	17346.275
2355.32411	17390.375
2358.15376	17354.375
2360.98161	17368.775
2363.80768	17378.675
2366.63195	17377.275
2369.45444	17328.175
2372.27514	17319.575
2375.09405	17310.075
2377.91118	17246.375
2380.72652	17203.475
2383.54009	17110.975
2386.35187	17051.775
2389.16188	17022.875
2391.97011	16957.175
2394.77657	16905.575
2397.58125	16920.975
2400.38416	16889.775
2403.18529	16846.375
2405.98466	16809.275
2408.78226	16758.375
2411.57809	16727.675
2414.37216	16696.175
2417.16446	16695.275
2419.955	16662.475
2422.74378	16667.275
2425.5308	16636.375
2428.31606	16676.175
2431.09956	16665.575
2433.88131	16629.975
2436.6613	16650.075
2439.43954	16646.075
2442.21603	16599.975
2444.99077	16606.475
2447.76377	16602.175
2450.53501	16584.575
2453.30451	16585.975
2456.07226	16563.375
2458.83827	16575.275
2461.60254	16548.875
2464.36507	16547.675
2467.12586	16552.175
2469.88492	16551.575
2472.64224	16536.075
2475.39782	16536.475
2478.15167	16568.575
2480.90379	16567.275
2483.65417	16606.475
2486.40283	16635.575
2489.14976	16655.175
2491.89497	16643.475
2494.63845	16651.375
2497.3802	16644.475
2500.12024	16642.075
2502.85855	16620.075
2505.59514	16576.275
2508.33002	16516.175
2511.06318	16469.575
2513.79462	16460.275
2516.52435	16410.375
2519.25237	16369.275
2521.97867	16329.975
2524.70327	16344.475
2527.42616	16284.475
2530.14734	16295.275
2532.86681	16248.375
2535.58458	16254.375
2538.30065	16237.175
2541.01501	16239.475
2543.72768	16253.475
2546.43864	16243.675
2549.14791	16220.275
2551.85548	16197.375
2554.56136	16158.475
2557.26554	16131.875
2559.96803	16098.375
2562.66883	16099.675
2565.36794	16072.375
2568.06536	16057.775
2570.7611	16028.875
2573.45514	15989.875
2576.14751	15998.375
2578.83819	15971.075
2581.52719	15966.175
2584.21451	15925.275
2586.90015	15899.475
2589.58411	15883.475
2592.2664	15901.875
2594.94701	15869.775
2597.62594	15893.475
2600.30321	15865.175
2602.9788	15872.275
2605.65273	15837.475
2608.32498	15870.475
2610.99557	15836.275
2613.66449	15855.475
2616.33175	15799.475
2618.99734	15832.675
2621.66128	15814.475
2624.32355	15788.875
2626.98416	15773.575
2629.64311	15810.275
2632.30041	15766.375
2634.95605	15769.875
2637.61004	15725.575
2640.26238	15690.575
2642.91306	15650.075
2645.56209	15604.775
2648.20948	15643.775
2650.85521	15600.175
2653.4993	15610.975
2656.14175	15605.975
2658.78255	15627.275
2661.42171	15651.675
2664.05923	15656.075
2666.6951	15679.375
2669.32934	15683.275
2671.96194	15695.975
2674.59291	15740.675
2677.22224	15735.275
2679.84993	15730.675
2682.476	15722.875
2685.10043	15726.775
2687.72324	15690.975
2690.34441	15698.175
2692.96396	15694.375
2695.58188	15745.375
2698.19818	15681.475
2700.81285	15668.175
2703.4259	15679.775
2706.03733	15710.675
2708.64714	15685.875
2711.25533	15682.175
2713.86191	15662.975
2716.46687	15713.475
2719.07021	15695.475
2721.67194	15688.675
2724.27206	15688.775
2726.87057	15659.875
2729.46747	15658.675
2732.06276	15688.375
2734.65644	15675.475
2737.24852	15688.775
2739.83899	15658.175
2742.42786	15676.375
2745.01513	15665.975
2747.60079	15638.575
2750.18486	15617.475
2752.76733	15646.675
2755.3482	15598.775
2757.92747	15589.075
2760.50515	15554.175
2763.08123	15578.875
2765.65573	15569.075
2768.22863	15537.375
2770.79994	15523.275
2773.36967	15519.975
2775.9378	15530.875
2778.50435	15527.675
2781.06932	15487.675
2783.6327	15465.675
2786.1945	15468.275
2788.75471	15456.975
2791.31335	15410.775
2793.87041	15424.075
2796.42589	15403.475
2798.97979	15382.075
2801.53212	15333.075
2804.08288	15316.175
2806.63206	15308.175
2809.17967	15255.475
2811.72571	15257.575
2814.27018	15208.075
2816.81308	15173.275
2819.35442	15210.775
2821.89419	15205.475
2824.43239	15217.475
2826.96904	15189.775
2829.50412	15225.375
2832.03763	15212.675
2834.56959	15217.575
2837.1	15154.375
2839.62884	15168.675
2842.15613	15136.575
2844.68186	15163.875
2847.20604	15145.775
2849.72867	15162.775
2852.24974	15107.875
2854.76927	15108.375
2857.28724	15120.275
2859.80367	15106.175
2862.31855	15096.675
2864.83189	15066.175
2867.34368	15041.675
2869.85393	15040.775
2872.36264	15013.675
2874.8698	15034.175
2877.37543	15010.675
2879.87952	15004.875
2882.38207	14987.675
2884.88308	14964.375
2887.38256	14949.875
2889.88051	14948.075
2892.37692	14956.775
2894.8718	14990.575
2897.36515	14986.075
2899.85698	14957.275
2902.34727	14986.875
2904.83604	14992.275
2907.32328	15010.375
2909.809	14990.075
2912.29319	15004.975
2914.77587	15014.175
2917.25702	15001.075
2919.73665	14946.575
2922.21476	14949.375
2924.69136	14948.875
2927.16644	14957.975
2929.64	14907.775
2932.11205	14875.475
2934.58258	14846.075
2937.05161	14853.875
2939.51912	14885.075
2941.98513	14876.175
2944.44962	14827.275
2946.91261	14818.075
2949.37409	14824.675
2951.83407	14798.775
2954.29254	14775.075
2956.74951	14774.475
2959.20498	14755.775
2961.65895	14741.975
2964.11142	14732.675
2966.56239	14704.675
2969.01186	14696.075
2971.45984	14652.675
2973.90632	14636.575
2976.35131	14588.775
2978.7948	14594.375
2981.23681	14553.275
2983.67732	14525.375
2986.11635	14512.375
2988.55388	14465.375
2990.98993	14446.775
2993.4245	14420.975
2995.85758	14396.875
2998.28917	14362.575
3000.71928	14347.775
3003.14791	14331.275
3005.57506	14314.675
3008.00073	14262.475
3010.42493	14259.975
3012.84764	14247.375
3015.26888	14217.375
3017.68865	14178.275
3020.10694	14167.375
3022.52376	14130.175
3024.9391	14111.775
3027.35298	14098.775
3029.76539	14061.975
3032.17632	14041.775
3034.5858	14010.475
3036.9938	14026.275
3039.40034	14007.775
3041.80542	13989.375
3044.20903	13962.975
3046.61118	13941.175
3049.01187	13897.075
3051.4111	13844.675
3053.80888	13839.275
3056.20519	13807.475
3058.60005	13767.675
3060.99345	13733.675
3063.3854	13696.475
3065.7759	13630.275
3068.16494	13601.375
3070.55254	13561.275
3072.93868	13508.575
3075.32338	13459.875
3077.70662	13438.475
3080.08842	13411.475
3082.46878	13351.475
3084.84769	13314.875
3087.22515	13314.775
3089.60118	13304.375
3091.97576	13279.575
3094.3489	13273.775
3096.72061	13274.175
3099.09087	13292.275
3101.4597	13263.075
3103.82709	13280.375
3106.19305	13235.875
3108.55757	13238.875
3110.92066	13193.775
3113.28232	13210.475
3115.64255	13153.075
3118.00134	13100.175
3120.35871	13088.175
3122.71466	13056.175
3125.06917	13047.475
3127.42226	13005.175
