Data from AgNPs_FTO_APTES_UA_20uM_CRN_2uM_R6G_10uM_NaF_0.1M_Addition_RamanShift__17__13-00-22-087.txt Node

Date: Thu Feb 17 13:00:22 GMT 2022
User: TCL
Spectrometer: QEP01345
Trigger mode: 4
Integration Time (sec): 7.000000E0
Scans to average: 10
Electric dark correction enabled: true
Nonlinearity correction enabled: false
Boxcar width: 0
XAxis mode: Raman Shifts
Number of Pixels in Spectrum: 1044
>>>>>Begin Spectral Data<<<<<
46.04893	-0.625
50.45542	-1.025
54.85868	-2.725
59.25871	-0.225
63.6555	118.375
68.04907	121.075
72.43941	131.175
76.82654	132.975
81.21044	135.675
85.59113	140.375
89.96862	145.375
94.34289	147.675
98.71396	153.875
103.08183	154.575
107.4465	163.075
111.80798	167.175
116.16626	175.475
120.52136	184.075
124.87327	189.675
129.222	207.375
133.56755	218.875
137.90993	236.175
142.24913	259.775
146.58517	305.775
150.91804	353.675
155.24774	428.575
159.57429	539.475
163.89768	701.175
168.21792	945.175
172.53501	1300.575
176.84895	1828.175
181.15975	2598.975
185.46741	3654.675
189.77193	5041.475
194.07331	6752.175
198.37157	8720.375
202.6667	10785.275
206.9587	12842.975
211.24758	14851.375
215.53334	16873.475
219.81599	19020.375
224.09553	21342.675
228.37195	23930.475
232.64527	26834.875
236.91549	29887.775
241.18261	32946.775
245.44663	35837.175
249.70755	38445.175
253.96539	40794.775
258.22014	42764.475
262.4718	44380.775
266.72039	45589.775
270.96589	46282.075
275.20832	46393.675
279.44768	46220.575
283.68397	45883.775
287.91719	45513.775
292.14735	45267.375
296.37445	45212.675
300.59849	45227.975
304.81948	45374.375
309.03742	45302.875
313.25231	44945.675
317.46415	44178.575
321.67296	43279.275
325.87872	42543.275
330.08145	42229.075
334.28114	42237.075
338.47781	42644.975
342.67145	43186.775
346.86207	43846.175
351.04966	44715.375
355.23424	45482.475
359.4158	46170.375
363.59435	46723.575
367.76989	47196.575
371.94243	47563.275
376.11196	47804.275
380.27849	48085.175
384.44203	48378.575
388.60257	48660.175
392.76012	49118.075
396.91468	49638.075
401.06626	50193.175
405.21485	50668.875
409.36047	50522.975
413.50311	50006.075
417.64277	49632.475
421.77947	49640.975
425.9132	49809.075
430.04396	50106.575
434.17176	50419.975
438.2966	50902.775
442.41849	51780.275
446.53742	52993.275
450.6534	54340.975
454.76644	55388.375
458.87653	55852.475
462.98368	55708.875
467.08789	55202.875
471.18916	54498.275
475.2875	53966.375
479.38291	53643.975
483.4754	53357.475
487.56496	52885.175
491.6516	52261.575
495.73531	51602.975
499.81612	51261.775
503.89401	51512.775
507.96899	51641.775
512.04106	51548.975
516.11023	51307.075
520.1765	50920.475
524.23987	50692.975
528.30034	50479.775
532.35792	50141.775
536.41261	49707.275
540.46441	49387.475
544.51333	49404.075
548.55936	49949.475
552.60252	50840.175
556.64279	51960.075
560.6802	52779.575
564.71473	53301.275
568.7464	54058.075
572.7752	55157.075
576.80114	56154.675
580.82422	57011.175
584.84444	57659.875
588.86181	58402.975
592.87633	59172.575
596.888	59097.075
600.89682	58578.875
604.9028	59639.175
608.90594	63494.775
612.90624	67260.775
616.90371	63668.575
620.89834	55553.975
624.89015	51979.275
628.87913	51526.975
632.86528	51692.775
636.84862	51649.175
640.82913	51074.175
644.80683	50111.575
648.78172	49329.575
652.75379	49248.975
656.72306	49802.175
660.68952	50624.875
664.65319	50471.575
668.61405	49796.775
672.57211	49623.375
676.52738	49825.375
680.47986	49735.475
684.42955	49596.475
688.37646	49446.175
692.32058	49716.275
696.26192	50276.075
700.20048	50785.075
704.13626	51136.475
708.06928	51106.775
711.99952	50834.975
715.927	50762.675
719.85171	50902.175
723.77365	50852.075
727.69284	50471.575
731.60928	50041.775
735.52295	49892.975
739.43388	49907.775
743.34206	50082.675
747.24749	50333.275
751.15017	50654.475
755.05012	51313.075
758.94733	52486.675
762.8418	54554.875
766.73354	57867.375
770.62254	60865.675
774.50882	61347.675
778.39237	58998.575
782.27321	55579.175
786.15132	52817.475
790.02671	51118.275
793.89938	50313.575
797.76935	49935.775
801.6366	49872.975
805.50115	49762.675
809.36299	49612.475
813.22213	49363.275
817.07857	49214.275
820.93231	49134.775
824.78336	49021.075
828.63172	48865.575
832.47738	48837.975
836.32036	48896.375
840.16066	48995.275
843.99827	49114.575
847.8332	49102.675
851.66546	49043.975
855.49504	49035.575
859.32195	49028.975
863.1462	49055.975
866.96777	48992.275
870.78668	48961.975
874.60293	48903.075
878.41652	48919.475
882.22745	49133.875
886.03573	49241.175
889.84136	49172.475
893.64433	48983.775
897.44466	48835.675
901.24235	48707.575
905.0374	48537.675
908.8298	48488.775
912.61957	48452.275
916.40671	48826.975
920.19121	49349.575
923.97308	49774.375
927.75233	49742.575
931.52895	49450.275
935.30295	48924.375
939.07433	48384.575
942.84309	47851.275
946.60924	47761.875
950.37278	47743.975
954.13371	47778.975
957.89203	47700.475
961.64774	47598.975
965.40086	47510.175
969.15137	47363.575
972.89929	47266.975
976.64461	47159.275
980.38733	47159.475
984.12747	47265.675
987.86502	47656.275
991.59999	48141.375
995.33237	48842.275
999.06217	49826.675
1002.78939	50964.475
1006.51404	51790.875
1010.23611	52462.675
1013.95561	52911.575
1017.67255	52873.275
1021.38692	52420.375
1025.09872	51805.975
1028.80796	51574.075
1032.51465	52024.475
1036.21877	52525.575
1039.92035	52649.375
1043.61937	52345.175
1047.31584	51860.175
1051.00976	51241.175
1054.70114	51026.675
1058.38998	51154.175
1062.07627	51495.975
1065.76003	51875.275
1069.44126	52393.675
1073.11995	52980.075
1076.79611	53527.675
1080.46974	53948.675
1084.14085	54436.475
1087.80943	54976.675
1091.47549	55320.375
1095.13903	55308.375
1098.80005	54780.675
1102.45857	54018.775
1106.11456	53475.375
1109.76805	53204.175
1113.41903	53407.375
1117.06751	53626.875
1120.71348	53975.875
1124.35696	54404.975
1127.99793	54764.175
1131.63641	54885.475
1135.2724	54697.175
1138.90589	54371.475
1142.5369	54320.975
1146.16542	54424.475
1149.79145	54663.975
1153.415	55073.575
1157.03607	55774.675
1160.65467	57000.575
1164.27079	58800.575
1167.88443	61319.675
1171.49561	64454.275
1175.10432	68332.975
1178.71056	73157.575
1182.31434	77571.975
1185.91565	79764.575
1189.51451	79603.775
1193.11091	77741.275
1196.70485	75131.975
1200.29634	72583.575
1203.88538	70611.075
1207.47197	69308.275
1211.05612	68196.075
1214.63782	67096.975
1218.21708	66208.175
1221.79391	65661.675
1225.36829	65312.175
1228.94024	64594.575
1232.50976	63409.075
1236.07685	62403.875
1239.6415	61879.575
1243.20374	61826.175
1246.76355	62173.075
1250.32093	63005.875
1253.8759	64053.675
1257.42845	65416.875
1260.97859	66872.675
1264.52631	68414.575
1268.07163	70110.875
1271.61453	71800.075
1275.15503	73523.775
1278.69312	75182.975
1282.22882	76683.975
1285.76211	78326.575
1289.29301	80302.875
1292.82151	82737.975
1296.34761	86041.875
1299.87133	90177.675
1303.39266	94736.875
1306.9116	99647.975
1310.42815	104474.875
1313.94233	107525.475
1317.45412	108098.675
1320.96354	107019.375
1324.47058	105721.975
1327.97525	104294.375
1331.47754	103146.375
1334.97747	102502.475
1338.47502	102435.075
1341.97022	102353.075
1345.46305	101560.275
1348.95352	100210.975
1352.44163	98718.675
1355.92738	99002.375
1359.41078	101218.575
1362.89183	103263.175
1366.37053	101309.675
1369.84688	94405.875
1373.32088	86282.075
1376.79254	80753.275
1380.26186	78578.475
1383.72883	78405.775
1387.19347	78529.175
1390.65578	78243.375
1394.11575	78302.875
1397.57339	79171.475
1401.0287	80464.475
1404.48168	81789.075
1407.93234	82191.475
1411.38068	81265.675
1414.82669	79279.875
1418.27039	76515.175
1421.71177	73710.675
1425.15083	71291.075
1428.58758	70066.875
1432.02203	70384.775
1435.45416	71826.675
1438.88399	73673.475
1442.31151	75378.075
1445.73673	76561.975
1449.15965	77330.475
1452.58027	78026.875
1455.9986	78269.275
1459.41463	78823.475
1462.82837	79922.675
1466.23982	81119.875
1469.64898	82281.975
1473.05586	82890.975
1476.46045	82837.275
1479.86276	82098.075
1483.26279	81100.875
1486.66054	80381.475
1490.05602	80233.275
1493.44922	80499.575
1496.84016	80876.375
1500.22882	81842.875
1503.61521	83715.975
1506.99934	86121.575
1510.38121	87966.875
1513.76081	88143.375
1517.13816	86236.575
1520.51324	83330.475
1523.88607	81146.375
1527.25665	80163.975
1530.62498	80245.675
1533.99105	80456.375
1537.35488	80305.475
1540.71647	79540.475
1544.07581	78407.875
1547.4329	77055.475
1550.78776	75765.375
1554.14038	74766.675
1557.49077	74146.975
1560.83892	73778.175
1564.18484	73617.375
1567.52853	73610.575
1570.86999	73988.775
1574.20922	74712.475
1577.54624	75393.975
1580.88103	75382.975
1584.2136	75727.575
1587.54395	77397.675
1590.87208	80681.275
1594.19801	85341.875
1597.52172	89910.975
1600.84321	91431.375
1604.16251	88391.775
1607.47959	82865.975
1610.79447	76848.075
1614.10715	71236.775
1617.41763	66390.175
1620.7259	62886.775
1624.03199	61091.775
1627.33587	60810.775
1630.63757	62112.675
1633.93707	65430.575
1637.23439	70970.175
1640.52951	78869.175
1643.82246	87480.475
1647.11321	93641.675
1650.40179	93991.075
1653.68819	87708.875
1656.97241	77425.275
1660.25446	67739.075
1663.53433	60625.775
1666.81203	55962.775
1670.08756	53053.175
1673.36092	51220.875
1676.63211	49992.475
1679.90115	49045.075
1683.16801	48366.775
1686.43272	47918.075
1689.69527	47506.475
1692.95567	47204.375
1696.2139	47054.875
1699.46999	46958.975
1702.72392	46770.475
1705.97571	46733.175
1709.22535	46586.475
1712.47284	46514.875
1715.71819	46559.775
1718.96139	46438.575
1722.20246	46295.175
1725.44139	46067.375
1728.67818	45916.575
1731.91284	45663.975
1735.14537	45443.775
1738.37576	45263.075
1741.60403	45163.275
1744.83017	44928.475
1748.05418	44807.275
1751.27607	44734.675
1754.49584	44717.875
1757.71349	44704.175
1760.92903	44669.875
1764.14244	44621.875
1767.35375	44547.975
1770.56294	44441.975
1773.77002	44460.875
1776.97499	44443.175
1780.17785	44354.175
1783.37861	44279.975
1786.57727	44183.575
1789.77382	44118.575
1792.96828	44064.575
1796.16064	44008.975
1799.3509	43936.275
1802.53907	43849.375
1805.72514	43795.875
1808.90913	43667.175
1812.09102	43657.175
1815.27083	43509.675
1818.44856	43418.475
1821.6242	43424.375
1824.79776	43371.675
1827.96924	43335.175
1831.13864	43300.875
1834.30597	43280.575
1837.47122	43257.075
1840.6344	43222.575
1843.7955	43294.975
1846.95454	43256.975
1850.11151	43203.675
1853.26642	43228.175
1856.41926	43201.475
1859.57004	43174.875
1862.71876	43055.675
1865.86542	43088.675
1869.01003	43021.575
1872.15258	42958.075
1875.29308	42932.875
1878.43152	42871.675
1881.56792	42877.375
1884.70227	42882.875
1887.83457	42889.475
1890.96482	42915.375
1894.09304	42836.175
1897.21921	42726.675
1900.34335	42656.575
1903.46544	42612.375
1906.58551	42632.975
1909.70353	42631.075
1912.81953	42583.775
1915.93349	42460.775
1919.04543	42330.575
1922.15534	42333.975
1925.26322	42241.275
1928.36908	42153.975
1931.47292	42104.075
1934.57473	41944.375
1937.67453	41953.575
1940.77232	41795.375
1943.86808	41656.875
1946.96184	41601.175
1950.05358	41445.475
1953.14331	41349.775
1956.23103	41215.775
1959.31675	41126.675
1962.40046	40993.175
1965.48217	40802.875
1968.56188	40717.075
1971.63959	40624.975
1974.7153	40539.575
1977.78901	40437.275
1980.86073	40289.275
1983.93046	40178.175
1986.99819	40049.375
1990.06394	39970.775
1993.1277	39927.575
1996.18947	39778.375
1999.24925	39665.375
2002.30706	39580.075
2005.36288	39427.275
2008.41672	39306.875
2011.46859	39219.475
2014.51848	39158.975
2017.56639	39031.675
2020.61233	38864.375
2023.6563	38828.475
2026.6983	38747.875
2029.73833	38695.975
2032.7764	38570.375
2035.8125	38523.775
2038.84664	38460.275
2041.87881	38452.275
2044.90903	38403.275
2047.93729	38264.275
2050.96359	38244.775
2053.98794	38233.775
2057.01034	38243.175
2060.03078	38252.475
2063.04927	38193.575
2066.06582	38178.875
2069.08042	38155.575
2072.09307	38082.775
2075.10378	38044.975
2078.11255	37991.875
2081.11938	38040.875
2084.12426	37986.875
2087.12722	37996.575
2090.12824	37927.775
2093.12732	37977.475
2096.12447	37926.275
2099.11969	37905.575
2102.11299	37938.475
2105.10435	37973.075
2108.09379	37950.575
2111.08131	38000.775
2114.0669	37998.675
2117.05057	37995.575
2120.03233	37994.375
2123.01216	38066.175
2125.99008	38118.575
2128.96609	38192.675
2131.94018	38184.475
2134.91236	38259.975
2137.88263	38261.875
2140.851	38289.775
2143.81746	38305.475
2146.78201	38343.175
2149.74466	38376.175
2152.7054	38364.075
2155.66425	38299.575
2158.6212	38329.975
2161.57625	38320.675
2164.52941	38329.375
2167.48067	38336.175
2170.43004	38319.775
2173.37752	38291.975
2176.32311	38285.175
2179.26681	38298.775
2182.20863	38323.375
2185.14856	38348.175
2188.08661	38332.875
2191.02278	38339.475
2193.95707	38262.275
2196.88948	38265.475
2199.82001	38256.775
2202.74867	38182.675
2205.67545	38210.575
2208.60037	38105.875
2211.52341	38085.075
2214.44458	38083.675
2217.36388	38006.875
2220.28132	37949.675
2223.1969	37879.375
2226.11061	37823.275
2229.02246	37688.775
2231.93245	37621.975
2234.84058	37592.975
2237.74686	37549.275
2240.65128	37511.975
2243.55385	37375.875
2246.45456	37436.475
2249.35343	37337.875
2252.25044	37285.675
2255.14561	37236.275
2258.03893	37254.175
2260.93041	37164.675
2263.82004	37033.775
2266.70783	36949.175
2269.59378	36887.375
2272.4779	36806.375
2275.36017	36746.475
2278.24061	36660.775
2281.11922	36625.475
2283.996	36502.175
2286.87094	36554.075
2289.74405	36489.275
2292.61534	36482.275
2295.4848	36437.975
2298.35243	36461.775
2301.21824	36436.575
2304.08223	36348.475
2306.94439	36396.575
2309.80474	36441.975
2312.66327	36399.675
2315.51999	36332.175
2318.37489	36384.275
2321.22797	36309.175
2324.07925	36246.975
2326.92871	36211.075
2329.77637	36102.975
2332.62222	36064.475
2335.46626	36092.375
2338.3085	36069.375
2341.14893	36090.175
2343.98756	36055.675
2346.8244	36054.975
2349.65943	36064.475
2352.49267	36114.375
2355.32411	36067.675
2358.15376	36034.375
2360.98161	36048.475
2363.80768	35955.675
2366.63195	35945.475
2369.45444	35894.175
2372.27514	35874.575
2375.09405	35855.475
2377.91118	35763.475
2380.72652	35668.475
2383.54009	35561.175
2386.35187	35528.175
2389.16188	35388.575
2391.97011	35317.475
2394.77657	35324.775
2397.58125	35301.075
2400.38416	35254.375
2403.18529	35182.475
2405.98466	35140.175
2408.78226	35064.375
2411.57809	34996.375
2414.37216	34986.075
2417.16446	34971.975
2419.955	34938.475
2422.74378	34932.275
2425.5308	34881.375
2428.31606	34866.075
2431.09956	34894.875
2433.88131	34866.575
2436.6613	34873.175
2439.43954	34847.675
2442.21603	34812.275
2444.99077	34823.375
2447.76377	34770.975
2450.53501	34709.775
2453.30451	34780.475
2456.07226	34672.075
2458.83827	34673.475
2461.60254	34653.175
2464.36507	34616.675
2467.12586	34691.375
2469.88492	34646.475
2472.64224	34637.875
2475.39782	34677.475
2478.15167	34638.675
2480.90379	34677.675
2483.65417	34698.675
2486.40283	34691.575
2489.14976	34733.575
2491.89497	34692.275
2494.63845	34680.775
2497.3802	34706.475
2500.12024	34660.975
2502.85855	34659.975
2505.59514	34641.075
2508.33002	34543.575
2511.06318	34538.675
2513.79462	34557.775
2516.52435	34511.175
2519.25237	34505.475
2521.97867	34447.275
2524.70327	34469.175
2527.42616	34400.175
2530.14734	34387.175
2532.86681	34358.675
2535.58458	34350.375
2538.30065	34329.575
2541.01501	34323.175
2543.72768	34351.475
2546.43864	34299.275
2549.14791	34219.575
2551.85548	34164.375
2554.56136	34098.575
2557.26554	34026.075
2559.96803	34002.875
2562.66883	33983.875
2565.36794	33968.775
2568.06536	33931.875
2570.7611	33816.475
2573.45514	33810.375
2576.14751	33780.775
2578.83819	33759.875
2581.52719	33769.475
2584.21451	33736.975
2586.90015	33700.175
2589.58411	33645.875
2592.2664	33677.675
2594.94701	33639.675
2597.62594	33616.475
2600.30321	33584.275
2602.9788	33612.075
2605.65273	33608.875
2608.32498	33583.275
2610.99557	33559.475
2613.66449	33627.075
2616.33175	33536.475
2618.99734	33512.075
2621.66128	33467.475
2624.32355	33437.375
2626.98416	33466.275
2629.64311	33378.375
2632.30041	33404.575
2634.95605	33377.075
2637.61004	33332.275
2640.26238	33289.575
2642.91306	33325.475
2645.56209	33268.975
2648.20948	33317.575
2650.85521	33286.975
2653.4993	33288.375
2656.14175	33286.975
2658.78255	33325.075
2661.42171	33303.475
2664.05923	33375.875
2666.6951	33352.875
2669.32934	33353.275
2671.96194	33338.175
2674.59291	33363.375
2677.22224	33395.575
2679.84993	33422.775
2682.476	33354.975
2685.10043	33299.475
2687.72324	33260.675
2690.34441	33264.375
2692.96396	33279.375
2695.58188	33333.175
2698.19818	33247.275
2700.81285	33235.175
2703.4259	33214.175
2706.03733	33274.975
2708.64714	33232.075
2711.25533	33257.975
2713.86191	33271.675
2716.46687	33367.175
2719.07021	33375.375
2721.67194	33366.675
2724.27206	33304.475
2726.87057	33373.075
2729.46747	33353.775
2732.06276	33373.375
2734.65644	33374.075
2737.24852	33435.775
2739.83899	33391.875
2742.42786	33379.675
2745.01513	33384.875
2747.60079	33347.975
2750.18486	33302.975
2752.76733	33319.475
2755.3482	33252.775
2757.92747	33206.775
2760.50515	33165.075
2763.08123	33181.475
2765.65573	33186.175
2768.22863	33172.875
2770.79994	33107.575
2773.36967	33153.875
2775.9378	33204.875
2778.50435	33176.375
2781.06932	33150.475
2783.6327	33097.675
2786.1945	33099.775
2788.75471	33057.475
2791.31335	32955.175
2793.87041	32926.575
2796.42589	32825.975
2798.97979	32795.575
2801.53212	32679.175
2804.08288	32611.875
2806.63206	32614.175
2809.17967	32550.275
2811.72571	32486.075
2814.27018	32349.075
2816.81308	32277.375
2819.35442	32224.075
2821.89419	32161.575
2824.43239	32169.575
2826.96904	32139.675
2829.50412	32136.775
2832.03763	32021.575
2834.56959	32017.275
2837.1	31992.975
2839.62884	31961.375
2842.15613	31934.375
2844.68186	31950.075
2847.20604	31873.875
2849.72867	31867.275
2852.24974	31798.575
2854.76927	31726.875
2857.28724	31698.075
2859.80367	31720.675
2862.31855	31688.675
2864.83189	31649.175
2867.34368	31586.275
2869.85393	31597.975
2872.36264	31616.775
2874.8698	31542.975
2877.37543	31478.275
2879.87952	31460.575
2882.38207	31514.875
2884.88308	31494.975
2887.38256	31512.975
2889.88051	31494.575
2892.37692	31506.275
2894.8718	31502.375
2897.36515	31539.475
2899.85698	31567.375
2902.34727	31601.675
2904.83604	31615.975
2907.32328	31641.875
2909.809	31650.775
2912.29319	31719.375
2914.77587	31713.075
2917.25702	31683.575
2919.73665	31696.075
2922.21476	31654.275
2924.69136	31628.475
2927.16644	31619.875
2929.64	31573.475
2932.11205	31547.675
2934.58258	31437.475
2937.05161	31521.475
2939.51912	31498.575
2941.98513	31414.775
2944.44962	31399.275
2946.91261	31340.175
2949.37409	31393.875
2951.83407	31322.575
2954.29254	31308.275
2956.74951	31300.475
2959.20498	31319.575
2961.65895	31242.475
2964.11142	31280.675
2966.56239	31249.175
2969.01186	31206.075
2971.45984	31114.475
2973.90632	31073.375
2976.35131	31038.375
2978.7948	30993.275
2981.23681	30937.175
2983.67732	30877.275
2986.11635	30823.675
2988.55388	30774.975
2990.98993	30726.475
2993.4245	30689.475
2995.85758	30588.875
2998.28917	30455.175
3000.71928	30419.875
3003.14791	30330.175
3005.57506	30307.275
3008.00073	30223.175
3010.42493	30216.775
3012.84764	30113.475
3015.26888	30125.275
3017.68865	30021.175
3020.10694	29989.575
3022.52376	29922.375
3024.9391	29893.775
3027.35298	29873.075
3029.76539	29847.075
3032.17632	29885.275
3034.5858	29821.475
3036.9938	29774.375
3039.40034	29760.875
3041.80542	29730.575
3044.20903	29693.475
3046.61118	29661.575
3049.01187	29551.975
3051.4111	29497.175
3053.80888	29433.575
3056.20519	29421.075
3058.60005	29342.975
3060.99345	29302.075
3063.3854	29198.275
3065.7759	29146.675
3068.16494	29054.775
3070.55254	28962.075
3072.93868	28866.275
3075.32338	28797.875
3077.70662	28777.275
3080.08842	28648.675
3082.46878	28594.475
3084.84769	28458.675
3087.22515	28497.575
3089.60118	28515.575
3091.97576	28456.375
3094.3489	28487.175
3096.72061	28448.275
3099.09087	28416.075
3101.4597	28433.675
3103.82709	28430.975
3106.19305	28387.975
3108.55757	28381.275
3110.92066	28340.375
3113.28232	28319.875
3115.64255	28198.575
3118.00134	28097.475
3120.35871	27997.375
3122.71466	27957.875
3125.06917	27884.175
