Data from AgNPs_FTO_APTES_UA_20uM_CRN_5uM_R6G_10uM_NaF_0.1M_Addition_RamanShift__32__14-09-12-177.txt Node

Date: Thu Feb 17 14:09:12 GMT 2022
User: TCL
Spectrometer: QEP01345
Trigger mode: 4
Integration Time (sec): 7.000000E0
Scans to average: 10
Electric dark correction enabled: true
Nonlinearity correction enabled: false
Boxcar width: 0
XAxis mode: Raman Shifts
Number of Pixels in Spectrum: 1044
>>>>>Begin Spectral Data<<<<<
46.04893	-0.4625
50.45542	-0.0625
54.85868	-1.3625
59.25871	0.8375
63.6555	69.2375
68.04907	75.6375
72.43941	76.8375
76.82654	78.4375
81.21044	80.7375
85.59113	85.9375
89.96862	85.9375
94.34289	90.8375
98.71396	88.9375
103.08183	94.9375
107.4465	97.6375
111.80798	101.8375
116.16626	104.4375
120.52136	107.1375
124.87327	109.9375
129.222	117.3375
133.56755	124.0375
137.90993	132.1375
142.24913	145.7375
146.58517	161.4375
150.91804	194.3375
155.24774	227.6375
159.57429	284.1375
163.89768	374.8375
168.21792	488.9375
172.53501	681.5375
176.84895	944.3375
181.15975	1322.2375
185.46741	1860.3375
189.77193	2567.4375
194.07331	3448.3375
198.37157	4446.4375
202.6667	5525.3375
206.9587	6601.8375
211.24758	7631.6375
215.53334	8751.8375
219.81599	9939.7375
224.09553	11348.4375
228.37195	12883.3375
232.64527	14546.1375
236.91549	16276.1375
241.18261	17884.9375
245.44663	19303.0375
249.70755	20474.4375
253.96539	21441.3375
258.22014	22275.6375
262.4718	22993.4375
266.72039	23611.9375
270.96589	23972.1375
275.20832	23982.7375
279.44768	23812.4375
283.68397	23520.4375
287.91719	23239.3375
292.14735	23312.8375
296.37445	23710.8375
300.59849	24438.2375
304.81948	25302.1375
309.03742	25832.7375
313.25231	25674.2375
317.46415	24495.0375
321.67296	22866.1375
325.87872	21483.9375
330.08145	20821.6375
334.28114	20743.5375
338.47781	21087.2375
342.67145	21653.4375
346.86207	22526.2375
351.04966	23647.9375
355.23424	25009.0375
359.4158	26048.5375
363.59435	26642.6375
367.76989	26897.5375
371.94243	26969.7375
376.11196	26973.5375
380.27849	26939.5375
384.44203	26800.2375
388.60257	26504.1375
392.76012	26340.8375
396.91468	26511.6375
401.06626	27124.4375
405.21485	27610.7375
409.36047	27213.2375
413.50311	25978.7375
417.64277	24789.8375
421.77947	24105.7375
425.9132	23879.2375
430.04396	23915.4375
434.17176	24045.1375
438.2966	24405.7375
442.41849	24954.8375
446.53742	25670.3375
450.6534	26496.3375
454.76644	26985.9375
458.87653	27115.9375
462.98368	26900.4375
467.08789	26470.7375
471.18916	25936.9375
475.2875	25266.8375
479.38291	24757.2375
483.4754	24366.5375
487.56496	23957.3375
491.6516	23684.7375
495.73531	23499.3375
499.81612	23460.8375
503.89401	23698.4375
507.96899	24005.3375
512.04106	24305.4375
516.11023	24611.1375
520.1765	24920.2375
524.23987	24820.7375
528.30034	24468.9375
532.35792	24008.2375
536.41261	23560.1375
540.46441	23134.3375
544.51333	22904.4375
548.55936	23107.1375
552.60252	23659.8375
556.64279	24363.0375
560.6802	24704.7375
564.71473	25021.8375
568.7464	25915.0375
572.7752	26646.6375
576.80114	26166.7375
580.82422	25506.9375
584.84444	25234.5375
588.86181	25250.7375
592.87633	25432.3375
596.888	25693.9375
600.89682	26333.2375
604.9028	28971.9375
608.90594	36354.6375
612.90624	45925.3375
616.90371	43927.6375
620.89834	31292.4375
624.89015	25377.0375
628.87913	24273.4375
632.86528	24426.6375
636.84862	24774.9375
640.82913	24432.5375
644.80683	23384.4375
648.78172	22658.5375
652.75379	22758.9375
656.72306	23663.8375
660.68952	24788.7375
664.65319	24532.7375
668.61405	23403.7375
672.57211	22849.9375
676.52738	22800.2375
680.47986	22877.1375
684.42955	22684.5375
688.37646	22646.2375
692.32058	22749.7375
696.26192	23009.2375
700.20048	23328.3375
704.13626	23581.1375
708.06928	23556.3375
711.99952	23406.8375
715.927	23357.1375
719.85171	23407.7375
723.77365	23390.8375
727.69284	23243.1375
731.60928	23085.8375
735.52295	23061.9375
739.43388	23169.0375
743.34206	23309.7375
747.24749	23514.6375
751.15017	23701.4375
755.05012	24173.1375
758.94733	25273.9375
762.8418	27744.3375
766.73354	31974.4375
770.62254	36563.4375
774.50882	38799.5375
778.39237	36918.6375
782.27321	32052.0375
786.15132	27624.6375
790.02671	25097.1375
793.89938	23981.1375
797.76935	23519.0375
801.6366	23290.4375
805.50115	23175.7375
809.36299	23074.1375
813.22213	22974.3375
817.07857	22955.3375
820.93231	23033.1375
824.78336	23075.1375
828.63172	23222.8375
832.47738	23234.3375
836.32036	23244.2375
840.16066	23170.3375
843.99827	23071.4375
847.8332	22999.7375
851.66546	22943.6375
855.49504	22969.3375
859.32195	22937.3375
863.1462	22859.2375
866.96777	22773.4375
870.78668	22793.0375
874.60293	22848.3375
878.41652	22952.8375
882.22745	23089.0375
886.03573	23169.3375
889.84136	23136.7375
893.64433	22966.5375
897.44466	22915.9375
901.24235	22894.0375
905.0374	22877.4375
908.8298	22873.6375
912.61957	22867.5375
916.40671	23006.4375
920.19121	23238.3375
923.97308	23462.4375
927.75233	23630.0375
931.52895	23706.9375
935.30295	23445.4375
939.07433	22940.8375
942.84309	22462.6375
946.60924	22210.7375
950.37278	22038.9375
954.13371	21996.7375
957.89203	21897.8375
961.64774	21854.8375
965.40086	21798.3375
969.15137	21754.9375
972.89929	21680.0375
976.64461	21666.0375
980.38733	21642.4375
984.12747	21688.4375
987.86502	21859.7375
991.59999	22059.0375
995.33237	22366.5375
999.06217	22922.0375
1002.78939	23564.2375
1006.51404	24195.2375
1010.23611	24754.7375
1013.95561	25082.2375
1017.67255	25010.3375
1021.38692	24665.5375
1025.09872	24355.9375
1028.80796	24261.4375
1032.51465	24576.2375
1036.21877	24958.2375
1039.92035	25082.0375
1043.61937	25013.4375
1047.31584	24707.9375
1051.00976	24344.2375
1054.70114	24207.7375
1058.38998	24161.5375
1062.07627	24266.6375
1065.76003	24434.8375
1069.44126	24587.9375
1073.11995	24804.7375
1076.79611	25091.0375
1080.46974	25434.3375
1084.14085	25997.2375
1087.80943	26622.0375
1091.47549	26894.4375
1095.13903	26558.5375
1098.80005	25808.0375
1102.45857	25115.8375
1106.11456	24836.8375
1109.76805	24991.5375
1113.41903	25520.5375
1117.06751	26266.7375
1120.71348	27153.1375
1124.35696	28025.2375
1127.99793	28797.9375
1131.63641	28631.9375
1135.2724	27556.7375
1138.90589	26499.9375
1142.5369	25892.4375
1146.16542	25478.6375
1149.79145	25296.1375
1153.415	25389.3375
1157.03607	25657.3375
1160.65467	26149.8375
1164.27079	27001.0375
1167.88443	28361.4375
1171.49561	30522.5375
1175.10432	33983.5375
1178.71056	38623.1375
1182.31434	42347.4375
1185.91565	43434.5375
1189.51451	42151.5375
1193.11091	39450.5375
1196.70485	36405.0375
1200.29634	34255.0375
1203.88538	32729.2375
1207.47197	31095.3375
1211.05612	29732.6375
1214.63782	28941.7375
1218.21708	28722.5375
1221.79391	28713.8375
1225.36829	28778.1375
1228.94024	28633.6375
1232.50976	28435.5375
1236.07685	28360.5375
1239.6415	28501.6375
1243.20374	28741.7375
1246.76355	28956.8375
1250.32093	29430.4375
1253.8759	30166.0375
1257.42845	31082.1375
1260.97859	31966.3375
1264.52631	32760.1375
1268.07163	33525.0375
1271.61453	34245.2375
1275.15503	34896.5375
1278.69312	35289.7375
1282.22882	35677.0375
1285.76211	36353.1375
1289.29301	37419.8375
1292.82151	38658.9375
1296.34761	40044.5375
1299.87133	42125.0375
1303.39266	45340.9375
1306.9116	50043.2375
1310.42815	55214.7375
1313.94233	57927.7375
1317.45412	56767.8375
1320.96354	53447.4375
1324.47058	49796.9375
1327.97525	46655.7375
1331.47754	44694.4375
1334.97747	44258.2375
1338.47502	44886.0375
1341.97022	46074.7375
1345.46305	47342.9375
1348.95352	48991.9375
1352.44163	51383.4375
1355.92738	55517.7375
1359.41078	62469.1375
1362.89183	69264.5375
1366.37053	67642.7375
1369.84688	58032.2375
1373.32088	48296.3375
1376.79254	42030.2375
1380.26186	38957.1375
1383.72883	37563.8375
1387.19347	36597.5375
1390.65578	35644.8375
1394.11575	34926.4375
1397.57339	34729.8375
1401.0287	35070.7375
1404.48168	35764.0375
1407.93234	36590.3375
1411.38068	37339.9375
1414.82669	37436.6375
1418.27039	36760.3375
1421.71177	35514.4375
1425.15083	34327.3375
1428.58758	33646.2375
1432.02203	33666.9375
1435.45416	34094.6375
1438.88399	34391.2375
1442.31151	34613.0375
1445.73673	34985.8375
1449.15965	35327.7375
1452.58027	35323.0375
1455.9986	35060.0375
1459.41463	34928.2375
1462.82837	35226.7375
1466.23982	35867.8375
1469.64898	36762.3375
1473.05586	37464.4375
1476.46045	37979.4375
1479.86276	38591.0375
1483.26279	39427.0375
1486.66054	40375.4375
1490.05602	41532.6375
1493.44922	43107.2375
1496.84016	45227.8375
1500.22882	48542.7375
1503.61521	53297.6375
1506.99934	59043.8375
1510.38121	64025.5375
1513.76081	65425.5375
1517.13816	61927.2375
1520.51324	55118.7375
1523.88607	48581.5375
1527.25665	44201.5375
1530.62498	41771.9375
1533.99105	40331.3375
1537.35488	39377.0375
1540.71647	38762.4375
1544.07581	38387.1375
1547.4329	38137.6375
1550.78776	37777.1375
1554.14038	37576.7375
1557.49077	37662.3375
1560.83892	38107.5375
1564.18484	38888.1375
1567.52853	39724.2375
1570.86999	40370.4375
1574.20922	40853.0375
1577.54624	40546.5375
1580.88103	38956.8375
1584.2136	36962.5375
1587.54395	36318.3375
1590.87208	37377.9375
1594.19801	39892.3375
1597.52172	43022.6375
1600.84321	44370.0375
1604.16251	42959.8375
1607.47959	40047.3375
1610.79447	36732.1375
1614.10715	33648.2375
1617.41763	31334.6375
1620.7259	29848.2375
1624.03199	29216.3375
1627.33587	29228.3375
1630.63757	29914.1375
1633.93707	31409.1375
1637.23439	33650.6375
1640.52951	36876.7375
1643.82246	41149.3375
1647.11321	45981.4375
1650.40179	49111.0375
1653.68819	47532.1375
1656.97241	41461.8375
1660.25446	34914.3375
1663.53433	30227.9375
1666.81203	27494.9375
1670.08756	25799.7375
1673.36092	24823.9375
1676.63211	24179.4375
1679.90115	23710.8375
1683.16801	23370.8375
1686.43272	23155.6375
1689.69527	23019.2375
1692.95567	22867.9375
1696.2139	22823.1375
1699.46999	22795.7375
1702.72392	22756.2375
1705.97571	22738.7375
1709.22535	22645.4375
1712.47284	22712.8375
1715.71819	22720.4375
1718.96139	22735.6375
1722.20246	22621.1375
1725.44139	22517.6375
1728.67818	22387.2375
1731.91284	22215.4375
1735.14537	22107.1375
1738.37576	21957.3375
1741.60403	21931.6375
1744.83017	21870.4375
1748.05418	21836.8375
1751.27607	21772.1375
1754.49584	21758.7375
1757.71349	21741.9375
1760.92903	21756.1375
1764.14244	21729.0375
1767.35375	21690.0375
1770.56294	21634.4375
1773.77002	21650.3375
1776.97499	21587.9375
1780.17785	21569.3375
1783.37861	21494.2375
1786.57727	21454.4375
1789.77382	21410.5375
1792.96828	21406.8375
1796.16064	21421.8375
1799.3509	21384.4375
1802.53907	21394.7375
1805.72514	21304.8375
1808.90913	21262.6375
1812.09102	21188.5375
1815.27083	21170.6375
1818.44856	21160.0375
1821.6242	21098.3375
1824.79776	21028.9375
1827.96924	21074.3375
1831.13864	21044.8375
1834.30597	21021.0375
1837.47122	21022.6375
1840.6344	20958.1375
1843.7955	21000.4375
1846.95454	20982.7375
1850.11151	20960.7375
1853.26642	20979.6375
1856.41926	20977.9375
1859.57004	20978.9375
1862.71876	20927.9375
1865.86542	20983.9375
1869.01003	20965.6375
1872.15258	20959.3375
1875.29308	20947.1375
1878.43152	20915.6375
1881.56792	20943.8375
1884.70227	20957.3375
1887.83457	20998.5375
1890.96482	20961.1375
1894.09304	20941.6375
1897.21921	20951.2375
1900.34335	20921.4375
1903.46544	20897.2375
1906.58551	20920.1375
1909.70353	20912.6375
1912.81953	20958.1375
1915.93349	20920.4375
1919.04543	20857.6375
1922.15534	20851.3375
1925.26322	20822.1375
1928.36908	20762.2375
1931.47292	20743.7375
1934.57473	20708.8375
1937.67453	20629.2375
1940.77232	20584.2375
1943.86808	20490.7375
1946.96184	20439.2375
1950.05358	20399.0375
1953.14331	20363.3375
1956.23103	20245.4375
1959.31675	20208.2375
1962.40046	20138.9375
1965.48217	20059.4375
1968.56188	20051.3375
1971.63959	19981.5375
1974.7153	19954.9375
1977.78901	19884.8375
1980.86073	19796.3375
1983.93046	19779.8375
1986.99819	19688.6375
1990.06394	19627.7375
1993.1277	19581.0375
1996.18947	19532.0375
1999.24925	19489.9375
2002.30706	19420.0375
2005.36288	19351.8375
2008.41672	19340.1375
2011.46859	19250.9375
2014.51848	19203.7375
2017.56639	19134.0375
2020.61233	19087.1375
2023.6563	19038.7375
2026.6983	18964.1375
2029.73833	18963.1375
2032.7764	18957.4375
2035.8125	18877.5375
2038.84664	18843.3375
2041.87881	18835.1375
2044.90903	18789.7375
2047.93729	18784.1375
2050.96359	18791.8375
2053.98794	18765.3375
2057.01034	18719.7375
2060.03078	18721.5375
2063.04927	18692.2375
2066.06582	18697.7375
2069.08042	18660.9375
2072.09307	18646.1375
2075.10378	18615.5375
2078.11255	18595.2375
2081.11938	18616.0375
2084.12426	18583.4375
2087.12722	18565.7375
2090.12824	18549.4375
2093.12732	18555.3375
2096.12447	18558.7375
2099.11969	18562.3375
2102.11299	18548.7375
2105.10435	18581.1375
2108.09379	18561.2375
2111.08131	18588.4375
2114.0669	18573.2375
2117.05057	18605.2375
2120.03233	18603.5375
2123.01216	18633.8375
2125.99008	18652.4375
2128.96609	18685.1375
2131.94018	18671.0375
2134.91236	18681.3375
2137.88263	18682.6375
2140.851	18698.1375
2143.81746	18693.9375
2146.78201	18675.3375
2149.74466	18697.1375
2152.7054	18728.1375
2155.66425	18698.9375
2158.6212	18690.1375
2161.57625	18674.0375
2164.52941	18672.8375
2167.48067	18671.3375
2170.43004	18636.5375
2173.37752	18656.4375
2176.32311	18659.9375
2179.26681	18667.6375
2182.20863	18648.8375
2185.14856	18668.8375
2188.08661	18684.8375
2191.02278	18673.8375
2193.95707	18643.5375
2196.88948	18587.8375
2199.82001	18605.1375
2202.74867	18610.0375
2205.67545	18595.0375
2208.60037	18575.6375
2211.52341	18599.7375
2214.44458	18547.0375
2217.36388	18540.9375
2220.28132	18493.9375
2223.1969	18453.4375
2226.11061	18410.9375
2229.02246	18351.3375
2231.93245	18320.7375
2234.84058	18253.7375
2237.74686	18238.2375
2240.65128	18251.9375
2243.55385	18191.9375
2246.45456	18207.6375
2249.35343	18178.5375
2252.25044	18231.3375
2255.14561	18181.3375
2258.03893	18186.7375
2260.93041	18180.3375
2263.82004	18133.0375
2266.70783	18072.0375
2269.59378	18022.8375
2272.4779	17979.8375
2275.36017	17961.8375
2278.24061	17935.9375
2281.11922	17854.7375
2283.996	17807.7375
2286.87094	17828.2375
2289.74405	17822.9375
2292.61534	17768.5375
2295.4848	17743.3375
2298.35243	17732.1375
2301.21824	17719.4375
2304.08223	17755.4375
2306.94439	17743.5375
2309.80474	17759.6375
2312.66327	17767.3375
2315.51999	17754.4375
2318.37489	17712.6375
2321.22797	17697.5375
2324.07925	17716.5375
2326.92871	17650.6375
2329.77637	17607.6375
2332.62222	17618.0375
2335.46626	17620.2375
2338.3085	17605.3375
2341.14893	17596.3375
2343.98756	17637.2375
2346.8244	17647.5375
2349.65943	17659.0375
2352.49267	17672.8375
2355.32411	17665.7375
2358.15376	17700.4375
2360.98161	17709.1375
2363.80768	17670.1375
2366.63195	17704.3375
2369.45444	17694.3375
2372.27514	17626.3375
2375.09405	17633.9375
2377.91118	17565.9375
2380.72652	17491.0375
2383.54009	17446.4375
2386.35187	17370.6375
2389.16188	17300.3375
2391.97011	17261.0375
2394.77657	17205.4375
2397.58125	17203.1375
2400.38416	17169.4375
2403.18529	17144.2375
2405.98466	17102.7375
2408.78226	17045.6375
2411.57809	17013.7375
2414.37216	17000.1375
2417.16446	16984.1375
2419.955	16957.7375
2422.74378	16967.7375
2425.5308	16944.2375
2428.31606	16922.3375
2431.09956	16965.5375
2433.88131	16921.0375
2436.6613	16916.2375
2439.43954	16947.2375
2442.21603	16925.3375
2444.99077	16888.6375
2447.76377	16877.2375
2450.53501	16876.4375
2453.30451	16925.3375
2456.07226	16885.5375
2458.83827	16879.6375
2461.60254	16854.0375
2464.36507	16833.6375
2467.12586	16845.1375
2469.88492	16838.5375
2472.64224	16849.2375
2475.39782	16867.9375
2478.15167	16882.6375
2480.90379	16911.2375
2483.65417	16955.2375
2486.40283	16972.1375
2489.14976	16945.8375
2491.89497	16988.4375
2494.63845	16988.5375
2497.3802	17002.6375
2500.12024	16962.4375
2502.85855	16952.6375
2505.59514	16888.4375
2508.33002	16858.8375
2511.06318	16816.6375
2513.79462	16799.2375
2516.52435	16702.8375
2519.25237	16675.2375
2521.97867	16641.9375
2524.70327	16644.3375
2527.42616	16629.9375
2530.14734	16568.8375
2532.86681	16565.9375
2535.58458	16590.0375
2538.30065	16562.8375
2541.01501	16556.4375
2543.72768	16578.2375
2546.43864	16575.8375
2549.14791	16546.0375
2551.85548	16523.6375
2554.56136	16480.6375
2557.26554	16461.3375
2559.96803	16430.6375
2562.66883	16422.6375
2565.36794	16407.6375
2568.06536	16382.3375
2570.7611	16374.3375
2573.45514	16316.8375
2576.14751	16317.6375
2578.83819	16262.1375
2581.52719	16299.8375
2584.21451	16264.2375
2586.90015	16266.2375
2589.58411	16203.8375
2592.2664	16237.0375
2594.94701	16178.6375
2597.62594	16239.9375
2600.30321	16238.2375
2602.9788	16220.9375
2605.65273	16211.4375
2608.32498	16208.8375
2610.99557	16194.3375
2613.66449	16214.7375
2616.33175	16214.9375
2618.99734	16167.4375
2621.66128	16147.9375
2624.32355	16160.3375
2626.98416	16120.2375
2629.64311	16111.0375
2632.30041	16136.4375
2634.95605	16098.9375
2637.61004	16093.2375
2640.26238	16063.6375
2642.91306	16030.3375
2645.56209	15968.5375
2648.20948	15967.0375
2650.85521	15958.4375
2653.4993	15962.6375
2656.14175	15955.3375
2658.78255	15973.4375
2661.42171	15997.8375
2664.05923	16013.8375
2666.6951	16061.6375
2669.32934	16100.5375
2671.96194	16059.8375
2674.59291	16113.9375
2677.22224	16090.4375
2679.84993	16120.6375
2682.476	16088.9375
2685.10043	16087.4375
2687.72324	16047.7375
2690.34441	16080.1375
2692.96396	16063.1375
2695.58188	16029.7375
2698.19818	16020.0375
2700.81285	16046.2375
2703.4259	16028.5375
2706.03733	16045.9375
2708.64714	16040.2375
2711.25533	16037.2375
2713.86191	16012.5375
2716.46687	16092.8375
2719.07021	16070.4375
2721.67194	16081.8375
2724.27206	16047.4375
2726.87057	16073.1375
2729.46747	16088.3375
2732.06276	16070.6375
2734.65644	16046.3375
2737.24852	16037.6375
2739.83899	16023.9375
2742.42786	16059.1375
2745.01513	16043.6375
2747.60079	16001.6375
2750.18486	16043.6375
2752.76733	16000.5375
2755.3482	16014.4375
2757.92747	15972.0375
2760.50515	15966.7375
2763.08123	15964.9375
2765.65573	15940.0375
2768.22863	15913.5375
2770.79994	15926.5375
2773.36967	15924.5375
2775.9378	15891.8375
2778.50435	15898.1375
2781.06932	15879.2375
2783.6327	15872.2375
2786.1945	15870.6375
2788.75471	15855.7375
2791.31335	15791.2375
2793.87041	15785.8375
2796.42589	15801.2375
2798.97979	15779.0375
2801.53212	15752.7375
2804.08288	15746.2375
2806.63206	15695.7375
2809.17967	15676.8375
2811.72571	15658.9375
2814.27018	15636.0375
2816.81308	15587.2375
2819.35442	15588.2375
2821.89419	15591.6375
2824.43239	15639.1375
2826.96904	15614.4375
2829.50412	15623.1375
2832.03763	15597.5375
2834.56959	15600.2375
2837.1	15552.2375
2839.62884	15553.0375
2842.15613	15543.4375
2844.68186	15535.0375
2847.20604	15553.1375
2849.72867	15515.6375
2852.24974	15488.4375
2854.76927	15478.8375
2857.28724	15505.4375
2859.80367	15487.3375
2862.31855	15492.8375
2864.83189	15441.5375
2867.34368	15443.8375
2869.85393	15463.5375
2872.36264	15414.9375
2874.8698	15423.4375
2877.37543	15397.9375
2879.87952	15352.5375
2882.38207	15344.3375
2884.88308	15343.9375
2887.38256	15349.5375
2889.88051	15344.7375
2892.37692	15360.7375
2894.8718	15326.1375
2897.36515	15361.3375
2899.85698	15341.9375
2902.34727	15397.7375
2904.83604	15334.4375
2907.32328	15386.5375
2909.809	15365.8375
2912.29319	15388.1375
2914.77587	15386.0375
2917.25702	15402.4375
2919.73665	15357.0375
2922.21476	15371.7375
2924.69136	15340.5375
2927.16644	15316.7375
2929.64	15276.9375
2932.11205	15277.6375
2934.58258	15232.9375
2937.05161	15259.3375
2939.51912	15273.8375
2941.98513	15223.7375
2944.44962	15193.4375
2946.91261	15162.0375
2949.37409	15168.2375
2951.83407	15154.8375
2954.29254	15132.2375
2956.74951	15128.0375
2959.20498	15128.2375
2961.65895	15099.2375
2964.11142	15111.6375
2966.56239	15076.9375
2969.01186	15046.3375
2971.45984	14996.7375
2973.90632	14982.6375
2976.35131	14937.1375
2978.7948	14941.7375
2981.23681	14904.1375
2983.67732	14867.1375
2986.11635	14826.9375
2988.55388	14794.7375
2990.98993	14768.0375
2993.4245	14746.7375
2995.85758	14727.9375
2998.28917	14649.6375
3000.71928	14639.5375
3003.14791	14616.7375
3005.57506	14610.7375
3008.00073	14571.1375
3010.42493	14570.1375
3012.84764	14503.7375
3015.26888	14526.0375
3017.68865	14461.3375
3020.10694	14445.6375
3022.52376	14404.8375
3024.9391	14383.5375
