Data from AgNPs_FTO_APTES_UA_20uM_CRN_5uM_R6G_10uM_NaF_0.1M_Addition_RamanShift__6__13-38-52-138.txt Node

Date: Thu Feb 17 13:38:52 GMT 2022
User: TCL
Spectrometer: QEP01345
Trigger mode: 4
Integration Time (sec): 7.000000E0
Scans to average: 10
Electric dark correction enabled: true
Nonlinearity correction enabled: false
Boxcar width: 0
XAxis mode: Raman Shifts
Number of Pixels in Spectrum: 1044
>>>>>Begin Spectral Data<<<<<
46.04893	-0.35
50.45542	-1.55
54.85868	-3.75
59.25871	-0.55
63.6555	132.55
68.04907	134.95
72.43941	142.15
76.82654	143.25
81.21044	146.25
85.59113	155.05
89.96862	154.65
94.34289	158.95
98.71396	164.45
103.08183	169.65
107.4465	174.95
111.80798	179.25
116.16626	187.05
120.52136	195.95
124.87327	199.85
129.222	216.75
133.56755	233.55
137.90993	253.55
142.24913	278.35
146.58517	317.15
150.91804	369.75
155.24774	449.35
159.57429	569.85
163.89768	737.45
168.21792	987.55
172.53501	1359.85
176.84895	1903.85
181.15975	2705.75
185.46741	3819.25
189.77193	5273.65
194.07331	7079.35
198.37157	9158.15
202.6667	11386.55
206.9587	13547.05
211.24758	15687.25
215.53334	17769.25
219.81599	20013.55
224.09553	22428.05
228.37195	25103.65
232.64527	28059.55
236.91549	31208.85
241.18261	34471.45
245.44663	37529.75
249.70755	40365.35
253.96539	42879.75
258.22014	44922.15
262.4718	46639.85
266.72039	47833.55
270.96589	48510.25
275.20832	48590.85
279.44768	48416.95
283.68397	47984.25
287.91719	47600.25
292.14735	47345.45
296.37445	47266.35
300.59849	47308.95
304.81948	47459.05
309.03742	47503.65
313.25231	47418.35
317.46415	46906.25
321.67296	46365.35
325.87872	45927.95
330.08145	45701.75
334.28114	45788.05
338.47781	46122.55
342.67145	46639.05
346.86207	47322.65
351.04966	48052.55
355.23424	48757.95
359.4158	49290.65
363.59435	49847.05
367.76989	50162.55
371.94243	50471.85
376.11196	50699.85
380.27849	51066.15
384.44203	51366.25
388.60257	51829.45
392.76012	52314.55
396.91468	52873.95
401.06626	53533.75
405.21485	54016.95
409.36047	53982.75
413.50311	53641.95
417.64277	53472.45
421.77947	53605.65
425.9132	53919.95
430.04396	54281.45
434.17176	54617.05
438.2966	54966.45
442.41849	55719.95
446.53742	56917.95
450.6534	58132.85
454.76644	59119.45
458.87653	59567.25
462.98368	59461.35
467.08789	59013.15
471.18916	58456.05
475.2875	57824.35
479.38291	57507.15
483.4754	57277.05
487.56496	56927.65
491.6516	56469.35
495.73531	55915.15
499.81612	55567.55
503.89401	55761.05
507.96899	55969.85
512.04106	56047.85
516.11023	55866.05
520.1765	55676.35
524.23987	55479.95
528.30034	55362.55
532.35792	55016.35
536.41261	54726.05
540.46441	54454.45
544.51333	54409.75
548.55936	54855.55
552.60252	55681.45
556.64279	56624.35
560.6802	57547.05
564.71473	58077.25
568.7464	58824.25
572.7752	60169.95
576.80114	61878.75
580.82422	63507.65
584.84444	64988.95
588.86181	66978.15
592.87633	68759.55
596.888	68548.65
600.89682	66436.05
604.9028	65537.55
608.90594	67578.55
612.90624	69628.95
616.90371	66355.75
620.89834	59995.95
624.89015	57302.25
628.87913	57177.05
632.86528	57504.35
636.84862	57605.35
640.82913	57002.95
644.80683	56154.45
648.78172	55551.55
652.75379	55543.55
656.72306	56053.25
660.68952	56673.75
664.65319	56468.35
668.61405	55996.25
672.57211	56013.75
676.52738	56305.25
680.47986	56251.55
684.42955	56061.05
688.37646	55965.75
692.32058	56269.45
696.26192	56845.45
700.20048	57439.65
704.13626	57922.85
708.06928	58080.25
711.99952	57998.85
715.927	57873.95
719.85171	57948.95
723.77365	57766.85
727.69284	57405.25
731.60928	56862.55
735.52295	56695.75
739.43388	56725.75
743.34206	56986.55
747.24749	57273.75
751.15017	57651.55
755.05012	58345.65
758.94733	59395.85
762.8418	61139.05
766.73354	63932.45
770.62254	66369.95
774.50882	66545.55
778.39237	64497.45
782.27321	61776.65
786.15132	59537.85
790.02671	58227.45
793.89938	57473.65
797.76935	57071.15
801.6366	56906.45
805.50115	56796.65
809.36299	56714.95
813.22213	56527.95
817.07857	56444.95
820.93231	56489.15
824.78336	56395.55
828.63172	56230.15
832.47738	56181.95
836.32036	56162.15
840.16066	56223.75
843.99827	56308.15
847.8332	56446.75
851.66546	56535.95
855.49504	56628.75
859.32195	56688.65
863.1462	56681.55
866.96777	56672.25
870.78668	56680.65
874.60293	56699.35
878.41652	56777.65
882.22745	56870.15
886.03573	57031.85
889.84136	56986.25
893.64433	56834.65
897.44466	56677.25
901.24235	56560.75
905.0374	56530.65
908.8298	56512.85
912.61957	56600.45
916.40671	56850.85
920.19121	57487.45
923.97308	57856.95
927.75233	57802.35
931.52895	57325.05
935.30295	56746.85
939.07433	56163.15
942.84309	55755.45
946.60924	55545.55
950.37278	55536.75
954.13371	55690.15
957.89203	55696.25
961.64774	55668.15
965.40086	55609.85
969.15137	55579.65
972.89929	55410.15
976.64461	55352.95
980.38733	55357.35
984.12747	55401.25
987.86502	55631.95
991.59999	55974.95
995.33237	56322.45
999.06217	56938.55
1002.78939	57744.35
1006.51404	58668.65
1010.23611	59543.35
1013.95561	60027.45
1017.67255	60166.45
1021.38692	59785.25
1025.09872	59067.05
1028.80796	58448.75
1032.51465	58273.55
1036.21877	58427.05
1039.92035	58514.35
1043.61937	58581.05
1047.31584	58524.55
1051.00976	58535.35
1054.70114	58657.25
1058.38998	58892.95
1062.07627	59406.75
1065.76003	59976.15
1069.44126	60701.45
1073.11995	61441.05
1076.79611	62113.65
1080.46974	62533.55
1084.14085	62857.75
1087.80943	63190.75
1091.47549	63628.45
1095.13903	63658.05
1098.80005	63151.25
1102.45857	62330.55
1106.11456	61479.85
1109.76805	61058.25
1113.41903	61032.65
1117.06751	61122.95
1120.71348	61533.15
1124.35696	61866.25
1127.99793	62186.75
1131.63641	62323.25
1135.2724	62295.35
1138.90589	62268.45
1142.5369	62406.45
1146.16542	62687.85
1149.79145	63134.25
1153.415	63506.35
1157.03607	64166.05
1160.65467	65107.85
1164.27079	66815.55
1167.88443	68989.35
1171.49561	71577.05
1175.10432	74600.35
1178.71056	78341.25
1182.31434	81819.25
1185.91565	83532.15
1189.51451	83416.15
1193.11091	82177.05
1196.70485	80497.85
1200.29634	78689.15
1203.88538	77351.05
1207.47197	76752.05
1211.05612	76266.55
1214.63782	75325.35
1218.21708	73969.95
1221.79391	72455.15
1225.36829	71537.15
1228.94024	71001.25
1232.50976	70251.45
1236.07685	69422.55
1239.6415	68838.05
1243.20374	68840.05
1246.76355	69193.05
1250.32093	69879.95
1253.8759	70888.05
1257.42845	72176.85
1260.97859	73734.05
1264.52631	75255.95
1268.07163	76747.05
1271.61453	78154.25
1275.15503	79471.65
1278.69312	80919.45
1282.22882	82602.95
1285.76211	84722.35
1289.29301	87155.25
1292.82151	90051.25
1296.34761	93655.65
1299.87133	97665.85
1303.39266	101870.45
1306.9116	105509.95
1310.42815	108482.85
1313.94233	109810.85
1317.45412	109405.25
1320.96354	108099.95
1324.47058	106785.35
1327.97525	105853.95
1331.47754	104988.35
1334.97747	104176.15
1338.47502	103663.15
1341.97022	103396.85
1345.46305	103117.75
1348.95352	102723.75
1352.44163	102266.55
1355.92738	102774.85
1359.41078	104550.35
1362.89183	106177.05
1366.37053	104877.75
1369.84688	99155.35
1373.32088	91686.85
1376.79254	86400.55
1380.26186	84373.05
1383.72883	84455.15
1387.19347	84815.45
1390.65578	84443.35
1394.11575	84070.65
1397.57339	84223.85
1401.0287	84865.75
1404.48168	85219.15
1407.93234	84865.65
1411.38068	83661.35
1414.82669	81812.85
1418.27039	79491.95
1421.71177	77219.75
1425.15083	75511.65
1428.58758	74722.45
1432.02203	75236.85
1435.45416	76612.05
1438.88399	78374.15
1442.31151	79690.25
1445.73673	80528.15
1449.15965	80813.95
1452.58027	81021.15
1455.9986	80995.45
1459.41463	81395.85
1462.82837	82355.35
1466.23982	83439.65
1469.64898	84495.45
1473.05586	85305.55
1476.46045	85553.45
1479.86276	85200.35
1483.26279	84607.55
1486.66054	84214.15
1490.05602	84535.95
1493.44922	85185.85
1496.84016	85883.35
1500.22882	87120.05
1503.61521	88750.55
1506.99934	90762.15
1510.38121	91949.55
1513.76081	91726.85
1517.13816	90340.65
1520.51324	88762.55
1523.88607	87852.15
1527.25665	87958.05
1530.62498	88471.65
1533.99105	88498.15
1537.35488	87663.25
1540.71647	86204.65
1544.07581	84394.95
1547.4329	82688.05
1550.78776	81059.65
1554.14038	79990.15
1557.49077	79276.65
1560.83892	78774.65
1564.18484	78507.45
1567.52853	78663.35
1570.86999	79218.35
1574.20922	80151.95
1577.54624	80936.05
1580.88103	81074.95
1584.2136	81493.35
1587.54395	83219.15
1590.87208	86259.75
1594.19801	90110.45
1597.52172	93790.95
1600.84321	94597.15
1604.16251	91498.65
1607.47959	86671.35
1610.79447	81386.05
1614.10715	76442.95
1617.41763	72344.55
1620.7259	69376.25
1624.03199	67810.35
1627.33587	67593.05
1630.63757	68858.05
1633.93707	71831.55
1637.23439	77088.35
1640.52951	85062.75
1643.82246	94356.45
1647.11321	101526.15
1650.40179	102364.05
1653.68819	96080.65
1656.97241	85976.55
1660.25446	76265.45
1663.53433	69188.55
1666.81203	64508.45
1670.08756	61726.25
1673.36092	59829.85
1676.63211	58627.35
1679.90115	57758.25
1683.16801	56968.95
1686.43272	56499.55
1689.69527	56153.15
1692.95567	55857.55
1696.2139	55712.15
1699.46999	55668.55
1702.72392	55509.55
1705.97571	55412.25
1709.22535	55297.75
1712.47284	55324.15
1715.71819	55269.05
1718.96139	55221.25
1722.20246	55035.15
1725.44139	54826.15
1728.67818	54656.95
1731.91284	54378.85
1735.14537	54183.55
1738.37576	54025.35
1741.60403	53833.45
1744.83017	53718.15
1748.05418	53495.95
1751.27607	53498.15
1754.49584	53367.45
1757.71349	53454.25
1760.92903	53427.65
1764.14244	53280.45
1767.35375	53253.95
1770.56294	53191.15
1773.77002	53200.75
1776.97499	53156.75
1780.17785	53006.95
1783.37861	52962.15
1786.57727	52892.85
1789.77382	52737.15
1792.96828	52795.85
1796.16064	52690.15
1799.3509	52633.35
1802.53907	52527.25
1805.72514	52388.45
1808.90913	52257.55
1812.09102	52154.05
1815.27083	52079.65
1818.44856	52068.75
1821.6242	51953.85
1824.79776	51954.05
1827.96924	51865.95
1831.13864	51907.95
1834.30597	51852.75
1837.47122	51815.45
1840.6344	51760.35
1843.7955	51723.45
1846.95454	51721.35
1850.11151	51660.05
1853.26642	51712.05
1856.41926	51594.35
1859.57004	51566.75
1862.71876	51558.55
1865.86542	51462.55
1869.01003	51444.55
1872.15258	51302.45
1875.29308	51321.35
1878.43152	51174.15
1881.56792	51202.95
1884.70227	51246.25
1887.83457	51177.35
1890.96482	51158.05
1894.09304	51111.25
1897.21921	50992.05
1900.34335	50948.95
1903.46544	50843.95
1906.58551	50838.25
1909.70353	50815.15
1912.81953	50758.25
1915.93349	50653.15
1919.04543	50584.15
1922.15534	50513.25
1925.26322	50460.05
1928.36908	50338.95
1931.47292	50309.45
1934.57473	50168.75
1937.67453	50059.35
1940.77232	49939.25
1943.86808	49811.65
1946.96184	49675.55
1950.05358	49541.45
1953.14331	49466.65
1956.23103	49348.65
1959.31675	49194.15
1962.40046	49070.85
1965.48217	48851.25
1968.56188	48718.75
1971.63959	48602.55
1974.7153	48451.05
1977.78901	48337.25
1980.86073	48166.35
1983.93046	48066.65
1986.99819	47984.95
1990.06394	47836.05
1993.1277	47752.85
1996.18947	47584.35
1999.24925	47499.65
2002.30706	47358.35
2005.36288	47248.95
2008.41672	47052.75
2011.46859	46942.35
2014.51848	46818.45
2017.56639	46627.15
2020.61233	46521.45
2023.6563	46463.95
2026.6983	46347.15
2029.73833	46197.75
2032.7764	46159.55
2035.8125	46065.65
2038.84664	45961.05
2041.87881	45943.75
2044.90903	45879.85
2047.93729	45822.65
2050.96359	45783.95
2053.98794	45657.95
2057.01034	45626.45
2060.03078	45637.35
2063.04927	45574.65
2066.06582	45645.05
2069.08042	45567.45
2072.09307	45534.75
2075.10378	45469.05
2078.11255	45347.05
2081.11938	45462.05
2084.12426	45395.25
2087.12722	45383.25
2090.12824	45360.65
2093.12732	45378.25
2096.12447	45356.85
2099.11969	45330.85
2102.11299	45324.05
2105.10435	45377.45
2108.09379	45420.45
2111.08131	45452.75
2114.0669	45423.95
2117.05057	45452.05
2120.03233	45524.55
2123.01216	45631.35
2125.99008	45700.95
2128.96609	45698.05
2131.94018	45790.05
2134.91236	45706.25
2137.88263	45810.65
2140.851	45749.95
2143.81746	45790.75
2146.78201	45797.95
2149.74466	45866.35
2152.7054	45856.35
2155.66425	45801.95
2158.6212	45884.05
2161.57625	45770.75
2164.52941	45788.85
2167.48067	45746.35
2170.43004	45740.45
2173.37752	45747.25
2176.32311	45789.45
2179.26681	45801.05
2182.20863	45739.05
2185.14856	45820.25
2188.08661	45755.45
2191.02278	45778.55
2193.95707	45700.15
2196.88948	45632.35
2199.82001	45656.15
2202.74867	45563.05
2205.67545	45553.75
2208.60037	45431.85
2211.52341	45476.25
2214.44458	45456.45
2217.36388	45323.55
2220.28132	45231.85
2223.1969	45118.05
2226.11061	45035.75
2229.02246	44891.15
2231.93245	44851.95
2234.84058	44779.85
2237.74686	44785.85
2240.65128	44714.25
2243.55385	44687.25
2246.45456	44646.55
2249.35343	44607.15
2252.25044	44529.75
2255.14561	44427.65
2258.03893	44375.85
2260.93041	44252.45
2263.82004	44140.35
2266.70783	44088.75
2269.59378	43964.95
2272.4779	43919.55
2275.36017	43825.25
2278.24061	43756.55
2281.11922	43688.65
2283.996	43564.65
2286.87094	43544.55
2289.74405	43566.15
2292.61534	43457.75
2295.4848	43391.05
2298.35243	43387.05
2301.21824	43378.85
2304.08223	43322.15
2306.94439	43328.55
2309.80474	43333.45
2312.66327	43293.15
2315.51999	43254.35
2318.37489	43141.05
2321.22797	43121.35
2324.07925	43085.55
2326.92871	42989.35
2329.77637	42873.55
2332.62222	42855.25
2335.46626	42788.65
2338.3085	42765.85
2341.14893	42719.55
2343.98756	42660.65
2346.8244	42677.65
2349.65943	42688.65
2352.49267	42640.15
2355.32411	42626.15
2358.15376	42574.05
2360.98161	42557.35
2363.80768	42537.45
2366.63195	42512.15
2369.45444	42493.25
2372.27514	42449.25
2375.09405	42417.55
2377.91118	42312.25
2380.72652	42213.25
2383.54009	42134.15
2386.35187	42013.05
2389.16188	41961.65
2391.97011	41844.55
2394.77657	41805.05
2397.58125	41731.65
2400.38416	41645.75
2403.18529	41576.95
2405.98466	41645.05
2408.78226	41520.05
2411.57809	41464.05
2414.37216	41457.95
2417.16446	41482.45
2419.955	41336.35
2422.74378	41346.35
2425.5308	41237.85
2428.31606	41332.35
2431.09956	41259.65
2433.88131	41227.95
2436.6613	41200.55
2439.43954	41199.95
2442.21603	41157.15
2444.99077	41055.65
2447.76377	41085.65
2450.53501	41013.25
2453.30451	41040.65
2456.07226	40976.35
2458.83827	40948.75
2461.60254	40934.25
2464.36507	40893.25
2467.12586	40852.75
2469.88492	40831.45
2472.64224	40838.75
2475.39782	40800.35
2478.15167	40888.55
2480.90379	40849.15
2483.65417	40839.95
2486.40283	40850.45
2489.14976	40787.65
2491.89497	40745.75
2494.63845	40788.45
2497.3802	40703.85
2500.12024	40701.45
2502.85855	40673.55
2505.59514	40643.75
2508.33002	40561.55
2511.06318	40469.55
2513.79462	40466.55
2516.52435	40437.05
2519.25237	40375.85
2521.97867	40418.55
2524.70327	40415.55
2527.42616	40318.45
2530.14734	40306.25
2532.86681	40209.95
2535.58458	40188.85
2538.30065	40181.75
2541.01501	40205.85
2543.72768	40139.95
2546.43864	40130.25
2549.14791	40017.45
2551.85548	39957.05
2554.56136	39878.25
2557.26554	39762.85
2559.96803	39716.15
2562.66883	39637.55
2565.36794	39655.95
2568.06536	39605.75
2570.7611	39551.75
2573.45514	39462.15
2576.14751	39434.85
2578.83819	39301.85
2581.52719	39317.05
2584.21451	39305.45
2586.90015	39244.45
2589.58411	39129.25
2592.2664	39123.85
2594.94701	39072.45
2597.62594	39067.45
2600.30321	39027.65
2602.9788	38995.25
2605.65273	38942.35
2608.32498	38968.85
2610.99557	38918.35
2613.66449	38940.15
2616.33175	38816.95
2618.99734	38785.45
2621.66128	38646.95
2624.32355	38630.25
2626.98416	38624.65
2629.64311	38549.85
2632.30041	38555.55
2634.95605	38524.95
2637.61004	38476.95
2640.26238	38403.15
2642.91306	38380.45
2645.56209	38287.55
2648.20948	38341.45
2650.85521	38361.85
2653.4993	38363.55
2656.14175	38338.05
2658.78255	38335.25
2661.42171	38345.35
2664.05923	38419.75
2666.6951	38379.35
2669.32934	38359.95
2671.96194	38388.95
2674.59291	38408.55
2677.22224	38406.45
2679.84993	38409.75
2682.476	38392.25
2685.10043	38312.05
2687.72324	38344.15
2690.34441	38294.85
2692.96396	38276.85
2695.58188	38319.55
2698.19818	38256.15
2700.81285	38224.75
2703.4259	38197.85
2706.03733	38306.55
2708.64714	38269.65
2711.25533	38265.85
2713.86191	38291.65
2716.46687	38373.85
2719.07021	38354.15
2721.67194	38343.95
2724.27206	38311.65
2726.87057	38369.45
2729.46747	38336.05
2732.06276	38349.95
2734.65644	38325.95
2737.24852	38360.05
2739.83899	38281.45
2742.42786	38367.55
2745.01513	38293.85
2747.60079	38274.75
2750.18486	38200.55
2752.76733	38205.15
2755.3482	38080.05
2757.92747	38035.25
2760.50515	37943.65
2763.08123	37997.95
2765.65573	37975.95
2768.22863	38006.35
2770.79994	37879.25
2773.36967	37917.45
2775.9378	37908.85
2778.50435	37859.55
2781.06932	37829.35
2783.6327	37805.55
2786.1945	37705.55
2788.75471	37697.75
2791.31335	37609.75
2793.87041	37531.95
2796.42589	37435.35
2798.97979	37434.15
2801.53212	37301.55
2804.08288	37297.85
2806.63206	37202.35
2809.17967	37101.45
2811.72571	36964.75
2814.27018	36901.35
2816.81308	36740.05
2819.35442	36681.45
2821.89419	36659.35
2824.43239	36602.95
2826.96904	36616.85
2829.50412	36604.85
2832.03763	36510.15
2834.56959	36400.05
2837.1	36311.95
2839.62884	36329.05
2842.15613	36224.95
2844.68186	36265.25
2847.20604	36216.55
2849.72867	36181.05
2852.24974	36151.05
2854.76927	36077.45
2857.28724	36026.75
2859.80367	36043.95
2862.31855	36007.65
2864.83189	35896.25
2867.34368	35823.05
2869.85393	35828.55
2872.36264	35823.25
2874.8698	35724.05
2877.37543	35699.75
2879.87952	35724.15
2882.38207	35618.05
2884.88308	35597.95
2887.38256	35628.95
2889.88051	35637.55
2892.37692	35669.45
2894.8718	35639.45
2897.36515	35700.15
2899.85698	35674.95
2902.34727	35727.65
2904.83604	35645.05
2907.32328	35739.25
2909.809	35694.85
2912.29319	35763.65
2914.77587	35740.75
2917.25702	35786.65
2919.73665	35741.05
2922.21476	35727.55
2924.69136	35654.55
2927.16644	35652.95
2929.64	35584.15
2932.11205	35561.35
2934.58258	35465.05
2937.05161	35553.95
2939.51912	35550.45
2941.98513	35540.65
2944.44962	35501.65
2946.91261	35432.85
2949.37409	35477.15
2951.83407	35342.25
2954.29254	35361.15
2956.74951	35340.55
2959.20498	35346.15
2961.65895	35309.45
2964.11142	35386.55
2966.56239	35313.35
2969.01186	35291.45
2971.45984	35141.85
2973.90632	35118.05
2976.35131	35060.25
2978.7948	35076.35
2981.23681	35015.25
2983.67732	34921.25
2986.11635	34803.95
2988.55388	34760.65
2990.98993	34715.05
2993.4245	34669.65
2995.85758	34601.85
2998.28917	34452.45
3000.71928	34395.25
3003.14791	34330.85
3005.57506	34308.65
3008.00073	34179.25
3010.42493	34169.75
3012.84764	34046.85
3015.26888	34044.35
3017.68865	33955.35
3020.10694	33909.25
3022.52376	33845.95
3024.9391	33820.45
3027.35298	33796.45
3029.76539	33708.95
3032.17632	33741.15
3034.5858	33646.25
3036.9938	33622.15
3039.40034	33589.95
3041.80542	33574.05
3044.20903	33506.75
3046.61118	33434.45
3049.01187	33338.55
3051.4111	33264.05
3053.80888	33149.15
3056.20519	33150.25
3058.60005	33041.05
3060.99345	33014.15
3063.3854	32905.85
3065.7759	32805.75
3068.16494	32735.25
3070.55254	32604.55
3072.93868	32520.65
3075.32338	32401.75
3077.70662	32358.85
3080.08842	32293.85
3082.46878	32204.85
3084.84769	32141.45
3087.22515	32190.45
3089.60118	32121.35
3091.97576	32129.25
3094.3489	32063.85
3096.72061	32041.65
3099.09087	32041.85
3101.4597	32058.35
3103.82709	32077.05
3106.19305	31955.95
3108.55757	31965.05
3110.92066	31903.55
3113.28232	31857.65
3115.64255	31782.95
3118.00134	31696.75
3120.35871	31570.85
3122.71466	31494.45
3125.06917	31446.85
3127.42226	31383.55
3129.77393	31371.05
3132.12417	31246.55
3134.47299	31222.35
3136.82039	31183.75
3139.16636	31233.15
3141.51092	31193.75
3143.85406	31153.85
3146.19579	31127.75
3148.53609	31129.85
3150.87499	31181.95
3153.21246	31173.05
3155.54853	31212.95
3157.88318	31128.75
3160.21642	31179.75
3162.54826	31115.05
3164.87868	31025.85
3167.2077	31010.45
3169.5353	31007.25
3171.86151	30975.05
3174.18631	30983.35
3176.5097	30967.25
3178.83169	30844.55
3181.15228	30858.85
3183.47147	30743.05
3185.78926	30704.55
3188.10565	30662.25
3190.42065	30631.05
3192.73424	30571.25
3195.04645	30516.35
3197.35725	30453.25
3199.66667	30462.15
3201.97469	30421.85
3204.28132	30371.25
3206.58656	30374.65
3208.8904	30345.65
3211.19287	30371.95
3213.49394	30370.25
3215.79363	30379.05
3218.09193	30394.55
3220.38884	30403.15
3222.68438	30370.85
3224.97853	30304.15
3227.2713	30293.35
3229.56269	30235.85
3231.8527	30227.55
3234.14133	30154.55
