Data from AgNPs_FTO_APTES_UA_20uM_CRN_0uM_R6G_10uM_NaF_0.1M_Addition_RamanShift__6__10-56-41-926.txt Node

Date: Thu Feb 17 10:56:41 GMT 2022
User: TCL
Spectrometer: QEP01345
Trigger mode: 4
Integration Time (sec): 7.000000E0
Scans to average: 10
Electric dark correction enabled: true
Nonlinearity correction enabled: false
Boxcar width: 0
XAxis mode: Raman Shifts
Number of Pixels in Spectrum: 1044
>>>>>Begin Spectral Data<<<<<
46.04893	0.4
50.45542	1.2
54.85868	-3
59.25871	1.7
63.6555	37.9
68.04907	37.2
72.43941	40.9
76.82654	40.9
81.21044	41.4
85.59113	46.8
89.96862	48.4
94.34289	48.6
98.71396	48.5
103.08183	53.3
107.4465	55.7
111.80798	52
116.16626	55.6
120.52136	60.7
124.87327	59.7
129.222	67
133.56755	68.3
137.90993	69.8
142.24913	75.3
146.58517	86.7
150.91804	104.6
155.24774	122.6
159.57429	154.3
163.89768	198.1
168.21792	265.4
172.53501	362.2
176.84895	502.7
181.15975	714.5
185.46741	1000.3
189.77193	1388.9
194.07331	1863.5
198.37157	2412.6
202.6667	3003.8
206.9587	3594.6
211.24758	4189.7
215.53334	4785.1
219.81599	5434.3
224.09553	6143.2
228.37195	6921.2
232.64527	7728
236.91549	8586
241.18261	9368.3
245.44663	10061.6
249.70755	10632.8
253.96539	11060.9
258.22014	11450.3
262.4718	11788.2
266.72039	11997
270.96589	12086.9
275.20832	12003.5
279.44768	11773.5
283.68397	11565.4
287.91719	11406.4
292.14735	11316.9
296.37445	11432
300.59849	11628.6
304.81948	12020.5
309.03742	12390.9
313.25231	12542.8
317.46415	12328.8
321.67296	11700.7
325.87872	11049.3
330.08145	10620.1
334.28114	10460.6
338.47781	10524.8
342.67145	10695.7
346.86207	11039.5
351.04966	11534.7
355.23424	12035
359.4158	12374.5
363.59435	12447.2
367.76989	12310.7
371.94243	12132.7
376.11196	11981.2
380.27849	11845.3
384.44203	11734.4
388.60257	11690.5
392.76012	11785
396.91468	11963.9
401.06626	12237.2
405.21485	12361.4
409.36047	12107.9
413.50311	11623.2
417.64277	11149.9
421.77947	10981.6
425.9132	10947.3
430.04396	10973.6
434.17176	10950.6
438.2966	10942.2
442.41849	11077.4
446.53742	11288.5
450.6534	11480.9
454.76644	11535.9
458.87653	11496.6
462.98368	11389.3
467.08789	11263.2
471.18916	11082.5
475.2875	10827.6
479.38291	10586.2
483.4754	10436.8
487.56496	10335.5
491.6516	10275
495.73531	10264
499.81612	10265.2
503.89401	10364.4
507.96899	10482
512.04106	10609.1
516.11023	10669.4
520.1765	10723
524.23987	10709.6
528.30034	10643.7
532.35792	10517.3
536.41261	10325.6
540.46441	10116.2
544.51333	10008.6
548.55936	10036.7
552.60252	10230.6
556.64279	10510.1
560.6802	10693.9
564.71473	10817.9
568.7464	11115.4
572.7752	11436.7
576.80114	11461.2
580.82422	11541.4
584.84444	11813.1
588.86181	12277.8
592.87633	12814.5
596.888	13052.1
600.89682	12806.4
604.9028	13015.5
608.90594	15403.9
612.90624	19084.2
616.90371	18705.1
620.89834	13583
624.89015	10781.6
628.87913	10287.4
632.86528	10450.7
636.84862	10658.1
640.82913	10408.5
644.80683	9913.8
648.78172	9551
652.75379	9561.5
656.72306	9852.6
660.68952	10233.2
664.65319	10149.4
668.61405	9632.6
672.57211	9355.3
676.52738	9336.9
680.47986	9346
684.42955	9295.4
688.37646	9212.4
692.32058	9201.6
696.26192	9300.8
700.20048	9416.3
704.13626	9540.2
708.06928	9543.5
711.99952	9497.2
715.927	9431.4
719.85171	9455.3
723.77365	9449.4
727.69284	9347.1
731.60928	9166.6
735.52295	9102.8
739.43388	9118.1
743.34206	9151.7
747.24749	9232.7
751.15017	9303.2
755.05012	9485.4
758.94733	9940.1
762.8418	11043.3
766.73354	12960
770.62254	14774.9
774.50882	15174.1
778.39237	14261.6
782.27321	12698
786.15132	11060
790.02671	9984
793.89938	9438.6
797.76935	9174.7
801.6366	9050.5
805.50115	8964.9
809.36299	8900
813.22213	8788
817.07857	8732.8
820.93231	8699.9
824.78336	8683.1
828.63172	8696.1
832.47738	8682.4
836.32036	8650.4
840.16066	8590.5
843.99827	8579.4
847.8332	8569.1
851.66546	8601
855.49504	8595.6
859.32195	8595.8
863.1462	8565.7
866.96777	8527.1
870.78668	8521
874.60293	8519.6
878.41652	8555.2
882.22745	8586.7
886.03573	8652.5
889.84136	8673
893.64433	8682.6
897.44466	8705.5
901.24235	8724.8
905.0374	8718.3
908.8298	8627.2
912.61957	8643.3
916.40671	8625.3
920.19121	8740.8
923.97308	8882
927.75233	9056.4
931.52895	9099.1
935.30295	8927.9
939.07433	8605.5
942.84309	8318.6
946.60924	8169.8
950.37278	8057.4
954.13371	8012.5
957.89203	7970.3
961.64774	7934.9
965.40086	7909.4
969.15137	7865.3
972.89929	7827.1
976.64461	7763.8
980.38733	7757.6
984.12747	7730.5
987.86502	7751
991.59999	7773.3
995.33237	7845.2
999.06217	7970
1002.78939	8152.4
1006.51404	8387
1010.23611	8612.4
1013.95561	8718.6
1017.67255	8699.3
1021.38692	8568.6
1025.09872	8355.1
1028.80796	8151.5
1032.51465	8059.5
1036.21877	8059.9
1039.92035	8085.4
1043.61937	8154.5
1047.31584	8218.6
1051.00976	8297.4
1054.70114	8319.6
1058.38998	8305.8
1062.07627	8323.4
1065.76003	8347.4
1069.44126	8419.8
1073.11995	8571.6
1076.79611	8750.4
1080.46974	8974.9
1084.14085	9233.4
1087.80943	9608.8
1091.47549	9702.4
1095.13903	9524.8
1098.80005	9130.1
1102.45857	8748
1106.11456	8492.1
1109.76805	8463.4
1113.41903	8570.3
1117.06751	8818.5
1120.71348	9174.6
1124.35696	9655
1127.99793	10140.2
1131.63641	10195.2
1135.2724	9782.2
1138.90589	9316.1
1142.5369	9055.7
1146.16542	8892
1149.79145	8798.4
1153.415	8813.9
1157.03607	8926.7
1160.65467	9215.5
1164.27079	9733.6
1167.88443	10501.3
1171.49561	11451.8
1175.10432	12849.9
1178.71056	14667.9
1182.31434	16296.2
1185.91565	16972.5
1189.51451	16682.9
1193.11091	15908.9
1196.70485	14742.6
1200.29634	13557.1
1203.88538	12543.7
1207.47197	11697.8
1211.05612	11051.4
1214.63782	10543.9
1218.21708	10199
1221.79391	10030
1225.36829	9991.4
1228.94024	10020.3
1232.50976	9984.4
1236.07685	9913
1239.6415	9821.4
1243.20374	9773.1
1246.76355	9738.1
1250.32093	9770.9
1253.8759	9958.7
1257.42845	10340.4
1260.97859	10825.1
1264.52631	11461.9
1268.07163	11961.3
1271.61453	12419
1275.15503	12749.6
1278.69312	13007.4
1282.22882	13297
1285.76211	13802.7
1289.29301	14507.3
1292.82151	15211.9
1296.34761	15984.8
1299.87133	16947.9
1303.39266	18327.4
1306.9116	20225.1
1310.42815	22279.1
1313.94233	23387.4
1317.45412	22714.5
1320.96354	20997.8
1324.47058	19304.5
1327.97525	17930.4
1331.47754	17040.5
1334.97747	16466.1
1338.47502	16318.7
1341.97022	16519.7
1345.46305	17232.3
1348.95352	18389.2
1352.44163	19676.1
1355.92738	21174.6
1359.41078	23421.6
1362.89183	26157.1
1366.37053	26289.4
1369.84688	22554.4
1373.32088	17975.4
1376.79254	14992.3
1380.26186	13646.5
1383.72883	12932.4
1387.19347	12342
1390.65578	11829
1394.11575	11557.6
1397.57339	11563
1401.0287	11652
1404.48168	11695.7
1407.93234	11596.3
1411.38068	11364
1414.82669	11100.9
1418.27039	10878.6
1421.71177	10647.9
1425.15083	10423.7
1428.58758	10296.7
1432.02203	10374.5
1435.45416	10680.5
1438.88399	10880.2
1442.31151	10921.5
1445.73673	10929.3
1449.15965	10989.8
1452.58027	11016.4
1455.9986	11031.1
1459.41463	11142.7
1462.82837	11326.4
1466.23982	11576.8
1469.64898	11789.9
1473.05586	11963.4
1476.46045	12095.8
1479.86276	12214.8
1483.26279	12416.8
1486.66054	12723.8
1490.05602	13313.7
1493.44922	14183.4
1496.84016	15426.6
1500.22882	17134.5
1503.61521	19237.4
1506.99934	21669.8
1510.38121	23791.1
1513.76081	24473.8
1517.13816	23007.5
1520.51324	20156.6
1523.88607	17462.9
1527.25665	15568.2
1530.62498	14438.9
1533.99105	13673.2
1537.35488	13022.8
1540.71647	12437.8
1544.07581	11960.8
1547.4329	11633.6
1550.78776	11437.4
1554.14038	11458
1557.49077	11597
1560.83892	11874.1
1564.18484	12255.2
1567.52853	12715.4
1570.86999	13154.5
1574.20922	13457.5
1577.54624	13432.6
1580.88103	12844.5
1584.2136	11891.5
1587.54395	11429.8
1590.87208	11588.5
1594.19801	12202.9
1597.52172	13005.9
1600.84321	13156.2
1604.16251	12454
1607.47959	11541.4
1610.79447	10705.6
1614.10715	9843.1
1617.41763	9061.4
1620.7259	8461.5
1624.03199	8177.6
1627.33587	8195.5
1630.63757	8535.3
1633.93707	9294
1637.23439	10625
1640.52951	12600.4
1643.82246	15169.4
1647.11321	17642.8
1650.40179	18950.9
1653.68819	17932.3
1656.97241	14960.9
1660.25446	11727.5
1663.53433	9361.1
1666.81203	7984.6
1670.08756	7199
1673.36092	6721.6
1676.63211	6460.4
1679.90115	6251.8
1683.16801	6082.3
1686.43272	6027
1689.69527	5931.3
1692.95567	5833.6
1696.2139	5788.1
1699.46999	5783.5
1702.72392	5734
1705.97571	5705.8
1709.22535	5661.1
1712.47284	5693.3
1715.71819	5695.1
1718.96139	5702.4
1722.20246	5682
1725.44139	5634.3
1728.67818	5599.7
1731.91284	5532.6
1735.14537	5513.5
1738.37576	5415.8
1741.60403	5451.8
1744.83017	5475.4
1748.05418	5475.6
1751.27607	5477.1
1754.49584	5483.1
1757.71349	5501.1
1760.92903	5515.1
1764.14244	5510.2
1767.35375	5530.4
1770.56294	5521.7
1773.77002	5544.3
1776.97499	5516.2
1780.17785	5493
1783.37861	5477
1786.57727	5439.6
1789.77382	5408.1
1792.96828	5378.6
1796.16064	5348.6
1799.3509	5313.6
1802.53907	5254.3
1805.72514	5199.1
1808.90913	5147.4
1812.09102	5101
1815.27083	5048.6
1818.44856	5014.2
1821.6242	4978.8
1824.79776	4937.4
1827.96924	4921.5
1831.13864	4907.3
1834.30597	4886.2
1837.47122	4888.5
1840.6344	4861.6
1843.7955	4865
1846.95454	4853
1850.11151	4839.3
1853.26642	4807.6
1856.41926	4813.3
1859.57004	4777.5
1862.71876	4763.9
1865.86542	4727.3
1869.01003	4724.8
1872.15258	4712.5
1875.29308	4675.1
1878.43152	4676
1881.56792	4649.7
1884.70227	4633.3
1887.83457	4625
1890.96482	4616.2
1894.09304	4592.7
1897.21921	4562.3
1900.34335	4551
1903.46544	4527
1906.58551	4517.5
1909.70353	4510.2
1912.81953	4512.3
1915.93349	4475.3
1919.04543	4456.3
1922.15534	4458.3
1925.26322	4418.9
1928.36908	4409.4
1931.47292	4385
1934.57473	4364.6
1937.67453	4347.7
1940.77232	4313.3
1943.86808	4298.6
1946.96184	4292
1950.05358	4259.4
1953.14331	4254.4
1956.23103	4241.2
1959.31675	4216.3
1962.40046	4202.6
1965.48217	4185.7
1968.56188	4162.5
1971.63959	4158.4
1974.7153	4146.8
1977.78901	4135.3
1980.86073	4091.2
1983.93046	4075
1986.99819	4038.9
1990.06394	4047.1
1993.1277	4020.5
1996.18947	3999.8
1999.24925	3972.2
2002.30706	3961
2005.36288	3947.9
2008.41672	3929.1
2011.46859	3897.2
2014.51848	3888.1
2017.56639	3887.6
2020.61233	3864.7
2023.6563	3830
2026.6983	3806.4
2029.73833	3820.5
2032.7764	3795.6
2035.8125	3787.2
2038.84664	3773.3
2041.87881	3772.3
2044.90903	3771.2
2047.93729	3758.6
2050.96359	3743.3
2053.98794	3731.8
2057.01034	3737.8
2060.03078	3721.2
2063.04927	3720.2
2066.06582	3703
2069.08042	3727.4
2072.09307	3712.3
2075.10378	3698.3
2078.11255	3702.5
2081.11938	3677.4
2084.12426	3706.9
2087.12722	3682.7
2090.12824	3672.7
2093.12732	3666.8
2096.12447	3677.3
2099.11969	3658.9
2102.11299	3665.4
2105.10435	3657.2
2108.09379	3660.5
2111.08131	3650.7
2114.0669	3657.1
2117.05057	3650.1
2120.03233	3632.3
2123.01216	3650.1
2125.99008	3650.4
2128.96609	3637
2131.94018	3627.3
2134.91236	3641.7
2137.88263	3602.3
2140.851	3615.4
2143.81746	3595.1
2146.78201	3593.3
2149.74466	3593.2
2152.7054	3592.3
2155.66425	3574.9
2158.6212	3567.9
2161.57625	3550.5
2164.52941	3548.5
2167.48067	3529.4
2170.43004	3535
2173.37752	3526.5
2176.32311	3521.6
2179.26681	3532.8
2182.20863	3522.2
2185.14856	3510.4
2188.08661	3499.5
2191.02278	3501.5
2193.95707	3483.5
2196.88948	3467.4
2199.82001	3465
2202.74867	3453.8
2205.67545	3442.8
2208.60037	3427.3
2211.52341	3411.9
2214.44458	3412.1
2217.36388	3401.8
2220.28132	3398.6
2223.1969	3371.6
2226.11061	3381.9
2229.02246	3364.7
2231.93245	3358.5
2234.84058	3349.6
2237.74686	3356.1
2240.65128	3341.1
2243.55385	3339.7
2246.45456	3320.8
2249.35343	3311
2252.25044	3328.6
2255.14561	3306
2258.03893	3301.9
2260.93041	3288.8
2263.82004	3281.5
2266.70783	3268.5
2269.59378	3259.8
2272.4779	3250.2
2275.36017	3251.9
2278.24061	3236.5
2281.11922	3231.9
2283.996	3209.6
2286.87094	3209.2
2289.74405	3181.5
2292.61534	3176.4
2295.4848	3171.1
2298.35243	3156.5
2301.21824	3151.6
2304.08223	3140.3
2306.94439	3129.6
2309.80474	3132.2
2312.66327	3128.7
2315.51999	3128.6
2318.37489	3111.1
2321.22797	3095.9
2324.07925	3090.9
2326.92871	3098.5
2329.77637	3085.2
2332.62222	3070
2335.46626	3078.8
2338.3085	3070.8
2341.14893	3066.2
2343.98756	3072.2
2346.8244	3071.7
2349.65943	3065.7
2352.49267	3082.5
2355.32411	3085.3
2358.15376	3078.1
2360.98161	3098.6
2363.80768	3099.4
2366.63195	3085.6
2369.45444	3102.9
2372.27514	3089.6
2375.09405	3080.9
2377.91118	3074.6
2380.72652	3048.3
2383.54009	3014.4
2386.35187	3011
2389.16188	3000.5
2391.97011	2974.8
2394.77657	2964.6
2397.58125	2953.3
2400.38416	2939.9
2403.18529	2929.2
2405.98466	2929.6
2408.78226	2911.7
2411.57809	2912.7
2414.37216	2900.8
2417.16446	2895.1
2419.955	2895.5
2422.74378	2891
2425.5308	2893.7
2428.31606	2891.6
2431.09956	2887.7
2433.88131	2888.4
2436.6613	2899
2439.43954	2885.1
2442.21603	2887.2
2444.99077	2884
2447.76377	2901.8
2450.53501	2885.5
2453.30451	2893.2
2456.07226	2887
2458.83827	2889.6
2461.60254	2867.5
2464.36507	2860.2
2467.12586	2870.2
2469.88492	2861.7
2472.64224	2863.1
2475.39782	2849
2478.15167	2875.6
2480.90379	2861.3
2483.65417	2862.3
2486.40283	2881.9
2489.14976	2874.5
2491.89497	2884.5
2494.63845	2868.4
2497.3802	2873.5
2500.12024	2868.3
2502.85855	2863.5
2505.59514	2849.7
2508.33002	2823.5
2511.06318	2818.6
2513.79462	2798.7
2516.52435	2797.4
2519.25237	2769.1
2521.97867	2757.6
2524.70327	2751.3
2527.42616	2739.7
2530.14734	2736.9
2532.86681	2731.6
2535.58458	2730.2
2538.30065	2722.5
2541.01501	2721.4
2543.72768	2720.5
2546.43864	2720.5
2549.14791	2721.2
2551.85548	2700.9
2554.56136	2694.6
2557.26554	2698.3
2559.96803	2695.4
2562.66883	2687.5
2565.36794	2679
2568.06536	2678.2
2570.7611	2686.5
2573.45514	2675.7
2576.14751	2659.9
2578.83819	2645.9
2581.52719	2638.8
2584.21451	2638.1
2586.90015	2623.2
2589.58411	2621.7
2592.2664	2620.8
2594.94701	2627.7
2597.62594	2613.9
2600.30321	2619.5
2602.9788	2606.2
2605.65273	2604.4
2608.32498	2604.5
2610.99557	2595.2
2613.66449	2594.2
2616.33175	2599.5
2618.99734	2608.8
2621.66128	2574.1
2624.32355	2577.4
2626.98416	2579.8
2629.64311	2579.1
2632.30041	2566.9
2634.95605	2553.5
2637.61004	2559.8
2640.26238	2540.3
2642.91306	2538.6
2645.56209	2540.2
2648.20948	2543.4
2650.85521	2533.2
2653.4993	2534
2656.14175	2531.9
2658.78255	2539.6
2661.42171	2551.7
2664.05923	2541
2666.6951	2549.9
2669.32934	2544.8
2671.96194	2545.9
2674.59291	2544.7
2677.22224	2544.7
2679.84993	2540.9
2682.476	2531.5
2685.10043	2530.2
2687.72324	2537.8
2690.34441	2519.2
2692.96396	2516.1
2695.58188	2525.5
2698.19818	2513.2
2700.81285	2514.1
2703.4259	2504.3
2706.03733	2499.3
2708.64714	2504
2711.25533	2513.6
2713.86191	2507.2
2716.46687	2519.4
2719.07021	2505.1
2721.67194	2506.8
2724.27206	2516.4
2726.87057	2516.8
2729.46747	2504.5
2732.06276	2504.9
2734.65644	2499.7
2737.24852	2493.2
2739.83899	2491.7
2742.42786	2469.8
2745.01513	2477.6
2747.60079	2469.2
2750.18486	2461.2
2752.76733	2472.4
2755.3482	2459.1
2757.92747	2449.3
2760.50515	2446
2763.08123	2442.1
2765.65573	2440.3
2768.22863	2433.4
2770.79994	2424.1
2773.36967	2421.8
2775.9378	2415
2778.50435	2423.8
2781.06932	2423.9
2783.6327	2428.3
2786.1945	2404.3
2788.75471	2421.1
2791.31335	2404.3
2793.87041	2409.9
2796.42589	2393.8
2798.97979	2401
2801.53212	2408.3
2804.08288	2397
2806.63206	2399.2
2809.17967	2388
2811.72571	2383.9
2814.27018	2384.3
2816.81308	2390.8
2819.35442	2395.6
2821.89419	2384.2
2824.43239	2397.6
2826.96904	2393.7
2829.50412	2394.5
2832.03763	2384.4
2834.56959	2381.2
2837.1	2376.7
2839.62884	2397.2
2842.15613	2393.6
2844.68186	2405.3
2847.20604	2407.5
2849.72867	2421.2
2852.24974	2418.6
2854.76927	2418.5
2857.28724	2418
2859.80367	2427.8
2862.31855	2417.9
2864.83189	2424.9
2867.34368	2418.1
2869.85393	2415.1
2872.36264	2429.4
2874.8698	2427.6
2877.37543	2422
2879.87952	2422.3
2882.38207	2415.3
2884.88308	2415.8
2887.38256	2396.4
2889.88051	2405.4
2892.37692	2391.6
2894.8718	2409.4
2897.36515	2404.5
2899.85698	2394.7
2902.34727	2407
2904.83604	2415.3
2907.32328	2420.1
2909.809	2433.6
2912.29319	2436.2
2914.77587	2434.1
2917.25702	2444.2
2919.73665	2434.2
2922.21476	2439.5
2924.69136	2417.5
2927.16644	2418.9
2929.64	2409.7
2932.11205	2403.3
2934.58258	2400.7
2937.05161	2385.8
2939.51912	2386.5
2941.98513	2370
2944.44962	2352.5
2946.91261	2342.4
2949.37409	2333.6
2951.83407	2337.8
2954.29254	2324.6
2956.74951	2318.7
2959.20498	2316.9
2961.65895	2309
2964.11142	2294.8
2966.56239	2283.5
2969.01186	2280.4
2971.45984	2270.2
2973.90632	2262
2976.35131	2244.5
2978.7948	2254.5
2981.23681	2240.7
2983.67732	2231.1
2986.11635	2225.3
2988.55388	2228.4
2990.98993	2209.4
2993.4245	2209
2995.85758	2205.2
2998.28917	2199.2
3000.71928	2183.8
3003.14791	2189.8
3005.57506	2177
3008.00073	2168.7
3010.42493	2167.9
3012.84764	2168.8
3015.26888	2164.3
3017.68865	2156.9
3020.10694	2142.5
3022.52376	2142.2
3024.9391	2128.9
3027.35298	2121
3029.76539	2120.1
3032.17632	2119.1
3034.5858	2113.3
3036.9938	2105.5
3039.40034	2100.5
3041.80542	2109.9
3044.20903	2095.2
3046.61118	2088.4
3049.01187	2095.9
3051.4111	2087
3053.80888	2092.4
3056.20519	2075.1
3058.60005	2081.4
3060.99345	2081.7
3063.3854	2076.8
3065.7759	2062.6
3068.16494	2065
3070.55254	2056.6
3072.93868	2048.1
3075.32338	2056.7
3077.70662	2042.5
3080.08842	2039.3
3082.46878	2031.3
3084.84769	2022.1
3087.22515	2026.1
3089.60118	2030.2
3091.97576	2034.5
3094.3489	2032.7
3096.72061	2032.5
3099.09087	2030.8
3101.4597	2032.8
3103.82709	2041.5
3106.19305	2044.7
3108.55757	2044.5
3110.92066	2039.2
3113.28232	2032.7
3115.64255	2022
3118.00134	2026.5
3120.35871	2027.5
3122.71466	2023.6
3125.06917	2017.9
3127.42226	2028.7
3129.77393	2035.9
3132.12417	2020
3134.47299	2028
3136.82039	2032.1
3139.16636	2027.2
3141.51092	2045.9
3143.85406	2038.9
3146.19579	2052.2
3148.53609	2044
3150.87499	2057.8
3153.21246	2046.9
3155.54853	2059.7
3157.88318	2075.3
3160.21642	2077.4
3162.54826	2078.1
3164.87868	2078.3
3167.2077	2086.9
3169.5353	2080.6
3171.86151	2086.2
3174.18631	2080.3
3176.5097	2091.4
3178.83169	2072.8
3181.15228	2081.2
3183.47147	2074.4
3185.78926	2080.7
3188.10565	2069.7
3190.42065	2064.7
3192.73424	2071.6
3195.04645	2061
3197.35725	2066.5
3199.66667	2065.8
3201.97469	2067.5
3204.28132	2083.6
3206.58656	2073.7
3208.8904	2081.7
3211.19287	2092
3213.49394	2091.9
3215.79363	2095
3218.09193	2107.3
3220.38884	2107.3
3222.68438	2095.3
3224.97853	2094.5
3227.2713	2103.8
3229.56269	2093.9
3231.8527	2089
3234.14133	2090.7
3236.42858	2092.6
3238.71446	2089.3
3240.99896	2075.3
3243.28209	2080.9
3245.56384	2083
3247.84423	2079.1
3250.12324	2071
3252.40088	2069.3
3254.67715	2065.1
3256.95205	2057.7
3259.22558	2059.3
3261.49775	2057.2
3263.76855	2044.4
3266.03799	2049.9
3268.30606	2050
3270.57277	2048.5
3272.83812	2040.4
3275.10211	2043.4
3277.36474	2048.7
3279.62601	2046.8
3281.88593	2044.8
3284.14448	2044.5
3286.40168	2032.7
3288.65753	2035.2
3290.91202	2038.6
3293.16516	2032
3295.41695	2026.6
3297.66738	2021.2
3299.91647	2013.7
3302.16421	1993.9
3304.4106	1982.9
3306.65564	1973.3
3308.89933	1955.3
3311.14169	1951.4
3313.38269	1926.6
3315.62236	1911.3
3317.86068	1888
3320.09766	1877.7
3322.3333	1860.5
3324.5676	1851.7
3326.80056	1822.3
3329.03219	1815.3
3331.26248	0.6
3333.49143	0.5
3335.71905	-1.2
