Data from AgNPs_FTO_APTES_UA_20uM_CRN_2uM_R6G_10uM_NaF_0.1M_Addition_RamanShift__21__13-05-02-093.txt Node

Date: Thu Feb 17 13:05:02 GMT 2022
User: TCL
Spectrometer: QEP01345
Trigger mode: 4
Integration Time (sec): 7.000000E0
Scans to average: 10
Electric dark correction enabled: true
Nonlinearity correction enabled: false
Boxcar width: 0
XAxis mode: Raman Shifts
Number of Pixels in Spectrum: 1044
>>>>>Begin Spectral Data<<<<<
46.04893	-1.3
50.45542	-1.1
54.85868	-3
59.25871	-1.9
63.6555	125.3
68.04907	126.8
72.43941	133.6
76.82654	139.9
81.21044	143.6
85.59113	147.6
89.96862	150.4
94.34289	154
98.71396	157.4
103.08183	162.9
107.4465	171.6
111.80798	175.1
116.16626	180.6
120.52136	193.8
124.87327	199.2
129.222	208.2
133.56755	228.1
137.90993	244.7
142.24913	269
146.58517	305
150.91804	365.9
155.24774	434.9
159.57429	553.8
163.89768	724.1
168.21792	961.4
172.53501	1324.2
176.84895	1852
181.15975	2620.8
185.46741	3701
189.77193	5114.7
194.07331	6857.4
198.37157	8833.8
202.6667	10942.1
206.9587	13002.7
211.24758	15056
215.53334	17101.7
219.81599	19269.2
224.09553	21672.8
228.37195	24341.9
232.64527	27299.8
236.91549	30455.5
241.18261	33635.8
245.44663	36579.9
249.70755	39250.3
253.96539	41607.2
258.22014	43662.5
262.4718	45277
266.72039	46571.5
270.96589	47287.1
275.20832	47470.8
279.44768	47237.2
283.68397	46900.8
287.91719	46531.2
292.14735	46318.2
296.37445	46328.3
300.59849	46356.7
304.81948	46471
309.03742	46416
313.25231	45987.1
317.46415	45202.2
321.67296	44136.5
325.87872	43328.5
330.08145	42990
334.28114	43028.8
338.47781	43410.2
342.67145	44044.5
346.86207	44806.2
351.04966	45745.9
355.23424	46753.7
359.4158	47571.8
363.59435	48168.1
367.76989	48603.9
371.94243	49021.5
376.11196	49305.5
380.27849	49587.1
384.44203	49861.6
388.60257	50134.3
392.76012	50479.1
396.91468	51005.4
401.06626	51683.2
405.21485	52226.2
409.36047	52224.5
413.50311	51646.1
417.64277	51149.1
421.77947	51099.8
425.9132	51337.6
430.04396	51714.2
434.17176	52124.4
438.2966	52695
442.41849	53599.7
446.53742	54954.8
450.6534	56488.4
454.76644	57695.7
458.87653	58249.8
462.98368	57954
467.08789	57259
471.18916	56458
475.2875	55676.8
479.38291	55211.5
483.4754	54793.5
487.56496	54225.6
491.6516	53524.6
495.73531	52911.8
499.81612	52602.8
503.89401	52846.3
507.96899	52941.9
512.04106	52841.4
516.11023	52603.5
520.1765	52381.5
524.23987	52144.1
528.30034	51893.3
532.35792	51543.4
536.41261	51121.5
540.46441	50732.5
544.51333	50813.3
548.55936	51290.5
552.60252	52281.2
556.64279	53445.2
560.6802	54192.7
564.71473	54572.9
568.7464	55335.2
572.7752	56439
576.80114	57116.4
580.82422	57675.6
584.84444	58144.9
588.86181	58933.3
592.87633	59817.7
596.888	60262.8
600.89682	60066.1
604.9028	61615.7
608.90594	66446.3
612.90624	71346.1
616.90371	67617.5
620.89834	58257.2
624.89015	54202.3
628.87913	53678
632.86528	53624.5
636.84862	53287.8
640.82913	52612.4
644.80683	51493.1
648.78172	50617.5
652.75379	50575.7
656.72306	51238.1
660.68952	52164.6
664.65319	52087.9
668.61405	51313.9
672.57211	51086.3
676.52738	51152.5
680.47986	51115.6
684.42955	51016.6
688.37646	50962
692.32058	51195.8
696.26192	51736.4
700.20048	52353.2
704.13626	52640.3
708.06928	52533.9
711.99952	52238.1
715.927	52165.8
719.85171	52270.4
723.77365	52151.8
727.69284	51722.7
731.60928	51381.2
735.52295	51207.1
739.43388	51400.3
743.34206	51568.1
747.24749	51925.4
751.15017	52279.6
755.05012	53011.2
758.94733	54363.4
762.8418	56705.6
766.73354	60410.9
770.62254	63857.3
774.50882	64560.1
778.39237	61836.9
782.27321	57818.1
786.15132	54592.4
790.02671	52736.6
793.89938	51778.9
797.76935	51436.2
801.6366	51335.3
805.50115	51248.7
809.36299	51027.1
813.22213	50766.6
817.07857	50672.9
820.93231	50635.9
824.78336	50551.3
828.63172	50530.8
832.47738	50530.9
836.32036	50645.7
840.16066	50849.6
843.99827	51006.1
847.8332	50961
851.66546	50788
855.49504	50670.5
859.32195	50750.5
863.1462	50666.1
866.96777	50476
870.78668	50408.1
874.60293	50392.9
878.41652	50522.7
882.22745	50599.9
886.03573	50687.9
889.84136	50651.7
893.64433	50511
897.44466	50287.9
901.24235	50158.1
905.0374	50074.8
908.8298	49954.7
912.61957	50079.9
916.40671	50467
920.19121	51050.5
923.97308	51587.2
927.75233	51678.4
931.52895	51362.9
935.30295	50928.9
939.07433	50253.6
942.84309	49722.4
946.60924	49557.6
950.37278	49467.4
954.13371	49417.7
957.89203	49194.5
961.64774	49027
965.40086	48881.3
969.15137	48784.6
972.89929	48573.6
976.64461	48545.3
980.38733	48539.9
984.12747	48732.9
987.86502	49180
991.59999	49838.3
995.33237	50782.1
999.06217	52123.8
1002.78939	53705.5
1006.51404	54868.2
1010.23611	55605.4
1013.95561	56000.5
1017.67255	56070.3
1021.38692	55620.8
1025.09872	55040.1
1028.80796	55339.4
1032.51465	56543.2
1036.21877	57634.3
1039.92035	57735.4
1043.61937	57100.5
1047.31584	55824.9
1051.00976	54473.1
1054.70114	53823.6
1058.38998	53709.5
1062.07627	53833.9
1065.76003	54107.7
1069.44126	54477.4
1073.11995	54948.6
1076.79611	55367.3
1080.46974	55828.9
1084.14085	56287.2
1087.80943	56886.6
1091.47549	57183.9
1095.13903	56972.7
1098.80005	56253.4
1102.45857	55459.7
1106.11456	55003.2
1109.76805	54963.5
1113.41903	55346.8
1117.06751	55845.4
1120.71348	56345.7
1124.35696	56835.3
1127.99793	57178
1131.63641	57215.3
1135.2724	56858.7
1138.90589	56427.2
1142.5369	56218.8
1146.16542	56104.3
1149.79145	56283.8
1153.415	56772.2
1157.03607	57429.6
1160.65467	58629.4
1164.27079	60470.8
1167.88443	63016.8
1171.49561	66482.1
1175.10432	71020.6
1178.71056	76540.6
1182.31434	81781.5
1185.91565	84437.7
1189.51451	84225
1193.11091	81902
1196.70485	78640.8
1200.29634	75611.7
1203.88538	73170.9
1207.47197	71411.8
1211.05612	69884.6
1214.63782	68740.1
1218.21708	68279.6
1221.79391	68295
1225.36829	68258.2
1228.94024	67512.4
1232.50976	66217.6
1236.07685	65169.2
1239.6415	64767.9
1243.20374	64772.9
1246.76355	65209.3
1250.32093	66065.4
1253.8759	67338.3
1257.42845	68967
1260.97859	70541.5
1264.52631	71976.4
1268.07163	73597.9
1271.61453	75489
1275.15503	77417.5
1278.69312	79478.6
1282.22882	81047
1285.76211	82717.4
1289.29301	84520.8
1292.82151	86730.6
1296.34761	89940.3
1299.87133	94118.6
1303.39266	99261.3
1306.9116	105188.1
1310.42815	111084.7
1313.94233	115009.8
1317.45412	115488.8
1320.96354	113617.2
1324.47058	111204.6
1327.97525	108947.7
1331.47754	107362.2
1334.97747	106847
1338.47502	107503.2
1341.97022	108212.9
1345.46305	107772.9
1348.95352	106332.5
1352.44163	104898.9
1355.92738	105646.3
1359.41078	109051.5
1362.89183	112229.4
1366.37053	109788.7
1369.84688	101393.5
1373.32088	91838.6
1376.79254	85452.6
1380.26186	82586.3
1383.72883	81990.3
1387.19347	81875.3
1390.65578	81423.6
1394.11575	81572.7
1397.57339	82677.6
1401.0287	84466.5
1404.48168	86318.5
1407.93234	87592.1
1411.38068	87734.6
1414.82669	86271.2
1418.27039	83619.6
1421.71177	80302.1
1425.15083	77350.3
1428.58758	75802.7
1432.02203	75868.8
1435.45416	76974.7
1438.88399	78505.6
1442.31151	79938.7
1445.73673	81065.3
1449.15965	82012.8
1452.58027	82623.1
1455.9986	82770.3
1459.41463	83121
1462.82837	84136.9
1466.23982	85570.6
1469.64898	87022.7
1473.05586	87998.7
1476.46045	88213.1
1479.86276	87955.5
1483.26279	87424.1
1486.66054	87057.5
1490.05602	87343.1
1493.44922	87843.1
1496.84016	88136.9
1500.22882	88853.6
1503.61521	90658.5
1506.99934	93083.4
1510.38121	95261.1
1513.76081	95627.1
1517.13816	93485.6
1520.51324	90116.3
1523.88607	87096.8
1527.25665	85559.2
1530.62498	85022.2
1533.99105	85019.8
1537.35488	84829.6
1540.71647	84409.2
1544.07581	83516.3
1547.4329	82345.4
1550.78776	81019.5
1554.14038	79972.4
1557.49077	79451.8
1560.83892	79060.2
1564.18484	78809
1567.52853	78636.7
1570.86999	78587.5
1574.20922	79071.4
1577.54624	79542.4
1580.88103	79393.4
1584.2136	79630.3
1587.54395	81471.3
1590.87208	85366.7
1594.19801	90868
1597.52172	96661.7
1600.84321	99047.6
1604.16251	96002.3
1607.47959	89831.3
1610.79447	82767.3
1614.10715	76158.7
1617.41763	70739.8
1620.7259	67032
1624.03199	65139.6
1627.33587	64924.8
1630.63757	66434
1633.93707	69932.2
1637.23439	75265.6
1640.52951	82669.3
1643.82246	90663.9
1647.11321	96422.8
1650.40179	96728.9
1653.68819	90581.1
1656.97241	80386.5
1660.25446	70469
1663.53433	63256.8
1666.81203	58614.3
1670.08756	55649.7
1673.36092	53840.2
1676.63211	52520.9
1679.90115	51578.5
1683.16801	50880.1
1686.43272	50426.2
1689.69527	50019.4
1692.95567	49689.9
1696.2139	49619.1
1699.46999	49498.9
1702.72392	49347.6
1705.97571	49250.7
1709.22535	49118.3
1712.47284	49122.9
1715.71819	49073.8
1718.96139	48967.6
1722.20246	48800.5
1725.44139	48650.7
1728.67818	48428.9
1731.91284	48216.1
1735.14537	47983
1738.37576	47791.9
1741.60403	47705.2
1744.83017	47440.4
1748.05418	47379
1751.27607	47298.6
1754.49584	47221.2
1757.71349	47233
1760.92903	47206
1764.14244	47153.8
1767.35375	47161.8
1770.56294	47121
1773.77002	47051
1776.97499	47068.2
1780.17785	46972.4
1783.37861	46922.7
1786.57727	46804.6
1789.77382	46751.9
1792.96828	46755.5
1796.16064	46623.9
1799.3509	46569.8
1802.53907	46565.4
1805.72514	46461
1808.90913	46358.3
1812.09102	46265
1815.27083	46244.2
1818.44856	46143.3
1821.6242	46081.1
1824.79776	46011.6
1827.96924	46031.3
1831.13864	45998
1834.30597	46004.1
1837.47122	45936.5
1840.6344	45885.6
1843.7955	45947.1
1846.95454	45948.8
1850.11151	45935.6
1853.26642	45939.3
1856.41926	45964.6
1859.57004	45930.8
1862.71876	45886.8
1865.86542	45884.7
1869.01003	45825.1
1872.15258	45815.8
1875.29308	45792.6
1878.43152	45795.5
1881.56792	45783.8
1884.70227	45806.5
1887.83457	45843.8
1890.96482	45810.2
1894.09304	45747.7
1897.21921	45734.3
1900.34335	45684
1903.46544	45587.4
1906.58551	45639.2
1909.70353	45653.6
1912.81953	45623.2
1915.93349	45541.3
1919.04543	45373.7
1922.15534	45377.9
1925.26322	45262.3
1928.36908	45190.5
1931.47292	45119.9
1934.57473	45065.6
1937.67453	44917.6
1940.77232	44803.2
1943.86808	44668.3
1946.96184	44533.6
1950.05358	44383
1953.14331	44314.1
1956.23103	44164.2
1959.31675	44051.1
1962.40046	43893.7
1965.48217	43751.2
1968.56188	43641.7
1971.63959	43550.9
1974.7153	43403.6
1977.78901	43256.7
1980.86073	43141.6
1983.93046	43077.3
1986.99819	42912.9
1990.06394	42864.5
1993.1277	42774
1996.18947	42629.7
1999.24925	42533.1
2002.30706	42390
2005.36288	42259.1
2008.41672	42162.9
2011.46859	42060.9
2014.51848	41922.3
2017.56639	41782.7
2020.61233	41741.7
2023.6563	41640.7
2026.6983	41525.1
2029.73833	41501.1
2032.7764	41395.1
2035.8125	41413.3
2038.84664	41234.4
2041.87881	41232.6
2044.90903	41155.5
2047.93729	41081.2
2050.96359	41117.7
2053.98794	41040.7
2057.01034	41067.8
2060.03078	41059.7
2063.04927	41016.9
2066.06582	40998.5
2069.08042	40910.3
2072.09307	40908.3
2075.10378	40780.6
2078.11255	40795.1
2081.11938	40811.3
2084.12426	40804.4
2087.12722	40750.5
2090.12824	40711.8
2093.12732	40725
2096.12447	40709
2099.11969	40622.6
2102.11299	40720.1
2105.10435	40690
2108.09379	40690.7
2111.08131	40758.4
2114.0669	40764.7
2117.05057	40771.4
2120.03233	40796.1
2123.01216	40825.9
2125.99008	40899
2128.96609	40963.1
2131.94018	40961
2134.91236	41010.2
2137.88263	41094.8
2140.851	41127.7
2143.81746	41153.3
2146.78201	41150.5
2149.74466	41149
2152.7054	41167.3
2155.66425	41158
2158.6212	41184.9
2161.57625	41123.7
2164.52941	41084.2
2167.48067	41137.4
2170.43004	41064.2
2173.37752	41060.3
2176.32311	41195.5
2179.26681	41158.1
2182.20863	41133.7
2185.14856	41201.1
2188.08661	41214.6
2191.02278	41186
2193.95707	41145.7
2196.88948	41112.2
2199.82001	41163.4
2202.74867	41110.5
2205.67545	41090.6
2208.60037	41088.6
2211.52341	41031.4
2214.44458	41003.9
2217.36388	40969.6
2220.28132	40917.3
2223.1969	40849.3
2226.11061	40789.6
2229.02246	40592.9
2231.93245	40531.2
2234.84058	40541.2
2237.74686	40481.8
2240.65128	40453.2
2243.55385	40351.4
2246.45456	40374.5
2249.35343	40293.3
2252.25044	40265.5
2255.14561	40131.4
2258.03893	40175.5
2260.93041	40070.8
2263.82004	39977.8
2266.70783	39830.4
2269.59378	39778.6
2272.4779	39713.3
2275.36017	39626.2
2278.24061	39583.1
2281.11922	39482.9
2283.996	39431
2286.87094	39408.3
2289.74405	39420.4
2292.61534	39432.9
2295.4848	39342.9
2298.35243	39410.4
2301.21824	39379.1
2304.08223	39320.8
2306.94439	39400.8
2309.80474	39382
2312.66327	39450.7
2315.51999	39367.4
2318.37489	39347.2
2321.22797	39331.3
2324.07925	39379.7
2326.92871	39264.9
2329.77637	39197.4
2332.62222	39191.7
2335.46626	39179.8
2338.3085	39223.8
2341.14893	39229.6
2343.98756	39245.5
2346.8244	39194.9
2349.65943	39245.9
2352.49267	39266.4
2355.32411	39277
2358.15376	39207.1
2360.98161	39166.5
2363.80768	39137.9
2366.63195	39071
2369.45444	39044.2
2372.27514	39004.2
2375.09405	38941
2377.91118	38854.3
2380.72652	38709.7
2383.54009	38612.5
2386.35187	38581.5
2389.16188	38443
2391.97011	38427.5
2394.77657	38407.5
2397.58125	38355.3
2400.38416	38260.1
2403.18529	38231.5
2405.98466	38167.3
2408.78226	38075.2
2411.57809	37998.1
2414.37216	37979.2
2417.16446	37947.1
2419.955	37898.1
2422.74378	37859.5
2425.5308	37813.2
2428.31606	37872
2431.09956	37861.5
2433.88131	37818.1
2436.6613	37868.5
2439.43954	37785.2
2442.21603	37803.5
2444.99077	37716.6
2447.76377	37729.5
2450.53501	37700.9
2453.30451	37750.8
2456.07226	37661.1
2458.83827	37666.3
2461.60254	37634.4
2464.36507	37619.5
2467.12586	37633.6
2469.88492	37654.2
2472.64224	37698.7
2475.39782	37654.8
2478.15167	37727.1
2480.90379	37685.5
2483.65417	37750.5
2486.40283	37765.5
2489.14976	37801.8
2491.89497	37778
2494.63845	37838.4
2497.3802	37854
2500.12024	37868.2
2502.85855	37820.4
2505.59514	37749.1
2508.33002	37712.4
2511.06318	37695.3
2513.79462	37652.9
2516.52435	37637.7
2519.25237	37584.6
2521.97867	37567.1
2524.70327	37577.3
2527.42616	37485.1
2530.14734	37513.6
2532.86681	37483.1
2535.58458	37448.1
2538.30065	37464.5
2541.01501	37494.1
2543.72768	37453
2546.43864	37476.7
2549.14791	37412.9
2551.85548	37330.4
2554.56136	37274.6
2557.26554	37179.4
2559.96803	37182.2
2562.66883	37125.4
2565.36794	37111.9
2568.06536	37081.6
2570.7611	36982.1
2573.45514	36983.5
2576.14751	36958.7
2578.83819	36921.7
2581.52719	36953.1
2584.21451	36923.3
2586.90015	36941.2
2589.58411	36893.1
2592.2664	36924.3
2594.94701	36912.2
2597.62594	36923.7
2600.30321	36891.1
2602.9788	36920.1
2605.65273	36884.8
2608.32498	36916.3
2610.99557	36862
2613.66449	36915.5
2616.33175	36860.6
2618.99734	36829.9
2621.66128	36814.4
2624.32355	36787.5
2626.98416	36800.3
2629.64311	36771.5
2632.30041	36833.6
2634.95605	36760
2637.61004	36753.1
2640.26238	36765.6
2642.91306	36704.1
2645.56209	36605.6
2648.20948	36667
2650.85521	36615.1
2653.4993	36616.7
2656.14175	36622.4
2658.78255	36665.9
2661.42171	36644.5
2664.05923	36758.5
2666.6951	36720.4
2669.32934	36767.2
2671.96194	36769.3
2674.59291	36825.3
2677.22224	36808.4
2679.84993	36851.2
2682.476	36754.4
2685.10043	36714.2
2687.72324	36671.5
2690.34441	36701.9
2692.96396	36691.2
2695.58188	36698.4
2698.19818	36643.2
2700.81285	36616.2
2703.4259	36586.7
2706.03733	36646
2708.64714	36661.8
2711.25533	36684.1
2713.86191	36670.6
2716.46687	36758.4
2719.07021	36755.3
2721.67194	36752
2724.27206	36681.6
2726.87057	36807.5
2729.46747	36825.6
2732.06276	36790
2734.65644	36816
2737.24852	36842.5
2739.83899	36809.6
2742.42786	36830.7
2745.01513	36756.7
2747.60079	36798.2
2750.18486	36763.8
2752.76733	36756.3
2755.3482	36703.2
2757.92747	36709.1
2760.50515	36704.2
2763.08123	36640.9
2765.65573	36651.2
2768.22863	36681.5
2770.79994	36590.5
2773.36967	36690.5
2775.9378	36672
2778.50435	36659.7
2781.06932	36635.7
2783.6327	36647.3
2786.1945	36615
2788.75471	36540.1
2791.31335	36463.3
2793.87041	36471.8
2796.42589	36381.5
2798.97979	36314.7
2801.53212	36201.2
2804.08288	36194.8
2806.63206	36110
2809.17967	36098.1
2811.72571	35990.7
2814.27018	35882.6
2816.81308	35836
2819.35442	35755.5
2821.89419	35723.5
2824.43239	35745.1
2826.96904	35721.4
2829.50412	35733.8
2832.03763	35654.9
2834.56959	35652.7
2837.1	35589.2
2839.62884	35554.8
2842.15613	35519.4
2844.68186	35497.2
2847.20604	35402.8
2849.72867	35424.5
2852.24974	35362.2
2854.76927	35316.8
2857.28724	35323.5
2859.80367	35263.1
2862.31855	35231.7
2864.83189	35210.3
2867.34368	35115.7
2869.85393	35151.9
2872.36264	35122.1
2874.8698	35096
2877.37543	35056.7
2879.87952	35062.6
2882.38207	35109.3
2884.88308	35064.7
2887.38256	35083
2889.88051	35123.9
2892.37692	35134.9
2894.8718	35118.1
2897.36515	35204.3
2899.85698	35206.1
2902.34727	35281.7
2904.83604	35249
2907.32328	35307.7
2909.809	35319.3
2912.29319	35342
2914.77587	35348.9
2917.25702	35337.1
2919.73665	35300.2
2922.21476	35281.2
2924.69136	35266.2
2927.16644	35180.4
2929.64	35155.9
2932.11205	35133.2
2934.58258	35078.7
2937.05161	35132.7
2939.51912	35129.6
2941.98513	35046
2944.44962	35013.9
2946.91261	34953.7
2949.37409	35041.1
2951.83407	34955.8
2954.29254	34968.8
2956.74951	34949.1
2959.20498	34942.3
2961.65895	34917.8
2964.11142	34927.6
2966.56239	34881.3
2969.01186	34860.5
2971.45984	34694
2973.90632	34641.5
2976.35131	34592.4
2978.7948	34565.2
2981.23681	34542.2
2983.67732	34477.7
2986.11635	34389
2988.55388	34293.4
2990.98993	34249.5
2993.4245	34232.3
2995.85758	34121.6
2998.28917	34013.9
3000.71928	33964.8
3003.14791	33882.8
3005.57506	33877.4
3008.00073	33759.8
3010.42493	33761.2
3012.84764	33648.6
3015.26888	33625.5
3017.68865	33503.8
3020.10694	33514.3
3022.52376	33394.9
3024.9391	33386.4
3027.35298	33368.8
3029.76539	33326.3
3032.17632	33330.7
3034.5858	33275.2
3036.9938	33247.5
3039.40034	33230.9
3041.80542	33237
3044.20903	33173.7
3046.61118	33140.9
3049.01187	33035.5
3051.4111	33027.6
3053.80888	32896.1
3056.20519	32836.6
3058.60005	32750.4
3060.99345	32753.1
3063.3854	32621
3065.7759	32548.1
3068.16494	32421.2
3070.55254	32290.2
3072.93868	32253.5
3075.32338	32110.4
3077.70662	32105.5
3080.08842	31990.9
3082.46878	31911.9
3084.84769	31884.4
3087.22515	31847.8
3089.60118	31799.4
3091.97576	31801.9
3094.3489	31758.4
3096.72061	31762.1
3099.09087	31784.1
3101.4597	31744.5
3103.82709	31718.6
3106.19305	31716
3108.55757	31689.9
3110.92066	31629.5
3113.28232	31616.4
3115.64255	31474.8
3118.00134	31374.7
3120.35871	31331.3
3122.71466	31225.2
3125.06917	31212.2
3127.42226	31123.3
3129.77393	31102.6
3132.12417	31052.4
3134.47299	31034.1
3136.82039	30965.6
3139.16636	30985.5
3141.51092	30987.5
3143.85406	30953.4
3146.19579	30912.3
3148.53609	30892.2
3150.87499	30949.6
3153.21246	30948.8
3155.54853	30892.7
3157.88318	30838.3
3160.21642	30938
3162.54826	30894.1
3164.87868	30832.3
3167.2077	30744.8
3169.5353	30773.7
3171.86151	30800
3174.18631	30782.5
3176.5097	30753.9
3178.83169	30670.7
3181.15228	30668.4
3183.47147	30559
3185.78926	30566.7
3188.10565	30580.4
3190.42065	30585.2
3192.73424	30515
3195.04645	30425.6
3197.35725	30431
3199.66667	30406.2
3201.97469	30415.6
3204.28132	30356
3206.58656	30399.8
3208.8904	30385.3
3211.19287	30379.2
3213.49394	30381.4
3215.79363	30372.4
3218.09193	30404.2
3220.38884	30404.2
3222.68438	30466.6
3224.97853	30347.6
3227.2713	30346.8
3229.56269	30323.7
3231.8527	30296
3234.14133	30253.6
3236.42858	30181
3238.71446	30137.6
3240.99896	30101.1
3243.28209	30073.6
3245.56384	30012.6
3247.84423	29967.3
3250.12324	29967.2
3252.40088	29928.1
3254.67715	29928
3256.95205	29887.7
3259.22558	29893.9
3261.49775	29857.3
3263.76855	29786.8
3266.03799	29718.3
3268.30606	29675.1
3270.57277	29647.3
3272.83812	29586.3
3275.10211	29539.9
3277.36474	29476.5
3279.62601	29493.1
3281.88593	29369.8
3284.14448	29450.6
3286.40168	29465.4
3288.65753	29362.4
3290.91202	29358.9
3293.16516	29323.5
3295.41695	29269.9
3297.66738	29096.1
3299.91647	28915.5
3302.16421	28754.4
3304.4106	28646.5
3306.65564	28435.5
3308.89933	28246.1
3311.14169	28067.1
3313.38269	27875.9
3315.62236	27686.4
3317.86068	27433.2
3320.09766	27192.5
3322.3333	27043.4
3324.5676	26964.3
3326.80056	26524.5
3329.03219	26358.8
3331.26248	7.3
3333.49143	1
3335.71905	-0.7
