Data from AgNPs_FTO_APTES_UA_20uM_CRN_200uM_R6G_10uM_NaF_0.1M_Addition_RamanShift__31__18-28-34-948.txt Node

Date: Thu Feb 17 18:28:34 GMT 2022
User: TCL
Spectrometer: QEP01345
Trigger mode: 4
Integration Time (sec): 1.000000E1
Scans to average: 7
Electric dark correction enabled: true
Nonlinearity correction enabled: false
Boxcar width: 0
XAxis mode: Raman Shifts
Number of Pixels in Spectrum: 1044
>>>>>Begin Spectral Data<<<<<
46.04893	0.55357
50.45542	0.125
54.85868	0.83929
59.25871	-1.01786
63.6555	64.55357
68.04907	67.26786
72.43941	73.41071
76.82654	73.125
81.21044	83.125
85.59113	80.83929
89.96862	83.26786
94.34289	88.69643
98.71396	96.69643
103.08183	94.98214
107.4465	97.69643
111.80798	96.41071
116.16626	99.26786
120.52136	105.69643
124.87327	109.41071
129.222	110.83929
133.56755	115.98214
137.90993	126.69643
142.24913	135.55357
146.58517	148.98214
150.91804	168.41071
155.24774	199.98214
159.57429	249.98214
163.89768	324.41071
168.21792	427.125
172.53501	582.98214
176.84895	816.26786
181.15975	1137.83929
185.46741	1585.55357
189.77193	2202.83929
194.07331	2967.41071
198.37157	3846.41071
202.6667	4780.69643
206.9587	5722.26786
211.24758	6692.83929
215.53334	7702.26786
219.81599	8845.98214
224.09553	10190.41071
228.37195	11636.26786
232.64527	13290.26786
236.91549	14887.41071
241.18261	16268.83929
245.44663	17409.69643
249.70755	18303.26786
253.96539	18975.69643
258.22014	19442.55357
262.4718	19764.41071
266.72039	19914.83929
270.96589	19883.83929
275.20832	19535.69643
279.44768	19067.69643
283.68397	18528.69643
287.91719	18196.98214
292.14735	18313.26786
296.37445	18979.69643
300.59849	20203.41071
304.81948	21795.41071
309.03742	23041.26786
313.25231	23294.26786
317.46415	22029.125
321.67296	19736.26786
325.87872	17739.26786
330.08145	16766.83929
334.28114	16727.55357
338.47781	17152.83929
342.67145	17847.26786
346.86207	18988.55357
351.04966	20687.125
355.23424	22630.26786
359.4158	24076.98214
363.59435	24717.41071
367.76989	24832.83929
371.94243	24651.55357
376.11196	24380.26786
380.27849	24045.41071
384.44203	23609.55357
388.60257	23003.125
392.76012	22590.55357
396.91468	22565.69643
401.06626	23198.69643
405.21485	23653.26786
409.36047	22998.98214
413.50311	21171.98214
417.64277	19430.125
421.77947	18293.125
425.9132	17792.125
430.04396	17650.26786
434.17176	17745.41071
438.2966	18120.26786
442.41849	18819.83929
446.53742	19568.55357
450.6534	20303.41071
454.76644	20635.98214
458.87653	20584.98214
462.98368	20218.125
467.08789	19638.125
471.18916	18971.98214
475.2875	18227.69643
479.38291	17563.69643
483.4754	17109.69643
487.56496	16823.69643
491.6516	16641.69643
495.73531	16599.83929
499.81612	16680.55357
503.89401	16947.69643
507.96899	17423.69643
512.04106	17986.125
516.11023	18662.69643
520.1765	19190.98214
524.23987	19185.98214
528.30034	18767.26786
532.35792	18245.98214
536.41261	17694.83929
540.46441	17051.26786
544.51333	16664.125
548.55936	16620.55357
552.60252	17041.55357
556.64279	17596.26786
560.6802	17895.98214
564.71473	18351.98214
568.7464	19572.26786
572.7752	20252.125
576.80114	19241.125
580.82422	17745.125
584.84444	17091.26786
588.86181	17011.83929
592.87633	17262.69643
596.888	17651.69643
600.89682	18593.69643
604.9028	21813.41071
608.90594	31213.69643
612.90624	44555.98214
616.90371	43736.26786
620.89834	27506.83929
624.89015	19378.41071
628.87913	17755.98214
632.86528	18017.98214
636.84862	18597.26786
640.82913	18225.41071
644.80683	16920.83929
648.78172	16035.69643
652.75379	16049.26786
656.72306	17182.55357
660.68952	18504.125
664.65319	18160.55357
668.61405	16634.83929
672.57211	15914.69643
676.52738	15924.55357
680.47986	15937.125
684.42955	15686.83929
688.37646	15535.26786
692.32058	15583.69643
696.26192	15770.83929
700.20048	16084.41071
704.13626	16293.125
708.06928	16105.55357
711.99952	15929.83929
715.927	15869.83929
719.85171	16064.125
723.77365	16178.98214
727.69284	16011.98214
731.60928	15872.26786
735.52295	15836.125
739.43388	15902.41071
743.34206	15973.98214
747.24749	15994.98214
751.15017	16069.83929
755.05012	16464.55357
758.94733	17691.125
762.8418	20700.83929
766.73354	25611.83929
770.62254	30810.83929
774.50882	34184.26786
778.39237	33539.26786
782.27321	28071.41071
786.15132	21991.83929
790.02671	18400.98214
793.89938	16873.26786
797.76935	16276.26786
801.6366	16015.69643
805.50115	15842.98214
809.36299	15808.83929
813.22213	15749.55357
817.07857	15696.41071
820.93231	15634.26786
824.78336	15689.55357
828.63172	15798.69643
832.47738	15881.55357
836.32036	15763.55357
840.16066	15584.98214
843.99827	15427.26786
847.8332	15446.125
851.66546	15430.26786
855.49504	15445.55357
859.32195	15416.55357
863.1462	15299.55357
866.96777	15261.125
870.78668	15292.69643
874.60293	15361.83929
878.41652	15450.26786
882.22745	15619.125
886.03573	15793.125
889.84136	15740.83929
893.64433	15638.83929
897.44466	15563.55357
901.24235	15582.69643
905.0374	15471.98214
908.8298	15264.98214
912.61957	15148.69643
916.40671	15162.26786
920.19121	15241.69643
923.97308	15393.41071
927.75233	15751.69643
931.52895	16140.125
935.30295	16012.69643
939.07433	15360.125
942.84309	14765.55357
946.60924	14433.83929
950.37278	14239.83929
954.13371	14146.55357
957.89203	14110.125
961.64774	14066.41071
965.40086	14060.41071
969.15137	14002.55357
972.89929	13951.69643
976.64461	13965.26786
980.38733	13967.41071
984.12747	14048.41071
987.86502	14048.83929
991.59999	14183.69643
995.33237	14338.41071
999.06217	14728.41071
1002.78939	15149.98214
1006.51404	15527.55357
1010.23611	15952.98214
1013.95561	16250.26786
1017.67255	16223.69643
1021.38692	15965.69643
1025.09872	15606.26786
1028.80796	15386.55357
1032.51465	15439.26786
1036.21877	15622.69643
1039.92035	15762.125
1043.61937	15867.55357
1047.31584	15839.55357
1051.00976	15752.69643
1054.70114	15565.98214
1058.38998	15486.41071
1062.07627	15491.41071
1065.76003	15507.125
1069.44126	15571.98214
1073.11995	15739.125
1076.79611	16133.125
1080.46974	16733.98214
1084.14085	17510.41071
1087.80943	18240.83929
1091.47549	18427.55357
1095.13903	17940.83929
1098.80005	17017.125
1102.45857	16401.83929
1106.11456	16302.69643
1109.76805	16639.55357
1113.41903	17396.26786
1117.06751	18531.125
1120.71348	20013.26786
1124.35696	21653.125
1127.99793	22670.41071
1131.63641	22123.83929
1135.2724	20298.98214
1138.90589	18702.41071
1142.5369	17754.69643
1146.16542	17097.83929
1149.79145	16713.125
1153.415	16582.83929
1157.03607	16751.83929
1160.65467	17144.41071
1164.27079	17892.125
1167.88443	19142.41071
1171.49561	21171.125
1175.10432	24624.26786
1178.71056	29454.55357
1182.31434	33178.125
1185.91565	33998.83929
1189.51451	32584.98214
1193.11091	29790.125
1196.70485	26835.125
1200.29634	24881.55357
1203.88538	23262.98214
1207.47197	21306.69643
1211.05612	19605.55357
1214.63782	18579.41071
1218.21708	18204.41071
1221.79391	18088.55357
1225.36829	18054.41071
1228.94024	17991.69643
1232.50976	17908.98214
1236.07685	18009.41071
1239.6415	18207.26786
1243.20374	18465.125
1246.76355	18637.55357
1250.32093	18893.55357
1253.8759	19417.69643
1257.42845	20183.125
1260.97859	21010.26786
1264.52631	21917.69643
1268.07163	22762.83929
1271.61453	23427.83929
1275.15503	23732.55357
1278.69312	23746.125
1282.22882	23844.83929
1285.76211	24502.55357
1289.29301	25572.125
1292.82151	26683.26786
1296.34761	27952.55357
1299.87133	29889.55357
1303.39266	33376.125
1306.9116	38661.69643
1310.42815	44303.83929
1313.94233	46429.26786
1317.45412	43582.26786
1320.96354	38511.55357
1324.47058	33519.83929
1327.97525	29763.69643
1331.47754	27742.41071
1334.97747	27272.98214
1338.47502	27968.125
1341.97022	29722.125
1345.46305	32301.69643
1348.95352	35756.55357
1352.44163	40111.125
1355.92738	46429.83929
1359.41078	55336.125
1362.89183	62017.83929
1366.37053	58007.125
1369.84688	47078.125
1373.32088	37445.55357
1376.79254	31195.26786
1380.26186	27772.125
1383.72883	25683.98214
1387.19347	24082.41071
1390.65578	22586.26786
1394.11575	21450.69643
1397.57339	20873.55357
1401.0287	20851.125
1404.48168	21043.41071
1407.93234	21432.41071
1411.38068	21924.41071
1414.82669	22241.98214
1418.27039	22217.55357
1421.71177	21914.55357
1425.15083	21519.125
1428.58758	21447.125
1432.02203	21777.69643
1435.45416	22055.98214
1438.88399	22113.41071
1442.31151	22019.125
1445.73673	22050.26786
1449.15965	22114.69643
1452.58027	21915.83929
1455.9986	21515.55357
1459.41463	21385.26786
1462.82837	21637.69643
1466.23982	22285.55357
1469.64898	22966.98214
1473.05586	23458.26786
1476.46045	23823.83929
1479.86276	24467.125
1483.26279	25342.98214
1486.66054	26344.98214
1490.05602	27720.26786
1493.44922	29626.83929
1496.84016	32532.125
1500.22882	37295.26786
1503.61521	43935.26786
1506.99934	51478.69643
1510.38121	57513.26786
1513.76081	58632.98214
1517.13816	53128.26786
1520.51324	43856.83929
1523.88607	35753.41071
1527.25665	30594.55357
1530.62498	27751.98214
1533.99105	26263.83929
1537.35488	25438.41071
1540.71647	25084.98214
1544.07581	25131.55357
1547.4329	25304.26786
1550.78776	25452.26786
1554.14038	25419.69643
1557.49077	25565.69643
1560.83892	26002.55357
1564.18484	26926.55357
1567.52853	28282.98214
1570.86999	29519.26786
1574.20922	30111.98214
1577.54624	29720.41071
1580.88103	27557.98214
1584.2136	24744.26786
1587.54395	23101.41071
1590.87208	23092.26786
1594.19801	24607.26786
1597.52172	26937.26786
1600.84321	28160.41071
1604.16251	27441.83929
1607.47959	25653.55357
1610.79447	23411.41071
1614.10715	21214.55357
1617.41763	19514.83929
1620.7259	18547.83929
1624.03199	18106.83929
1627.33587	18183.83929
1630.63757	18654.69643
1633.93707	19728.69643
1637.23439	21504.83929
1640.52951	24370.98214
1643.82246	28702.69643
1647.11321	33982.26786
1650.40179	37505.125
1653.68819	36192.26786
1656.97241	30456.26786
1660.25446	24297.69643
1663.53433	20174.41071
1666.81203	17836.125
1670.08756	16502.41071
1673.36092	15678.69643
1676.63211	15169.125
1679.90115	14771.98214
1683.16801	14453.69643
1686.43272	14284.83929
1689.69527	14128.41071
1692.95567	14000.98214
1696.2139	13918.55357
1699.46999	13864.98214
1702.72392	13850.125
1705.97571	13866.125
1709.22535	13822.41071
1712.47284	13862.83929
1715.71819	13849.69643
1718.96139	13872.83929
1722.20246	13786.98214
1725.44139	13689.41071
1728.67818	13570.69643
1731.91284	13463.125
1735.14537	13339.41071
1738.37576	13254.98214
1741.60403	13196.26786
1744.83017	13126.125
1748.05418	13080.125
1751.27607	13041.69643
1754.49584	12979.26786
1757.71349	12951.125
1760.92903	12943.125
1764.14244	12916.98214
1767.35375	12874.83929
1770.56294	12816.26786
1773.77002	12772.98214
1776.97499	12667.69643
1780.17785	12616.69643
1783.37861	12622.55357
1786.57727	12554.55357
1789.77382	12540.83929
1792.96828	12502.69643
1796.16064	12477.55357
1799.3509	12484.98214
1802.53907	12465.125
1805.72514	12405.26786
1808.90913	12373.69643
1812.09102	12343.98214
1815.27083	12305.69643
1818.44856	12264.55357
1821.6242	12222.55357
1824.79776	12229.98214
1827.96924	12200.55357
1831.13864	12156.41071
1834.30597	12183.125
1837.47122	12142.26786
1840.6344	12112.26786
1843.7955	12091.26786
1846.95454	12093.41071
1850.11151	12072.125
1853.26642	12046.41071
1856.41926	12062.41071
1859.57004	12051.41071
1862.71876	12063.55357
1865.86542	12074.26786
1869.01003	12065.41071
1872.15258	12063.26786
1875.29308	12070.26786
1878.43152	12012.125
1881.56792	12032.41071
1884.70227	12070.125
1887.83457	12061.69643
1890.96482	11996.41071
1894.09304	12005.83929
1897.21921	12005.55357
1900.34335	12012.69643
1903.46544	11984.98214
1906.58551	11972.26786
1909.70353	11962.55357
1912.81953	11958.83929
1915.93349	11941.55357
1919.04543	11922.55357
1922.15534	11901.69643
1925.26322	11873.55357
1928.36908	11857.41071
1931.47292	11798.55357
1934.57473	11796.98214
1937.67453	11752.83929
1940.77232	11683.125
1943.86808	11624.41071
1946.96184	11608.98214
1950.05358	11579.98214
1953.14331	11557.26786
1956.23103	11511.83929
1959.31675	11481.69643
1962.40046	11469.69643
1965.48217	11438.125
1968.56188	11437.55357
1971.63959	11399.26786
1974.7153	11364.55357
1977.78901	11335.125
1980.86073	11284.69643
1983.93046	11237.69643
1986.99819	11167.69643
1990.06394	11120.69643
1993.1277	11113.83929
1996.18947	11038.26786
1999.24925	10981.69643
2002.30706	10963.55357
2005.36288	10937.125
2008.41672	10898.83929
2011.46859	10861.69643
2014.51848	10817.41071
2017.56639	10800.69643
2020.61233	10768.69643
2023.6563	10738.98214
2026.6983	10687.26786
2029.73833	10698.98214
2032.7764	10640.125
2035.8125	10604.125
2038.84664	10612.125
2041.87881	10594.41071
2044.90903	10564.83929
2047.93729	10576.26786
2050.96359	10574.83929
2053.98794	10525.98214
2057.01034	10533.83929
2060.03078	10488.83929
2063.04927	10490.98214
2066.06582	10451.98214
2069.08042	10428.55357
2072.09307	10463.98214
2075.10378	10439.83929
2078.11255	10418.69643
2081.11938	10436.69643
2084.12426	10422.69643
2087.12722	10403.55357
2090.12824	10425.69643
2093.12732	10404.125
2096.12447	10440.41071
2099.11969	10405.41071
2102.11299	10423.26786
2105.10435	10401.55357
2108.09379	10413.69643
2111.08131	10387.26786
2114.0669	10410.69643
2117.05057	10418.98214
2120.03233	10440.41071
2123.01216	10449.55357
2125.99008	10484.125
2128.96609	10473.55357
2131.94018	10488.98214
2134.91236	10508.98214
2137.88263	10476.83929
2140.851	10473.26786
2143.81746	10463.69643
2146.78201	10462.55357
2149.74466	10440.125
2152.7054	10447.55357
2155.66425	10403.41071
2158.6212	10404.26786
2161.57625	10375.26786
2164.52941	10373.41071
2167.48067	10369.69643
2170.43004	10396.83929
2173.37752	10358.69643
2176.32311	10375.69643
2179.26681	10354.26786
2182.20863	10401.83929
2185.14856	10397.55357
2188.08661	10378.55357
2191.02278	10389.69643
2193.95707	10361.41071
2196.88948	10339.26786
2199.82001	10331.125
2202.74867	10305.98214
2205.67545	10311.98214
2208.60037	10300.69643
2211.52341	10285.98214
2214.44458	10243.98214
2217.36388	10256.83929
2220.28132	10220.125
2223.1969	10191.83929
2226.11061	10159.83929
2229.02246	10126.55357
2231.93245	10095.41071
2234.84058	10075.125
2237.74686	10054.69643
2240.65128	10082.41071
2243.55385	10059.125
2246.45456	10071.83929
2249.35343	10067.125
2252.25044	10064.69643
2255.14561	10071.69643
2258.03893	10087.26786
2260.93041	10071.83929
2263.82004	10035.125
2266.70783	10049.125
2269.59378	9991.69643
2272.4779	9963.69643
2275.36017	9930.125
2278.24061	9936.83929
2281.11922	9904.83929
2283.996	9904.125
2286.87094	9858.26786
2289.74405	9823.26786
2292.61534	9802.26786
2295.4848	9811.83929
2298.35243	9802.41071
2301.21824	9735.26786
2304.08223	9775.26786
2306.94439	9738.26786
2309.80474	9739.83929
2312.66327	9769.69643
2315.51999	9732.83929
2318.37489	9731.41071
2321.22797	9721.98214
2324.07925	9706.26786
2326.92871	9685.26786
2329.77637	9670.55357
2332.62222	9640.26786
2335.46626	9650.83929
2338.3085	9628.125
2341.14893	9651.41071
2343.98756	9661.125
2346.8244	9659.26786
2349.65943	9651.125
2352.49267	9670.41071
2355.32411	9690.69643
2358.15376	9720.125
2360.98161	9733.69643
2363.80768	9755.69643
2366.63195	9758.55357
2369.45444	9768.55357
2372.27514	9758.98214
2375.09405	9733.26786
2377.91118	9721.69643
2380.72652	9672.83929
2383.54009	9604.69643
2386.35187	9592.26786
2389.16188	9540.55357
2391.97011	9482.69643
2394.77657	9444.26786
2397.58125	9438.69643
2400.38416	9406.55357
2403.18529	9380.98214
2405.98466	9356.41071
2408.78226	9294.69643
2411.57809	9323.26786
2414.37216	9277.69643
2417.16446	9259.69643
2419.955	9266.69643
2422.74378	9240.55357
2425.5308	9275.69643
2428.31606	9262.125
2431.09956	9249.69643
2433.88131	9253.26786
2436.6613	9275.98214
2439.43954	9258.41071
2442.21603	9268.55357
2444.99077	9275.83929
2447.76377	9281.69643
2450.53501	9301.55357
2453.30451	9261.55357
2456.07226	9266.26786
2458.83827	9235.125
2461.60254	9249.125
2464.36507	9219.98214
2467.12586	9200.69643
2469.88492	9230.125
2472.64224	9258.69643
2475.39782	9232.69643
2478.15167	9247.69643
2480.90379	9271.55357
2483.65417	9304.55357
2486.40283	9369.83929
2489.14976	9382.69643
2491.89497	9369.69643
2494.63845	9387.69643
2497.3802	9396.55357
2500.12024	9373.26786
2502.85855	9324.69643
2505.59514	9282.41071
2508.33002	9238.83929
2511.06318	9179.83929
2513.79462	9111.55357
2516.52435	9087.55357
2519.25237	9040.69643
2521.97867	9023.55357
2524.70327	8997.125
2527.42616	8968.55357
2530.14734	8967.26786
2532.86681	8958.41071
2535.58458	8975.69643
2538.30065	8949.98214
2541.01501	8935.69643
2543.72768	8950.41071
2546.43864	8956.83929
2549.14791	8949.26786
2551.85548	8968.69643
2554.56136	8946.69643
2557.26554	8943.98214
2559.96803	8913.83929
2562.66883	8895.41071
2565.36794	8888.125
2568.06536	8906.83929
2570.7611	8872.69643
2573.45514	8854.41071
2576.14751	8825.69643
2578.83819	8802.41071
2581.52719	8795.83929
2584.21451	8758.83929
2586.90015	8774.98214
2589.58411	8745.83929
2592.2664	8732.41071
2594.94701	8744.55357
2597.62594	8726.26786
2600.30321	8678.83929
2602.9788	8702.83929
2605.65273	8704.125
2608.32498	8680.69643
2610.99557	8717.41071
2613.66449	8733.98214
2616.33175	8688.41071
2618.99734	8715.69643
2621.66128	8678.98214
2624.32355	8679.83929
2626.98416	8683.41071
2629.64311	8661.125
2632.30041	8650.55357
2634.95605	8596.41071
2637.61004	8579.26786
2640.26238	8553.41071
2642.91306	8557.55357
2645.56209	8547.26786
2648.20948	8548.83929
2650.85521	8559.26786
2653.4993	8548.26786
2656.14175	8530.26786
2658.78255	8553.55357
2661.42171	8561.125
2664.05923	8580.125
2666.6951	8617.41071
2669.32934	8603.55357
2671.96194	8635.83929
2674.59291	8676.41071
2677.22224	8637.26786
2679.84993	8631.26786
2682.476	8611.55357
2685.10043	8622.98214
2687.72324	8611.98214
2690.34441	8607.69643
2692.96396	8604.69643
2695.58188	8601.83929
2698.19818	8590.98214
2700.81285	8596.83929
2703.4259	8585.55357
2706.03733	8610.41071
2708.64714	8615.26786
2711.25533	8611.41071
2713.86191	8644.69643
2716.46687	8674.125
2719.07021	8649.41071
2721.67194	8632.41071
2724.27206	8634.69643
2726.87057	8652.83929
2729.46747	8643.41071
2732.06276	8597.41071
2734.65644	8604.83929
2737.24852	8594.26786
2739.83899	8580.41071
2742.42786	8592.69643
2745.01513	8543.55357
2747.60079	8523.98214
2750.18486	8526.69643
2752.76733	8511.69643
2755.3482	8524.55357
2757.92747	8526.26786
2760.50515	8499.98214
2763.08123	8500.125
2765.65573	8469.83929
2768.22863	8439.55357
2770.79994	8456.125
2773.36967	8444.83929
2775.9378	8433.83929
2778.50435	8451.98214
2781.06932	8440.125
2783.6327	8443.98214
2786.1945	8434.69643
2788.75471	8423.125
2791.31335	8418.98214
2793.87041	8410.55357
2796.42589	8410.98214
2798.97979	8403.69643
2801.53212	8417.125
2804.08288	8414.83929
2806.63206	8397.98214
2809.17967	8415.125
2811.72571	8437.26786
2814.27018	8407.55357
2816.81308	8424.83929
2819.35442	8445.55357
2821.89419	8449.83929
2824.43239	8429.125
2826.96904	8457.98214
2829.50412	8472.83929
2832.03763	8450.69643
2834.56959	8463.69643
2837.1	8456.26786
2839.62884	8447.83929
2842.15613	8460.125
2844.68186	8518.26786
2847.20604	8518.55357
2849.72867	8601.69643
2852.24974	8561.83929
2854.76927	8588.26786
2857.28724	8568.83929
2859.80367	8585.41071
2862.31855	8559.125
2864.83189	8565.83929
2867.34368	8563.125
2869.85393	8570.26786
2872.36264	8551.83929
2874.8698	8529.69643
2877.37543	8525.83929
2879.87952	8543.98214
2882.38207	8496.98214
2884.88308	8481.26786
2887.38256	8460.55357
2889.88051	8466.41071
2892.37692	8439.26786
2894.8718	8438.69643
2897.36515	8434.55357
2899.85698	8426.69643
2902.34727	8455.41071
2904.83604	8442.125
2907.32328	8471.55357
2909.809	8423.55357
2912.29319	8469.55357
2914.77587	8441.26786
2917.25702	8445.69643
2919.73665	8418.26786
2922.21476	8447.83929
2924.69136	8389.26786
2927.16644	8401.41071
2929.64	8361.125
2932.11205	8334.125
2934.58258	8307.125
2937.05161	8344.69643
2939.51912	8291.41071
2941.98513	8314.125
2944.44962	8242.41071
2946.91261	8203.98214
2949.37409	8217.69643
2951.83407	8193.41071
2954.29254	8157.41071
2956.74951	8152.98214
2959.20498	8138.26786
2961.65895	8121.41071
2964.11142	8114.125
2966.56239	8083.69643
2969.01186	8078.83929
2971.45984	8044.55357
2973.90632	8040.41071
2976.35131	8006.83929
2978.7948	7988.41071
2981.23681	7963.125
2983.67732	7953.125
