Data from AgNPs_FTO_APTES_UA_20uM_CRN_2uM_R6G_10uM_NaF_0.1M_Addition_RamanShift__39__13-26-02-120.txt Node

Date: Thu Feb 17 13:26:02 GMT 2022
User: TCL
Spectrometer: QEP01345
Trigger mode: 4
Integration Time (sec): 7.000000E0
Scans to average: 10
Electric dark correction enabled: true
Nonlinearity correction enabled: false
Boxcar width: 0
XAxis mode: Raman Shifts
Number of Pixels in Spectrum: 1044
>>>>>Begin Spectral Data<<<<<
46.04893	-0.6625
50.45542	-2.1625
54.85868	-4.1625
59.25871	-2.0625
63.6555	142.1375
68.04907	142.9375
72.43941	150.0375
76.82654	154.7375
81.21044	159.9375
85.59113	164.3375
89.96862	167.7375
94.34289	171.7375
98.71396	176.3375
103.08183	181.3375
107.4465	187.9375
111.80798	193.6375
116.16626	197.8375
120.52136	209.2375
124.87327	216.5375
129.222	231.7375
133.56755	246.9375
137.90993	269.9375
142.24913	295.7375
146.58517	340.6375
150.91804	402.5375
155.24774	483.1375
159.57429	604.8375
163.89768	792.8375
168.21792	1062.2375
172.53501	1466.6375
176.84895	2061.0375
181.15975	2902.4375
185.46741	4090.6375
189.77193	5662.7375
194.07331	7609.7375
198.37157	9815.5375
202.6667	12167.1375
206.9587	14479.7375
211.24758	16732.7375
215.53334	18994.9375
219.81599	21335.7375
224.09553	23966.4375
228.37195	26851.3375
232.64527	30027.1375
236.91549	33333.2375
241.18261	36846.2375
245.44663	40090.5375
249.70755	43068.6375
253.96539	45706.0375
258.22014	47921.4375
262.4718	49706.4375
266.72039	50987.7375
270.96589	51774.4375
275.20832	51819.6375
279.44768	51563.9375
283.68397	51062.2375
287.91719	50616.4375
292.14735	50290.8375
296.37445	50036.8375
300.59849	50105.8375
304.81948	50185.6375
309.03742	50284.4375
313.25231	50166.0375
317.46415	49822.8375
321.67296	49389.3375
325.87872	48917.6375
330.08145	48743.2375
334.28114	48846.7375
338.47781	49157.0375
342.67145	49750.7375
346.86207	50552.9375
351.04966	51294.8375
355.23424	52092.9375
359.4158	52645.6375
363.59435	53210.9375
367.76989	53486.6375
371.94243	53883.2375
376.11196	54242.3375
380.27849	54588.2375
384.44203	54941.2375
388.60257	55431.5375
392.76012	55910.4375
396.91468	56573.6375
401.06626	57177.9375
405.21485	57676.3375
409.36047	57626.9375
413.50311	57301.3375
417.64277	57193.0375
421.77947	57448.9375
425.9132	57761.1375
430.04396	58141.8375
434.17176	58539.6375
438.2966	59114.5375
442.41849	60098.5375
446.53742	61697.3375
450.6534	63266.4375
454.76644	64435.0375
458.87653	64810.4375
462.98368	64434.2375
467.08789	63772.1375
471.18916	62919.3375
475.2875	62119.1375
479.38291	61619.4375
483.4754	61154.7375
487.56496	60775.5375
491.6516	60239.8375
495.73531	59614.3375
499.81612	59137.8375
503.89401	59360.2375
507.96899	59581.0375
512.04106	59621.5375
516.11023	59417.4375
520.1765	59121.4375
524.23987	58938.6375
528.30034	58797.2375
532.35792	58596.7375
536.41261	58206.6375
540.46441	57792.5375
544.51333	57765.7375
548.55936	58111.3375
552.60252	59084.7375
556.64279	60381.1375
560.6802	61440.8375
564.71473	61977.1375
568.7464	62744.4375
572.7752	64208.6375
576.80114	66041.9375
580.82422	67770.6375
584.84444	69731.7375
588.86181	72697.7375
592.87633	75640.2375
596.888	75810.5375
600.89682	72727.1375
604.9028	70799.4375
608.90594	72315.6375
612.90624	74192.8375
616.90371	70605.1375
620.89834	63751.9375
624.89015	60906.9375
628.87913	60672.1375
632.86528	60939.9375
636.84862	60870.1375
640.82913	60101.0375
644.80683	59122.9375
648.78172	58486.3375
652.75379	58597.8375
656.72306	59109.8375
660.68952	59838.9375
664.65319	59648.5375
668.61405	58978.1375
672.57211	59017.2375
676.52738	59255.5375
680.47986	59347.1375
684.42955	59085.7375
688.37646	58929.0375
692.32058	59305.1375
696.26192	59974.2375
700.20048	60698.3375
704.13626	61199.5375
708.06928	61253.6375
711.99952	61257.2375
715.927	61208.7375
719.85171	61353.8375
723.77365	61109.2375
727.69284	60594.7375
731.60928	60024.0375
735.52295	59885.6375
739.43388	59903.6375
743.34206	60187.2375
747.24749	60523.0375
751.15017	60920.7375
755.05012	61672.3375
758.94733	62824.6375
762.8418	64814.5375
766.73354	67716.1375
770.62254	70185.5375
774.50882	70378.7375
778.39237	68002.8375
782.27321	65096.5375
786.15132	62780.8375
790.02671	61311.1375
793.89938	60514.7375
797.76935	60140.2375
801.6366	60051.7375
805.50115	59855.5375
809.36299	59766.8375
813.22213	59550.5375
817.07857	59434.0375
820.93231	59399.6375
824.78336	59267.4375
828.63172	59124.9375
832.47738	59021.0375
836.32036	59096.6375
840.16066	59279.9375
843.99827	59390.7375
847.8332	59445.2375
851.66546	59557.9375
855.49504	59572.4375
859.32195	59707.3375
863.1462	59643.6375
866.96777	59607.6375
870.78668	59504.2375
874.60293	59621.6375
878.41652	59672.6375
882.22745	59788.6375
886.03573	59844.5375
889.84136	59804.6375
893.64433	59677.2375
897.44466	59475.3375
901.24235	59299.6375
905.0374	59251.6375
908.8298	59205.7375
912.61957	59362.7375
916.40671	59728.5375
920.19121	60475.4375
923.97308	61030.5375
927.75233	60980.3375
931.52895	60378.7375
935.30295	59751.1375
939.07433	59023.8375
942.84309	58595.6375
946.60924	58464.7375
950.37278	58473.2375
954.13371	58555.4375
957.89203	58537.9375
961.64774	58447.4375
965.40086	58506.3375
969.15137	58417.3375
972.89929	58279.1375
976.64461	58188.4375
980.38733	58171.9375
984.12747	58303.7375
987.86502	58591.7375
991.59999	58953.6375
995.33237	59509.1375
999.06217	60316.0375
1002.78939	61259.6375
1006.51404	62325.4375
1010.23611	63229.4375
1013.95561	63969.9375
1017.67255	64082.5375
1021.38692	63615.2375
1025.09872	62701.0375
1028.80796	62057.5375
1032.51465	62006.4375
1036.21877	62320.2375
1039.92035	62505.7375
1043.61937	62367.8375
1047.31584	62218.4375
1051.00976	61932.4375
1054.70114	61998.8375
1058.38998	62199.0375
1062.07627	62618.3375
1065.76003	63193.5375
1069.44126	63824.3375
1073.11995	64637.1375
1076.79611	65372.0375
1080.46974	65740.9375
1084.14085	66088.0375
1087.80943	66605.1375
1091.47549	67094.1375
1095.13903	67114.2375
1098.80005	66525.0375
1102.45857	65490.6375
1106.11456	64791.2375
1109.76805	64487.4375
1113.41903	64552.4375
1117.06751	64768.0375
1120.71348	65082.5375
1124.35696	65470.6375
1127.99793	65842.5375
1131.63641	65964.3375
1135.2724	66009.9375
1138.90589	65963.8375
1142.5369	66170.1375
1146.16542	66598.7375
1149.79145	67143.6375
1153.415	67714.0375
1157.03607	68469.1375
1160.65467	69878.4375
1164.27079	72051.2375
1167.88443	74755.4375
1171.49561	77760.5375
1175.10432	81364.2375
1178.71056	85764.0375
1182.31434	89890.1375
1185.91565	91549.6375
1189.51451	90587.4375
1193.11091	88685.5375
1196.70485	86585.8375
1200.29634	84691.3375
1203.88538	83351.7375
1207.47197	82984.9375
1211.05612	82654.6375
1214.63782	81585.1375
1218.21708	80093.0375
1221.79391	78644.6375
1225.36829	77679.1375
1228.94024	77040.6375
1232.50976	76028.8375
1236.07685	74859.2375
1239.6415	74144.8375
1243.20374	73953.7375
1246.76355	74510.8375
1250.32093	75320.4375
1253.8759	76466.2375
1257.42845	77934.8375
1260.97859	79560.2375
1264.52631	81277.9375
1268.07163	83149.3375
1271.61453	84994.0375
1275.15503	86748.6375
1278.69312	88592.9375
1282.22882	90705.1375
1285.76211	93440.4375
1289.29301	96675.9375
1292.82151	100512.4375
1296.34761	105132.0375
1299.87133	110436.7375
1303.39266	115784.8375
1306.9116	120476.8375
1310.42815	123950.4375
1313.94233	125762.9375
1317.45412	125161.5375
1320.96354	122993.5375
1324.47058	121022.5375
1327.97525	119373.4375
1331.47754	118083.5375
1334.97747	116790.9375
1338.47502	115798.3375
1341.97022	114812.3375
1345.46305	113367.9375
1348.95352	112163.7375
1352.44163	111851.6375
1355.92738	113394.4375
1359.41078	116777.7375
1362.89183	119361.4375
1366.37053	117846.4375
1369.84688	111047.6375
1373.32088	101684.0375
1376.79254	95219.0375
1380.26186	93089.7375
1383.72883	93646.5375
1387.19347	94242.5375
1390.65578	93821.8375
1394.11575	93710.8375
1397.57339	94301.1375
1401.0287	95521.6375
1404.48168	96304.3375
1407.93234	95991.0375
1411.38068	94547.5375
1414.82669	92170.4375
1418.27039	89373.4375
1421.71177	86518.9375
1425.15083	84105.2375
1428.58758	83066.5375
1432.02203	83729.0375
1435.45416	85694.5375
1438.88399	87874.6375
1442.31151	89507.3375
1445.73673	90414.6375
1449.15965	90711.5375
1452.58027	90682.7375
1455.9986	90444.5375
1459.41463	90561.8375
1462.82837	91517.9375
1466.23982	92855.0375
1469.64898	94413.4375
1473.05586	95354.1375
1476.46045	95809.7375
1479.86276	95522.8375
1483.26279	94682.3375
1486.66054	93996.6375
1490.05602	94258.2375
1493.44922	94761.0375
1496.84016	95238.0375
1500.22882	95987.7375
1503.61521	97122.2375
1506.99934	98534.7375
1510.38121	99441.4375
1513.76081	99292.1375
1517.13816	97904.3375
1520.51324	96404.4375
1523.88607	95777.8375
1527.25665	96399.3375
1530.62498	97364.8375
1533.99105	97733.4375
1537.35488	96935.6375
1540.71647	95158.4375
1544.07581	92882.3375
1547.4329	90540.0375
1550.78776	88512.7375
1554.14038	87140.2375
1557.49077	86244.3375
1560.83892	85808.7375
1564.18484	85525.9375
1567.52853	85560.9375
1570.86999	86223.7375
1574.20922	87485.0375
1577.54624	88700.7375
1580.88103	89263.3375
1584.2136	90313.0375
1587.54395	92864.1375
1590.87208	97190.8375
1594.19801	102508.3375
1597.52172	107216.4375
1600.84321	108487.8375
1604.16251	104411.5375
1607.47959	97351.2375
1610.79447	89947.8375
1614.10715	83511.2375
1617.41763	78480.0375
1620.7259	75235.5375
1624.03199	73800.7375
1627.33587	73858.9375
1630.63757	75610.2375
1633.93707	79511.3375
1637.23439	86124.3375
1640.52951	95984.9375
1643.82246	107542.3375
1647.11321	116337.9375
1650.40179	116997.5375
1653.68819	108560.8375
1656.97241	95691.2375
1660.25446	83801.8375
1663.53433	75425.4375
1666.81203	69949.5375
1670.08756	66608.4375
1673.36092	64536.0375
1676.63211	63080.7375
1679.90115	62117.3375
1683.16801	61297.9375
1686.43272	60769.8375
1689.69527	60386.2375
1692.95567	60047.9375
1696.2139	59903.0375
1699.46999	59799.7375
1702.72392	59606.3375
1705.97571	59565.2375
1709.22535	59445.5375
1712.47284	59445.7375
1715.71819	59365.6375
1718.96139	59247.7375
1722.20246	59097.0375
1725.44139	58934.3375
1728.67818	58693.8375
1731.91284	58412.9375
1735.14537	58162.4375
1738.37576	57971.1375
1741.60403	57889.8375
1744.83017	57634.7375
1748.05418	57519.9375
1751.27607	57435.1375
1754.49584	57335.7375
1757.71349	57347.3375
1760.92903	57338.2375
1764.14244	57229.4375
1767.35375	57270.7375
1770.56294	57155.6375
1773.77002	57160.7375
1776.97499	57156.4375
1780.17785	57042.3375
1783.37861	56962.1375
1786.57727	56904.4375
1789.77382	56787.5375
1792.96828	56775.9375
1796.16064	56625.1375
1799.3509	56587.3375
1802.53907	56483.8375
1805.72514	56410.1375
1808.90913	56266.9375
1812.09102	56200.9375
1815.27083	56146.3375
1818.44856	56015.7375
1821.6242	55918.9375
1824.79776	55965.5375
1827.96924	55877.5375
1831.13864	55843.1375
1834.30597	55866.4375
1837.47122	55829.8375
1840.6344	55694.2375
1843.7955	55792.3375
1846.95454	55735.0375
1850.11151	55706.1375
1853.26642	55665.5375
1856.41926	55632.9375
1859.57004	55617.4375
1862.71876	55518.1375
1865.86542	55569.9375
1869.01003	55423.7375
1872.15258	55346.6375
1875.29308	55329.3375
1878.43152	55208.5375
1881.56792	55273.0375
1884.70227	55251.6375
1887.83457	55247.2375
1890.96482	55305.0375
1894.09304	55199.5375
1897.21921	55112.5375
1900.34335	55009.7375
1903.46544	54933.0375
1906.58551	54976.3375
1909.70353	54991.4375
1912.81953	54856.6375
1915.93349	54784.9375
1919.04543	54670.7375
1922.15534	54612.9375
1925.26322	54625.4375
1928.36908	54485.0375
1931.47292	54372.2375
1934.57473	54251.6375
1937.67453	54227.9375
1940.77232	54078.6375
1943.86808	53962.2375
1946.96184	53831.3375
1950.05358	53671.6375
1953.14331	53584.0375
1956.23103	53418.4375
1959.31675	53316.1375
1962.40046	53114.4375
1965.48217	52893.5375
1968.56188	52792.4375
1971.63959	52633.3375
1974.7153	52595.5375
1977.78901	52403.4375
1980.86073	52244.5375
1983.93046	52116.6375
1986.99819	52057.0375
1990.06394	51942.7375
1993.1277	51879.7375
1996.18947	51669.8375
1999.24925	51550.2375
2002.30706	51432.7375
2005.36288	51277.8375
2008.41672	51097.2375
2011.46859	50911.8375
2014.51848	50783.7375
2017.56639	50657.4375
2020.61233	50564.6375
2023.6563	50462.0375
2026.6983	50327.6375
2029.73833	50215.1375
2032.7764	50203.2375
2035.8125	50098.7375
2038.84664	49992.2375
2041.87881	49965.7375
2044.90903	49819.4375
2047.93729	49770.8375
2050.96359	49733.9375
2053.98794	49683.5375
2057.01034	49690.5375
2060.03078	49676.2375
2063.04927	49671.7375
2066.06582	49607.6375
2069.08042	49626.0375
2072.09307	49580.7375
2075.10378	49519.3375
2078.11255	49472.3375
2081.11938	49495.7375
2084.12426	49505.4375
2087.12722	49459.6375
2090.12824	49431.6375
2093.12732	49429.3375
2096.12447	49437.8375
2099.11969	49419.5375
2102.11299	49387.2375
2105.10435	49463.7375
2108.09379	49457.0375
2111.08131	49552.3375
2114.0669	49485.1375
2117.05057	49529.6375
2120.03233	49577.1375
2123.01216	49673.0375
2125.99008	49728.5375
2128.96609	49794.8375
2131.94018	49851.5375
2134.91236	49900.9375
2137.88263	49974.3375
2140.851	49954.3375
2143.81746	49962.5375
2146.78201	49964.4375
2149.74466	50045.7375
2152.7054	50070.3375
2155.66425	50025.7375
2158.6212	50069.7375
2161.57625	50006.9375
2164.52941	50004.8375
2167.48067	50007.1375
2170.43004	49955.2375
2173.37752	50047.3375
2176.32311	50078.1375
2179.26681	50038.8375
2182.20863	50090.2375
2185.14856	50122.4375
2188.08661	50121.1375
2191.02278	50079.8375
2193.95707	49972.1375
2196.88948	49916.1375
2199.82001	50000.5375
2202.74867	49952.3375
2205.67545	49845.5375
2208.60037	49754.1375
2211.52341	49709.2375
2214.44458	49607.6375
2217.36388	49565.7375
2220.28132	49544.2375
2223.1969	49459.5375
2226.11061	49343.7375
2229.02246	49188.4375
2231.93245	49139.5375
2234.84058	49147.7375
2237.74686	49182.5375
2240.65128	49086.5375
2243.55385	49016.4375
2246.45456	48973.1375
2249.35343	48877.6375
2252.25044	48772.1375
2255.14561	48657.0375
2258.03893	48617.4375
2260.93041	48583.5375
2263.82004	48432.1375
2266.70783	48302.4375
2269.59378	48166.2375
2272.4779	48086.2375
2275.36017	48019.6375
2278.24061	48016.3375
2281.11922	47891.1375
2283.996	47798.2375
2286.87094	47820.1375
2289.74405	47765.8375
2292.61534	47715.7375
2295.4848	47717.9375
2298.35243	47677.8375
2301.21824	47629.5375
2304.08223	47641.7375
2306.94439	47623.5375
2309.80474	47635.1375
2312.66327	47645.2375
2315.51999	47531.5375
2318.37489	47470.3375
2321.22797	47388.4375
2324.07925	47399.0375
2326.92871	47270.3375
2329.77637	47144.8375
2332.62222	47120.1375
2335.46626	47125.5375
2338.3085	47044.8375
2341.14893	47013.8375
2343.98756	47033.3375
2346.8244	47002.9375
2349.65943	47005.3375
2352.49267	47017.2375
2355.32411	47012.4375
2358.15376	46900.5375
2360.98161	46924.5375
2363.80768	46834.7375
2366.63195	46838.4375
2369.45444	46804.8375
2372.27514	46777.1375
2375.09405	46765.4375
2377.91118	46618.1375
2380.72652	46536.0375
2383.54009	46430.6375
2386.35187	46395.6375
2389.16188	46231.8375
2391.97011	46184.4375
2394.77657	46165.0375
2397.58125	46119.3375
2400.38416	46039.8375
2403.18529	45931.8375
2405.98466	45922.4375
2408.78226	45821.5375
2411.57809	45815.8375
2414.37216	45709.1375
2417.16446	45777.6375
2419.955	45679.1375
2422.74378	45702.6375
2425.5308	45617.0375
2428.31606	45670.4375
2431.09956	45678.2375
2433.88131	45560.5375
2436.6613	45614.7375
2439.43954	45596.6375
2442.21603	45499.8375
2444.99077	45464.6375
2447.76377	45461.0375
2450.53501	45400.9375
2453.30451	45437.5375
2456.07226	45337.8375
2458.83827	45332.9375
2461.60254	45307.0375
2464.36507	45296.5375
2467.12586	45288.0375
2469.88492	45284.8375
2472.64224	45269.5375
2475.39782	45257.6375
2478.15167	45271.5375
2480.90379	45227.9375
2483.65417	45318.3375
2486.40283	45245.4375
2489.14976	45240.2375
2491.89497	45206.6375
2494.63845	45237.7375
2497.3802	45218.1375
2500.12024	45208.3375
2502.85855	45196.5375
2505.59514	45169.1375
2508.33002	45038.0375
2511.06318	45019.8375
2513.79462	45017.7375
2516.52435	44992.4375
2519.25237	44940.6375
2521.97867	44933.7375
2524.70327	44934.0375
2527.42616	44860.0375
2530.14734	44818.2375
2532.86681	44769.3375
2535.58458	44746.6375
2538.30065	44715.0375
2541.01501	44721.3375
2543.72768	44702.1375
2546.43864	44671.6375
2549.14791	44588.2375
2551.85548	44542.0375
2554.56136	44472.3375
2557.26554	44327.9375
2559.96803	44316.8375
2562.66883	44265.5375
2565.36794	44234.0375
2568.06536	44213.9375
2570.7611	44092.9375
2573.45514	44092.5375
2576.14751	44020.5375
2578.83819	43982.2375
2581.52719	44005.7375
2584.21451	43884.8375
2586.90015	43885.7375
2589.58411	43811.3375
2592.2664	43785.2375
2594.94701	43730.3375
2597.62594	43726.3375
2600.30321	43670.9375
2602.9788	43728.8375
2605.65273	43679.6375
2608.32498	43688.7375
2610.99557	43642.4375
2613.66449	43616.3375
2616.33175	43555.5375
2618.99734	43508.1375
2621.66128	43407.7375
2624.32355	43343.0375
2626.98416	43298.9375
2629.64311	43224.0375
2632.30041	43181.8375
2634.95605	43186.1375
2637.61004	43141.3375
2640.26238	43097.2375
2642.91306	43110.5375
2645.56209	43009.4375
2648.20948	43104.5375
2650.85521	43104.2375
2653.4993	43104.5375
2656.14175	43115.7375
2658.78255	43129.6375
2661.42171	43177.6375
2664.05923	43189.8375
2666.6951	43184.7375
2669.32934	43199.8375
2671.96194	43202.4375
2674.59291	43235.9375
2677.22224	43236.5375
2679.84993	43271.8375
2682.476	43189.2375
2685.10043	43163.4375
2687.72324	43137.5375
2690.34441	43160.4375
2692.96396	43136.6375
2695.58188	43195.2375
2698.19818	43075.2375
2700.81285	43079.4375
2703.4259	43088.3375
2706.03733	43160.9375
2708.64714	43133.1375
2711.25533	43199.7375
2713.86191	43218.2375
2716.46687	43300.8375
2719.07021	43273.5375
2721.67194	43230.1375
2724.27206	43230.3375
2726.87057	43314.4375
2729.46747	43315.7375
2732.06276	43350.8375
2734.65644	43345.9375
2737.24852	43425.8375
2739.83899	43279.7375
2742.42786	43302.2375
2745.01513	43305.2375
2747.60079	43250.2375
2750.18486	43227.3375
2752.76733	43214.8375
2755.3482	43113.7375
2757.92747	43097.5375
2760.50515	43020.8375
2763.08123	43015.0375
2765.65573	43021.6375
2768.22863	43041.7375
2770.79994	42930.4375
2773.36967	42935.6375
2775.9378	43007.0375
2778.50435	42948.1375
2781.06932	42893.8375
2783.6327	42890.2375
2786.1945	42847.1375
2788.75471	42750.0375
2791.31335	42683.9375
2793.87041	42652.4375
2796.42589	42556.2375
2798.97979	42474.0375
2801.53212	42356.0375
2804.08288	42284.3375
2806.63206	42234.3375
2809.17967	42144.7375
2811.72571	42026.1375
2814.27018	41871.9375
2816.81308	41758.8375
2819.35442	41681.3375
2821.89419	41604.3375
2824.43239	41617.3375
2826.96904	41629.4375
2829.50412	41584.8375
2832.03763	41450.6375
2834.56959	41452.6375
2837.1	41379.4375
2839.62884	41379.6375
2842.15613	41322.4375
2844.68186	41328.7375
2847.20604	41258.8375
2849.72867	41204.0375
2852.24974	41156.0375
2854.76927	41090.6375
2857.28724	41067.5375
2859.80367	41045.6375
2862.31855	40982.6375
2864.83189	40885.8375
2867.34368	40797.0375
2869.85393	40803.5375
2872.36264	40796.4375
2874.8698	40740.2375
2877.37543	40659.1375
2879.87952	40685.2375
2882.38207	40714.0375
2884.88308	40647.0375
2887.38256	40689.9375
2889.88051	40688.2375
2892.37692	40708.3375
2894.8718	40696.0375
2897.36515	40738.7375
2899.85698	40756.7375
2902.34727	40790.3375
2904.83604	40777.4375
2907.32328	40805.5375
2909.809	40815.3375
2912.29319	40852.4375
2914.77587	40816.8375
2917.25702	40861.3375
2919.73665	40786.1375
2922.21476	40812.1375
2924.69136	40759.4375
2927.16644	40787.1375
2929.64	40741.9375
2932.11205	40666.8375
2934.58258	40650.1375
2937.05161	40697.2375
2939.51912	40707.3375
2941.98513	40582.1375
2944.44962	40506.9375
2946.91261	40471.3375
2949.37409	40566.7375
2951.83407	40549.3375
2954.29254	40519.6375
2956.74951	40439.6375
2959.20498	40496.7375
2961.65895	40500.2375
2964.11142	40506.3375
2966.56239	40447.3375
2969.01186	40437.0375
2971.45984	40256.4375
2973.90632	40209.5375
2976.35131	40154.8375
2978.7948	40164.6375
2981.23681	40095.0375
2983.67732	40021.6375
2986.11635	39890.6375
2988.55388	39827.5375
2990.98993	39822.1375
2993.4245	39732.4375
2995.85758	39625.9375
2998.28917	39498.2375
3000.71928	39422.2375
3003.14791	39304.7375
3005.57506	39375.5375
3008.00073	39240.1375
3010.42493	39178.8375
3012.84764	39071.2375
3015.26888	39046.5375
3017.68865	38967.3375
