Data from AgNPs_FTO_APTES_UA_20uM_CRN_20uM_R6G_10uM_NaF_0.1M_Addition_RamanShift__12__15-04-02-250.txt Node

Date: Thu Feb 17 15:04:02 GMT 2022
User: TCL
Spectrometer: QEP01345
Trigger mode: 4
Integration Time (sec): 7.000000E0
Scans to average: 10
Electric dark correction enabled: true
Nonlinearity correction enabled: false
Boxcar width: 0
XAxis mode: Raman Shifts
Number of Pixels in Spectrum: 1044
>>>>>Begin Spectral Data<<<<<
46.04893	-1.975
50.45542	-2.075
54.85868	-2.475
59.25871	-0.675
63.6555	122.925
68.04907	121.125
72.43941	126.725
76.82654	126.425
81.21044	131.825
85.59113	137.525
89.96862	141.225
94.34289	144.525
98.71396	150.825
103.08183	148.425
107.4465	159.325
111.80798	160.725
116.16626	167.625
120.52136	175.425
124.87327	176.725
129.222	195.025
133.56755	201.425
137.90993	218.525
142.24913	237.925
146.58517	273.025
150.91804	315.625
155.24774	377.225
159.57429	467.725
163.89768	597.425
168.21792	803.425
172.53501	1096.125
176.84895	1551.325
181.15975	2190.125
185.46741	3101.825
189.77193	4318.025
194.07331	5812.325
198.37157	7517.325
202.6667	9367.425
206.9587	11171.225
211.24758	12913.525
215.53334	14669.325
219.81599	16412.525
224.09553	18380.125
228.37195	20506.125
232.64527	22873.925
236.91549	25473.825
241.18261	28220.725
245.44663	30949.425
249.70755	33515.325
253.96539	35842.625
258.22014	37855.525
262.4718	39366.425
266.72039	40449.525
270.96589	41047.125
275.20832	41146.025
279.44768	41042.425
283.68397	40668.925
287.91719	40230.925
292.14735	39891.425
296.37445	39602.125
300.59849	39390.925
304.81948	39228.925
309.03742	39100.725
313.25231	38961.525
317.46415	38808.425
321.67296	38633.225
325.87872	38470.525
330.08145	38527.325
334.28114	38762.525
338.47781	39209.525
342.67145	39585.525
346.86207	40060.225
351.04966	40663.825
355.23424	41205.825
359.4158	41779.025
363.59435	42302.925
367.76989	42801.425
371.94243	43181.325
376.11196	43587.425
380.27849	43905.125
384.44203	44294.125
388.60257	44700.625
392.76012	45114.825
396.91468	45514.125
401.06626	45863.425
405.21485	46316.525
409.36047	46521.625
413.50311	46484.925
417.64277	46472.325
421.77947	46530.625
425.9132	46619.225
430.04396	46969.725
434.17176	47249.725
438.2966	47619.825
442.41849	48010.825
446.53742	48526.825
450.6534	48992.725
454.76644	49466.425
458.87653	49855.125
462.98368	50060.125
467.08789	50165.825
471.18916	50124.325
475.2875	49989.925
479.38291	49869.325
483.4754	49779.325
487.56496	49715.725
491.6516	49676.725
495.73531	49724.725
499.81612	49699.325
503.89401	49951.125
507.96899	50144.625
512.04106	50272.925
516.11023	50461.525
520.1765	50468.525
524.23987	50540.225
528.30034	50627.425
532.35792	50625.425
536.41261	50539.425
540.46441	50513.525
544.51333	50572.725
548.55936	50801.925
552.60252	51141.025
556.64279	51462.125
560.6802	51687.425
564.71473	51817.325
568.7464	51808.725
572.7752	51988.925
576.80114	52248.825
580.82422	52605.325
584.84444	52967.325
588.86181	53232.925
592.87633	53345.925
596.888	53552.425
600.89682	54007.025
604.9028	54972.625
608.90594	56800.325
612.90624	58686.325
616.90371	57710.225
620.89834	54768.625
624.89015	53345.725
628.87913	53216.025
632.86528	53487.325
636.84862	53787.325
640.82913	53785.525
644.80683	53559.425
648.78172	53324.025
652.75379	53315.925
656.72306	53589.825
660.68952	54032.025
664.65319	54095.025
668.61405	54024.825
672.57211	54161.225
676.52738	54330.325
680.47986	54456.925
684.42955	54438.925
688.37646	54399.625
692.32058	54589.225
696.26192	54877.025
700.20048	55207.025
704.13626	55457.825
708.06928	55556.725
711.99952	55474.825
715.927	55425.325
719.85171	55412.925
723.77365	55460.725
727.69284	55391.825
731.60928	55320.525
735.52295	55155.525
739.43388	55272.825
743.34206	55351.725
747.24749	55442.325
751.15017	55514.325
755.05012	55752.125
758.94733	56142.425
762.8418	56885.025
766.73354	58031.325
770.62254	59295.625
774.50882	59947.125
778.39237	59477.525
782.27321	58437.325
786.15132	57375.525
790.02671	56572.125
793.89938	56160.025
797.76935	56010.825
801.6366	55929.925
805.50115	55834.325
809.36299	55783.525
813.22213	55880.925
817.07857	55860.125
820.93231	55955.125
824.78336	56099.125
828.63172	56188.925
832.47738	56218.325
836.32036	56305.525
840.16066	56342.025
843.99827	56475.625
847.8332	56548.625
851.66546	56689.425
855.49504	56845.525
859.32195	56898.325
863.1462	57000.525
866.96777	57035.525
870.78668	57104.925
874.60293	57231.725
878.41652	57315.125
882.22745	57510.725
886.03573	57596.525
889.84136	57576.725
893.64433	57485.525
897.44466	57443.525
901.24235	57363.025
905.0374	57366.525
908.8298	57338.925
912.61957	57295.425
916.40671	57445.425
920.19121	57510.925
923.97308	57604.325
927.75233	57488.125
931.52895	57426.025
935.30295	57430.525
939.07433	57318.325
942.84309	57100.525
946.60924	56993.025
950.37278	56961.325
954.13371	56982.925
957.89203	56887.225
961.64774	56922.025
965.40086	56886.925
969.15137	56787.825
972.89929	56769.325
976.64461	56784.925
980.38733	56784.825
984.12747	56914.525
987.86502	57066.825
991.59999	57222.125
995.33237	57347.625
999.06217	57643.825
1002.78939	57981.125
1006.51404	58342.125
1010.23611	58736.625
1013.95561	58992.825
1017.67255	59093.225
1021.38692	59059.925
1025.09872	58840.925
1028.80796	58522.625
1032.51465	58487.925
1036.21877	58493.925
1039.92035	58564.625
1043.61937	58712.125
1047.31584	58837.425
1051.00976	58964.225
1054.70114	59087.125
1058.38998	59279.825
1062.07627	59466.225
1065.76003	59707.125
1069.44126	60042.525
1073.11995	60510.925
1076.79611	60908.725
1080.46974	61226.025
1084.14085	61194.025
1087.80943	61220.525
1091.47549	61348.925
1095.13903	61532.825
1098.80005	61503.025
1102.45857	61319.125
1106.11456	61068.025
1109.76805	60811.925
1113.41903	60651.225
1117.06751	60602.325
1120.71348	60728.525
1124.35696	60869.825
1127.99793	61059.525
1131.63641	61053.225
1135.2724	60933.525
1138.90589	60806.325
1142.5369	60799.025
1146.16542	60694.725
1149.79145	60638.425
1153.415	60546.025
1157.03607	60449.025
1160.65467	60621.825
1164.27079	61017.925
1167.88443	61563.625
1171.49561	62404.025
1175.10432	63404.425
1178.71056	64697.125
1182.31434	65930.625
1185.91565	66917.025
1189.51451	67421.325
1193.11091	67551.725
1196.70485	67293.525
1200.29634	66765.025
1203.88538	66141.425
1207.47197	65504.225
1211.05612	64721.125
1214.63782	64097.925
1218.21708	63671.025
1221.79391	63232.425
1225.36829	63051.925
1228.94024	63002.825
1232.50976	62872.425
1236.07685	62788.225
1239.6415	62901.525
1243.20374	63105.225
1246.76355	63360.925
1250.32093	63589.625
1253.8759	64045.025
1257.42845	64681.525
1260.97859	65245.925
1264.52631	65577.325
1268.07163	65946.125
1271.61453	66252.825
1275.15503	66378.925
1278.69312	66634.225
1282.22882	66781.725
1285.76211	66943.925
1289.29301	67090.825
1292.82151	67433.025
1296.34761	67722.625
1299.87133	68264.925
1303.39266	69027.225
1306.9116	69954.925
1310.42815	70975.425
1313.94233	71644.325
1317.45412	71717.125
1320.96354	71548.625
1324.47058	71204.125
1327.97525	70706.225
1331.47754	70383.725
1334.97747	70430.125
1338.47502	70878.225
1341.97022	71864.625
1345.46305	73030.425
1348.95352	74084.225
1352.44163	74750.025
1355.92738	74897.725
1359.41078	75034.425
1362.89183	74864.725
1366.37053	73788.225
1369.84688	71499.325
1373.32088	68962.825
1376.79254	66967.325
1380.26186	65910.925
1383.72883	65153.725
1387.19347	64529.525
1390.65578	64010.925
1394.11575	63452.225
1397.57339	62969.525
1401.0287	62710.025
1404.48168	62807.325
1407.93234	62953.125
1411.38068	62897.925
1414.82669	62880.625
1418.27039	62599.225
1421.71177	62300.025
1425.15083	61970.225
1428.58758	61773.125
1432.02203	61650.625
1435.45416	61690.725
1438.88399	61850.725
1442.31151	62027.925
1445.73673	62197.025
1449.15965	62367.125
1452.58027	62541.225
1455.9986	62469.025
1459.41463	62725.425
1462.82837	63135.425
1466.23982	63723.925
1469.64898	64373.825
1473.05586	65084.525
1476.46045	65467.925
1479.86276	65694.325
1483.26279	65809.025
1486.66054	65891.925
1490.05602	66019.825
1493.44922	66414.425
1496.84016	67070.925
1500.22882	68060.225
1503.61521	69449.225
1506.99934	70735.025
1510.38121	71449.225
1513.76081	71222.225
1517.13816	70192.025
1520.51324	68887.825
1523.88607	67884.625
1527.25665	67156.125
1530.62498	66728.425
1533.99105	66516.225
1537.35488	66349.525
1540.71647	66351.225
1544.07581	66190.925
1547.4329	66116.425
1550.78776	66096.325
1554.14038	65737.025
1557.49077	65616.325
1560.83892	65535.625
1564.18484	65620.125
1567.52853	65635.725
1570.86999	65790.125
1574.20922	65903.325
1577.54624	65859.225
1580.88103	65493.625
1584.2136	64958.525
1587.54395	64769.325
1590.87208	65026.325
1594.19801	65817.925
1597.52172	66962.825
1600.84321	67628.125
1604.16251	67617.525
1607.47959	67060.025
1610.79447	66115.425
1614.10715	64838.825
1617.41763	63506.125
1620.7259	62317.425
1624.03199	61602.725
1627.33587	61278.725
1630.63757	61220.225
1633.93707	61621.925
1637.23439	62578.925
1640.52951	64034.725
1643.82246	65821.725
1647.11321	67492.425
1650.40179	68272.625
1653.68819	67500.325
1656.97241	65584.525
1660.25446	63318.925
1663.53433	61495.025
1666.81203	60178.125
1670.08756	59300.625
1673.36092	58795.925
1676.63211	58381.525
1679.90115	58040.025
1683.16801	57747.625
1686.43272	57517.725
1689.69527	57402.625
1692.95567	57285.525
1696.2139	57243.225
1699.46999	57170.325
1702.72392	57200.725
1705.97571	57186.625
1709.22535	57114.725
1712.47284	57169.825
1715.71819	57163.325
1718.96139	57115.125
1722.20246	57148.325
1725.44139	57018.425
1728.67818	56866.225
1731.91284	56625.225
1735.14537	56593.325
1738.37576	56514.125
1741.60403	56487.325
1744.83017	56401.525
1748.05418	56268.125
1751.27607	56177.225
1754.49584	56180.025
1757.71349	56245.925
1760.92903	56138.725
1764.14244	56121.025
1767.35375	56080.425
1770.56294	56001.925
1773.77002	55994.225
1776.97499	55987.225
1780.17785	55877.025
1783.37861	55843.925
1786.57727	55816.125
1789.77382	55896.425
1792.96828	55804.725
1796.16064	55683.525
1799.3509	55558.525
1802.53907	55484.625
1805.72514	55405.025
1808.90913	55348.025
1812.09102	55254.225
1815.27083	55258.725
1818.44856	55142.025
1821.6242	55072.025
1824.79776	55096.025
1827.96924	54987.725
1831.13864	54978.925
1834.30597	55022.325
1837.47122	54934.125
1840.6344	54860.925
1843.7955	54839.825
1846.95454	54832.425
1850.11151	54837.925
1853.26642	54774.225
1856.41926	54777.025
1859.57004	54721.525
1862.71876	54700.925
1865.86542	54637.225
1869.01003	54663.325
1872.15258	54580.325
1875.29308	54505.725
1878.43152	54426.325
1881.56792	54389.925
1884.70227	54243.225
1887.83457	54146.525
1890.96482	54106.425
1894.09304	54181.325
1897.21921	54135.425
1900.34335	54033.225
1903.46544	53925.225
1906.58551	53900.125
1909.70353	53869.325
1912.81953	53833.825
1915.93349	53729.325
1919.04543	53569.125
1922.15534	53535.725
1925.26322	53433.525
1928.36908	53335.525
1931.47292	53347.125
1934.57473	53343.725
1937.67453	53166.325
1940.77232	53076.325
1943.86808	52966.825
1946.96184	52929.025
1950.05358	52767.425
1953.14331	52653.825
1956.23103	52507.925
1959.31675	52344.725
1962.40046	52186.425
1965.48217	52045.325
1968.56188	51909.925
1971.63959	51783.725
1974.7153	51585.225
1977.78901	51482.325
1980.86073	51313.725
1983.93046	51208.025
1986.99819	51108.025
1990.06394	51028.125
1993.1277	50883.625
1996.18947	50725.325
1999.24925	50603.325
2002.30706	50456.025
2005.36288	50311.525
2008.41672	50181.825
2011.46859	50026.025
2014.51848	49887.225
2017.56639	49781.425
2020.61233	49663.225
2023.6563	49538.225
2026.6983	49410.625
2029.73833	49354.725
2032.7764	49224.925
2035.8125	49073.725
2038.84664	48956.525
2041.87881	48898.525
2044.90903	48777.225
2047.93729	48662.125
2050.96359	48727.425
2053.98794	48668.125
2057.01034	48580.225
2060.03078	48616.425
2063.04927	48568.325
2066.06582	48506.425
2069.08042	48524.325
2072.09307	48507.625
2075.10378	48442.825
2078.11255	48386.025
2081.11938	48406.425
2084.12426	48419.825
2087.12722	48382.325
2090.12824	48421.825
2093.12732	48389.025
2096.12447	48389.825
2099.11969	48435.625
2102.11299	48503.525
2105.10435	48507.325
2108.09379	48552.825
2111.08131	48512.525
2114.0669	48544.125
2117.05057	48609.025
2120.03233	48738.925
2123.01216	48766.725
2125.99008	48789.525
2128.96609	48723.325
2131.94018	48775.725
2134.91236	48836.025
2137.88263	48837.225
2140.851	48859.025
2143.81746	48995.225
2146.78201	48983.025
2149.74466	49031.725
2152.7054	49110.125
2155.66425	49041.425
2158.6212	49000.825
2161.57625	48957.925
2164.52941	48981.425
2167.48067	48898.925
2170.43004	48898.825
2173.37752	48923.725
2176.32311	49020.825
2179.26681	49035.025
2182.20863	48952.225
2185.14856	49014.225
2188.08661	48908.025
2191.02278	48913.925
2193.95707	48891.325
2196.88948	48816.725
2199.82001	48831.925
2202.74867	48739.525
2205.67545	48724.925
2208.60037	48616.825
2211.52341	48505.225
2214.44458	48501.325
2217.36388	48406.925
2220.28132	48314.625
2223.1969	48265.225
2226.11061	48143.225
2229.02246	48045.425
2231.93245	47989.125
2234.84058	47862.025
2237.74686	47809.825
2240.65128	47777.225
2243.55385	47707.425
2246.45456	47732.925
2249.35343	47608.425
2252.25044	47622.925
2255.14561	47539.625
2258.03893	47477.525
2260.93041	47380.725
2263.82004	47313.125
2266.70783	47242.325
2269.59378	47091.525
2272.4779	46998.025
2275.36017	46880.725
2278.24061	46787.925
2281.11922	46709.425
2283.996	46638.525
2286.87094	46582.325
2289.74405	46519.925
2292.61534	46516.125
2295.4848	46497.425
2298.35243	46466.525
2301.21824	46348.725
2304.08223	46333.725
2306.94439	46352.225
2309.80474	46299.925
2312.66327	46226.725
2315.51999	46148.225
2318.37489	46030.825
2321.22797	46046.925
2324.07925	45916.225
2326.92871	45830.225
2329.77637	45746.825
2332.62222	45693.225
2335.46626	45653.925
2338.3085	45592.525
2341.14893	45539.525
2343.98756	45547.725
2346.8244	45438.225
2349.65943	45367.325
2352.49267	45372.225
2355.32411	45408.125
2358.15376	45344.225
2360.98161	45276.625
2363.80768	45188.025
2366.63195	45188.125
2369.45444	45141.425
2372.27514	45057.425
2375.09405	44993.825
2377.91118	44941.625
2380.72652	44843.425
2383.54009	44764.725
2386.35187	44749.425
2389.16188	44563.725
2391.97011	44540.625
2394.77657	44484.625
2397.58125	44335.825
2400.38416	44321.525
2403.18529	44190.325
2405.98466	44161.525
2408.78226	44086.925
2411.57809	44006.825
2414.37216	43987.625
2417.16446	43940.825
2419.955	43867.225
2422.74378	43882.825
2425.5308	43854.325
2428.31606	43793.525
2431.09956	43748.725
2433.88131	43668.225
2436.6613	43753.725
2439.43954	43746.425
2442.21603	43692.125
2444.99077	43539.625
2447.76377	43490.425
2450.53501	43491.825
2453.30451	43470.825
2456.07226	43332.825
2458.83827	43318.325
2461.60254	43268.225
2464.36507	43160.025
2467.12586	43101.425
2469.88492	43103.125
2472.64224	43117.725
2475.39782	43048.325
2478.15167	43079.525
2480.90379	43070.025
2483.65417	43033.725
2486.40283	42941.125
2489.14976	42955.525
2491.89497	42869.125
2494.63845	42885.225
2497.3802	42771.225
2500.12024	42764.625
2502.85855	42639.725
2505.59514	42651.925
2508.33002	42607.725
2511.06318	42582.325
2513.79462	42456.825
2516.52435	42393.625
2519.25237	42384.825
2521.97867	42336.725
2524.70327	42349.825
2527.42616	42215.625
2530.14734	42182.825
2532.86681	42085.425
2535.58458	42034.925
2538.30065	41989.525
2541.01501	41973.925
2543.72768	41877.525
2546.43864	41851.925
2549.14791	41768.725
2551.85548	41671.925
2554.56136	41578.825
2557.26554	41514.925
2559.96803	41395.825
2562.66883	41330.425
2565.36794	41287.225
2568.06536	41264.225
2570.7611	41205.325
2573.45514	41014.125
2576.14751	40982.825
2578.83819	40948.125
2581.52719	40873.425
2584.21451	40733.525
2586.90015	40677.825
2589.58411	40556.025
2592.2664	40483.925
2594.94701	40398.825
2597.62594	40403.025
2600.30321	40310.825
2602.9788	40289.425
2605.65273	40152.925
2608.32498	40140.725
2610.99557	40020.125
2613.66449	40065.425
2616.33175	39994.625
2618.99734	39973.225
2621.66128	39923.425
2624.32355	39773.225
2626.98416	39735.325
2629.64311	39633.925
2632.30041	39608.025
2634.95605	39510.025
2637.61004	39479.425
2640.26238	39477.725
2642.91306	39387.725
2645.56209	39449.525
2648.20948	39374.825
2650.85521	39348.125
2653.4993	39343.625
2656.14175	39295.225
2658.78255	39329.925
2661.42171	39297.025
2664.05923	39209.625
2666.6951	39190.025
2669.32934	39225.425
2671.96194	39197.925
2674.59291	39162.325
2677.22224	39146.425
2679.84993	39137.825
2682.476	39131.725
2685.10043	39130.125
2687.72324	39075.825
2690.34441	39057.725
2692.96396	39040.725
2695.58188	39035.425
2698.19818	39025.325
2700.81285	39016.125
2703.4259	38960.625
2706.03733	39015.325
2708.64714	38987.225
2711.25533	38950.525
2713.86191	38957.925
2716.46687	39029.525
2719.07021	39048.525
2721.67194	39111.325
2724.27206	39011.525
2726.87057	39070.325
2729.46747	39071.225
2732.06276	39063.925
2734.65644	38976.725
2737.24852	38940.325
2739.83899	38818.425
2742.42786	38879.525
2745.01513	38821.025
2747.60079	38744.425
2750.18486	38675.125
2752.76733	38563.125
2755.3482	38509.825
2757.92747	38445.025
2760.50515	38391.825
2763.08123	38414.725
2765.65573	38282.625
2768.22863	38202.625
2770.79994	38127.725
2773.36967	38133.425
2775.9378	38120.125
2778.50435	38041.225
2781.06932	38008.825
2783.6327	37908.625
2786.1945	37834.325
2788.75471	37828.225
2791.31335	37705.125
2793.87041	37653.725
2796.42589	37539.425
2798.97979	37458.425
2801.53212	37339.825
2804.08288	37286.625
2806.63206	37162.125
2809.17967	37100.525
2811.72571	36937.125
2814.27018	36865.725
2816.81308	36799.725
2819.35442	36764.025
2821.89419	36702.225
2824.43239	36695.125
2826.96904	36623.425
2829.50412	36549.625
2832.03763	36466.925
2834.56959	36396.625
2837.1	36313.225
2839.62884	36363.325
2842.15613	36235.025
2844.68186	36249.125
2847.20604	36194.425
2849.72867	36101.125
2852.24974	36043.825
2854.76927	36017.025
2857.28724	35977.925
2859.80367	35923.625
2862.31855	35773.925
2864.83189	35787.325
2867.34368	35726.025
2869.85393	35740.025
2872.36264	35640.225
2874.8698	35583.225
2877.37543	35565.725
2879.87952	35521.725
2882.38207	35513.525
2884.88308	35463.225
2887.38256	35410.525
2889.88051	35424.525
2892.37692	35431.925
2894.8718	35436.325
2897.36515	35447.025
2899.85698	35365.425
2902.34727	35375.425
2904.83604	35364.625
2907.32328	35430.425
2909.809	35402.825
2912.29319	35428.125
2914.77587	35375.625
2917.25702	35400.725
2919.73665	35360.725
2922.21476	35423.925
2924.69136	35312.825
2927.16644	35258.125
2929.64	35198.425
2932.11205	35170.125
2934.58258	35097.525
2937.05161	35126.525
2939.51912	35109.425
2941.98513	35152.225
2944.44962	35097.625
2946.91261	34995.125
2949.37409	35097.725
2951.83407	35025.325
2954.29254	35000.425
2956.74951	34999.225
2959.20498	35018.925
2961.65895	34970.525
2964.11142	34943.725
2966.56239	34913.125
2969.01186	34952.025
2971.45984	34873.225
2973.90632	34846.225
2976.35131	34801.425
2978.7948	34722.225
2981.23681	34671.025
2983.67732	34682.525
2986.11635	34562.125
2988.55388	34517.225
2990.98993	34451.525
2993.4245	34340.825
2995.85758	34280.625
2998.28917	34183.025
3000.71928	34135.325
3003.14791	34069.425
3005.57506	34052.125
3008.00073	33955.625
3010.42493	33888.925
3012.84764	33854.125
3015.26888	33851.925
3017.68865	33785.725
3020.10694	33734.825
3022.52376	33645.025
3024.9391	33653.825
3027.35298	33569.925
3029.76539	33565.125
3032.17632	33478.425
3034.5858	33476.525
3036.9938	33466.025
3039.40034	33400.425
3041.80542	33360.625
3044.20903	33321.325
3046.61118	33241.225
3049.01187	33176.125
3051.4111	33150.925
3053.80888	32999.825
3056.20519	32974.625
3058.60005	32801.925
3060.99345	32885.525
3063.3854	32798.925
3065.7759	32671.825
3068.16494	32584.025
3070.55254	32511.225
3072.93868	32467.225
3075.32338	32418.625
3077.70662	32324.825
3080.08842	32225.325
3082.46878	32222.225
3084.84769	32181.725
3087.22515	32134.925
3089.60118	32159.225
3091.97576	32123.225
3094.3489	32049.425
3096.72061	32089.825
3099.09087	32108.125
3101.4597	32120.425
3103.82709	32127.725
3106.19305	32014.625
3108.55757	32034.325
3110.92066	31906.225
3113.28232	31878.525
3115.64255	31733.525
3118.00134	31710.225
3120.35871	31689.125
3122.71466	31646.425
3125.06917	31513.025
