Data from AgNPs_FTO_APTES_UA_20uM_CRN_500uM_R6G_10uM_NaF_0.1M_Addition_RamanShift__30__19-07-04-997.txt Node

Date: Thu Feb 17 19:07:04 GMT 2022
User: TCL
Spectrometer: QEP01345
Trigger mode: 4
Integration Time (sec): 1.000000E1
Scans to average: 7
Electric dark correction enabled: true
Nonlinearity correction enabled: false
Boxcar width: 0
XAxis mode: Raman Shifts
Number of Pixels in Spectrum: 1044
>>>>>Begin Spectral Data<<<<<
46.04893	2.08929
50.45542	0.23214
54.85868	-0.33929
59.25871	-1.33929
63.6555	67.51786
68.04907	69.80357
72.43941	73.94643
76.82654	75.66071
81.21044	80.94643
85.59113	82.66071
89.96862	91.375
94.34289	88.23214
98.71396	93.375
103.08183	91.23214
107.4465	102.375
111.80798	97.08929
116.16626	100.94643
120.52136	102.375
124.87327	109.23214
129.222	110.80357
133.56755	119.08929
137.90993	127.51786
142.24913	138.375
146.58517	155.80357
150.91804	181.375
155.24774	216.08929
159.57429	265.08929
163.89768	350.23214
168.21792	460.375
172.53501	624.375
176.84895	893.94643
181.15975	1233.375
185.46741	1734.375
189.77193	2412.08929
194.07331	3272.51786
198.37157	4204.66071
202.6667	5261.66071
206.9587	6305.66071
211.24758	7383.23214
215.53334	8544.66071
219.81599	9793.51786
224.09553	11255.80357
228.37195	12979.94643
232.64527	14753.375
236.91549	16533.23214
241.18261	18133.51786
245.44663	19384.23214
249.70755	20378.66071
253.96539	21093.51786
258.22014	21668.80357
262.4718	21962.08929
266.72039	22010.80357
270.96589	21802.66071
275.20832	21347.80357
279.44768	20685.51786
283.68397	20060.08929
287.91719	19689.94643
292.14735	19840.66071
296.37445	20598.80357
300.59849	22082.66071
304.81948	23919.94643
309.03742	25430.375
313.25231	25805.94643
317.46415	24348.23214
321.67296	21729.94643
325.87872	19410.375
330.08145	18268.51786
334.28114	18218.66071
338.47781	18775.08929
342.67145	19564.08929
346.86207	20861.94643
351.04966	22813.375
355.23424	25149.94643
359.4158	26839.94643
363.59435	27506.51786
367.76989	27532.80357
371.94243	27269.80357
376.11196	26840.375
380.27849	26504.51786
384.44203	25931.51786
388.60257	25142.51786
392.76012	24580.08929
396.91468	24638.51786
401.06626	25293.66071
405.21485	25795.375
409.36047	25017.94643
413.50311	22980.80357
417.64277	20933.375
421.77947	19595.94643
425.9132	19015.23214
430.04396	18870.51786
434.17176	18912.08929
438.2966	19341.375
442.41849	20056.51786
446.53742	20843.80357
450.6534	21560.80357
454.76644	21906.94643
458.87653	21811.94643
462.98368	21366.375
467.08789	20843.94643
471.18916	20044.94643
475.2875	19347.51786
479.38291	18661.08929
483.4754	18109.94643
487.56496	17777.375
491.6516	17672.23214
495.73531	17680.51786
499.81612	17683.66071
503.89401	18040.80357
507.96899	18582.375
512.04106	19222.08929
516.11023	19961.94643
520.1765	20536.51786
524.23987	20570.08929
528.30034	20110.23214
532.35792	19536.80357
536.41261	18905.23214
540.46441	18211.375
544.51333	17766.23214
548.55936	17707.80357
552.60252	18124.375
556.64279	18716.80357
560.6802	19072.94643
564.71473	19679.23214
568.7464	21127.66071
572.7752	21895.94643
576.80114	20509.51786
580.82422	18825.51786
584.84444	18013.51786
588.86181	17880.08929
592.87633	18106.80357
596.888	18563.23214
600.89682	19572.80357
604.9028	23411.08929
608.90594	34118.80357
612.90624	49342.375
616.90371	48591.51786
620.89834	30257.66071
624.89015	20895.94643
628.87913	19121.23214
632.86528	19515.66071
636.84862	20161.375
640.82913	19695.51786
644.80683	18141.375
648.78172	17096.66071
652.75379	17086.66071
656.72306	18372.51786
660.68952	19870.66071
664.65319	19459.08929
668.61405	17734.23214
672.57211	16888.94643
676.52738	16873.66071
680.47986	16909.66071
684.42955	16626.94643
688.37646	16434.80357
692.32058	16489.51786
696.26192	16703.375
700.20048	17050.66071
704.13626	17244.375
708.06928	17116.94643
711.99952	16862.66071
715.927	16803.375
719.85171	17038.66071
723.77365	17119.375
727.69284	16936.375
731.60928	16742.08929
735.52295	16711.66071
739.43388	16819.80357
743.34206	16838.51786
747.24749	16893.375
751.15017	16947.80357
755.05012	17384.375
758.94733	18773.23214
762.8418	22275.94643
766.73354	28027.51786
770.62254	33685.80357
774.50882	37415.375
778.39237	36834.08929
782.27321	30789.51786
786.15132	23787.94643
790.02671	19661.08929
793.89938	17898.94643
797.76935	17175.94643
801.6366	16865.08929
805.50115	16709.08929
809.36299	16682.80357
813.22213	16598.80357
817.07857	16537.375
820.93231	16452.80357
824.78336	16524.23214
828.63172	16674.80357
832.47738	16718.66071
836.32036	16616.80357
840.16066	16380.80357
843.99827	16207.66071
847.8332	16176.94643
851.66546	16181.23214
855.49504	16179.23214
859.32195	16180.94643
863.1462	16083.08929
866.96777	16012.23214
870.78668	15997.23214
874.60293	16099.23214
878.41652	16234.375
882.22745	16466.23214
886.03573	16624.08929
889.84136	16565.51786
893.64433	16466.23214
897.44466	16398.375
901.24235	16401.80357
905.0374	16254.08929
908.8298	16059.94643
912.61957	15864.80357
916.40671	15894.66071
920.19121	15927.66071
923.97308	16166.08929
927.75233	16532.66071
931.52895	17050.08929
935.30295	16906.94643
939.07433	16132.80357
942.84309	15449.80357
946.60924	15046.375
950.37278	14841.375
954.13371	14775.51786
957.89203	14717.51786
961.64774	14690.375
965.40086	14620.80357
969.15137	14606.375
972.89929	14549.66071
976.64461	14541.08929
980.38733	14548.51786
984.12747	14611.51786
987.86502	14653.08929
991.59999	14769.94643
995.33237	14991.08929
999.06217	15306.51786
1002.78939	15759.94643
1006.51404	16204.375
1010.23611	16651.08929
1013.95561	16936.80357
1017.67255	16924.23214
1021.38692	16657.51786
1025.09872	16257.80357
1028.80796	16065.375
1032.51465	16059.51786
1036.21877	16273.80357
1039.92035	16475.51786
1043.61937	16582.94643
1047.31584	16559.08929
1051.00976	16460.80357
1054.70114	16284.08929
1058.38998	16241.375
1062.07627	16203.23214
1065.76003	16285.23214
1069.44126	16318.08929
1073.11995	16518.94643
1076.79611	16947.08929
1080.46974	17652.23214
1084.14085	18611.51786
1087.80943	19442.51786
1091.47549	19640.80357
1095.13903	18978.51786
1098.80005	18015.08929
1102.45857	17253.94643
1106.11456	17188.66071
1109.76805	17559.375
1113.41903	18450.375
1117.06751	19763.94643
1120.71348	21584.23214
1124.35696	23529.375
1127.99793	24792.08929
1131.63641	24006.94643
1135.2724	21794.08929
1138.90589	19918.94643
1142.5369	18824.66071
1146.16542	18116.375
1149.79145	17646.94643
1153.415	17490.23214
1157.03607	17619.51786
1160.65467	18051.66071
1164.27079	18887.08929
1167.88443	20227.66071
1171.49561	22457.80357
1175.10432	26154.80357
1178.71056	31402.80357
1182.31434	35561.66071
1185.91565	36532.08929
1189.51451	34837.08929
1193.11091	31749.80357
1196.70485	28643.80357
1200.29634	26527.80357
1203.88538	24875.08929
1207.47197	22679.66071
1211.05612	20669.08929
1214.63782	19496.23214
1218.21708	19002.08929
1221.79391	18818.08929
1225.36829	18737.66071
1228.94024	18737.80357
1232.50976	18687.51786
1236.07685	18696.94643
1239.6415	18950.51786
1243.20374	19209.94643
1246.76355	19468.66071
1250.32093	19735.51786
1253.8759	20260.23214
1257.42845	21051.23214
1260.97859	22006.80357
1264.52631	23002.51786
1268.07163	23961.94643
1271.61453	24584.08929
1275.15503	24884.08929
1278.69312	24921.08929
1282.22882	25102.08929
1285.76211	25876.80357
1289.29301	27044.51786
1292.82151	28183.08929
1296.34761	29545.51786
1299.87133	31726.66071
1303.39266	35708.08929
1306.9116	41898.51786
1310.42815	48178.94643
1313.94233	50176.08929
1317.45412	46486.51786
1320.96354	40475.66071
1324.47058	34873.23214
1327.97525	30743.08929
1331.47754	28587.94643
1334.97747	28183.66071
1338.47502	29114.08929
1341.97022	31215.51786
1345.46305	34334.08929
1348.95352	38261.08929
1352.44163	43319.23214
1355.92738	50508.23214
1359.41078	60746.08929
1362.89183	67757.94643
1366.37053	62734.66071
1369.84688	50506.94643
1373.32088	40092.66071
1376.79254	33403.23214
1380.26186	29457.66071
1383.72883	27031.80357
1387.19347	25162.375
1390.65578	23498.23214
1394.11575	22267.80357
1397.57339	21650.08929
1401.0287	21537.51786
1404.48168	21729.23214
1407.93234	22102.80357
1411.38068	22584.375
1414.82669	22960.51786
1418.27039	23039.66071
1421.71177	22712.23214
1425.15083	22400.51786
1428.58758	22331.80357
1432.02203	22681.375
1435.45416	22912.94643
1438.88399	22856.66071
1442.31151	22719.80357
1445.73673	22747.08929
1449.15965	22849.23214
1452.58027	22654.375
1455.9986	22251.23214
1459.41463	22136.66071
1462.82837	22501.375
1466.23982	23141.08929
1469.64898	23802.66071
1473.05586	24279.23214
1476.46045	24578.23214
1479.86276	25253.23214
1483.26279	26162.80357
1486.66054	27315.51786
1490.05602	28912.51786
1493.44922	31165.94643
1496.84016	34790.66071
1500.22882	40531.23214
1503.61521	48440.80357
1506.99934	57390.66071
1510.38121	64207.80357
1513.76081	65154.51786
1517.13816	58432.375
1520.51324	47626.375
1523.88607	38446.08929
1527.25665	32567.94643
1530.62498	29455.23214
1533.99105	27713.80357
1537.35488	26783.66071
1540.71647	26377.08929
1544.07581	26462.94643
1547.4329	26778.80357
1550.78776	27031.23214
1554.14038	27117.66071
1557.49077	27261.375
1560.83892	27786.23214
1564.18484	28969.375
1567.52853	30641.375
1570.86999	31999.51786
1574.20922	32620.08929
1577.54624	32058.80357
1580.88103	29532.375
1584.2136	26224.94643
1587.54395	24283.66071
1590.87208	24160.94643
1594.19801	25632.375
1597.52172	27949.66071
1600.84321	29124.80357
1604.16251	28316.23214
1607.47959	26483.08929
1610.79447	24281.375
1614.10715	22134.66071
1617.41763	20451.08929
1620.7259	19421.80357
1624.03199	18999.94643
1627.33587	19098.375
1630.63757	19644.23214
1633.93707	20753.23214
1637.23439	22683.08929
1640.52951	25861.80357
1643.82246	30738.51786
1647.11321	36654.94643
1650.40179	40700.51786
1653.68819	39117.08929
1656.97241	32702.80357
1660.25446	25982.23214
1663.53433	21511.23214
1666.81203	18946.23214
1670.08756	17481.375
1673.36092	16547.375
1676.63211	15955.94643
1679.90115	15547.23214
1683.16801	15202.375
1686.43272	14941.51786
1689.69527	14830.94643
1692.95567	14665.375
1696.2139	14583.23214
1699.46999	14564.94643
1702.72392	14504.80357
1705.97571	14492.80357
1709.22535	14518.23214
1712.47284	14477.51786
1715.71819	14513.51786
1718.96139	14467.23214
1722.20246	14419.80357
1725.44139	14299.80357
1728.67818	14158.80357
1731.91284	14028.08929
1735.14537	13914.66071
1738.37576	13859.66071
1741.60403	13745.66071
1744.83017	13699.375
1748.05418	13631.80357
1751.27607	13577.94643
1754.49584	13521.94643
1757.71349	13497.375
1760.92903	13455.08929
1764.14244	13380.375
1767.35375	13378.94643
1770.56294	13298.66071
1773.77002	13217.80357
1776.97499	13178.08929
1780.17785	13139.08929
1783.37861	13083.80357
1786.57727	13004.23214
1789.77382	13004.375
1792.96828	13000.51786
1796.16064	12964.66071
1799.3509	12915.08929
1802.53907	12918.66071
1805.72514	12846.375
1808.90913	12791.94643
1812.09102	12785.08929
1815.27083	12717.51786
1818.44856	12708.66071
1821.6242	12655.23214
1824.79776	12639.80357
1827.96924	12602.80357
1831.13864	12554.08929
1834.30597	12580.94643
1837.47122	12555.51786
1840.6344	12499.94643
1843.7955	12525.51786
1846.95454	12513.08929
1850.11151	12475.80357
1853.26642	12449.51786
1856.41926	12453.94643
1859.57004	12466.51786
1862.71876	12461.80357
1865.86542	12455.51786
1869.01003	12472.94643
1872.15258	12468.51786
1875.29308	12459.80357
1878.43152	12446.08929
1881.56792	12478.23214
1884.70227	12451.51786
1887.83457	12456.51786
1890.96482	12470.94643
1894.09304	12409.51786
1897.21921	12394.51786
1900.34335	12382.08929
1903.46544	12374.80357
1906.58551	12354.66071
1909.70353	12366.08929
1912.81953	12353.66071
1915.93349	12342.51786
1919.04543	12333.375
1922.15534	12293.66071
1925.26322	12249.375
1928.36908	12222.80357
1931.47292	12207.08929
1934.57473	12192.80357
1937.67453	12135.94643
1940.77232	12080.23214
1943.86808	12038.51786
1946.96184	11971.51786
1950.05358	11982.23214
1953.14331	11953.51786
1956.23103	11907.94643
1959.31675	11908.08929
1962.40046	11869.375
1965.48217	11847.375
1968.56188	11814.08929
1971.63959	11798.51786
1974.7153	11792.80357
1977.78901	11756.375
1980.86073	11691.08929
1983.93046	11666.80357
1986.99819	11588.51786
1990.06394	11532.375
1993.1277	11484.94643
1996.18947	11436.66071
1999.24925	11392.94643
2002.30706	11367.23214
2005.36288	11310.08929
2008.41672	11294.94643
2011.46859	11257.51786
2014.51848	11205.375
2017.56639	11160.94643
2020.61233	11131.375
2023.6563	11104.51786
2026.6983	11084.23214
2029.73833	11052.08929
2032.7764	11037.23214
2035.8125	11014.375
2038.84664	11020.08929
2041.87881	10968.94643
2044.90903	10925.375
2047.93729	10951.80357
2050.96359	10925.375
2053.98794	10900.51786
2057.01034	10894.80357
2060.03078	10863.08929
2063.04927	10840.94643
2066.06582	10831.51786
2069.08042	10852.23214
2072.09307	10802.23214
2075.10378	10807.66071
2078.11255	10829.94643
2081.11938	10776.51786
2084.12426	10797.23214
2087.12722	10768.80357
2090.12824	10790.66071
2093.12732	10795.94643
2096.12447	10798.66071
2099.11969	10780.375
2102.11299	10772.51786
2105.10435	10785.80357
2108.09379	10789.94643
2111.08131	10805.08929
2114.0669	10820.375
2117.05057	10780.80357
2120.03233	10852.80357
2123.01216	10854.66071
2125.99008	10884.94643
2128.96609	10876.66071
2131.94018	10878.375
2134.91236	10866.375
2137.88263	10881.51786
2140.851	10856.23214
2143.81746	10871.375
2146.78201	10805.80357
2149.74466	10825.23214
2152.7054	10849.80357
2155.66425	10795.94643
2158.6212	10771.66071
2161.57625	10780.08929
2164.52941	10772.94643
2167.48067	10752.80357
2170.43004	10753.94643
2173.37752	10778.375
2176.32311	10787.94643
2179.26681	10782.08929
2182.20863	10790.51786
2185.14856	10815.23214
2188.08661	10757.51786
2191.02278	10761.375
2193.95707	10744.66071
2196.88948	10719.08929
2199.82001	10737.80357
2202.74867	10688.51786
2205.67545	10717.80357
2208.60037	10693.80357
2211.52341	10691.375
2214.44458	10662.80357
2217.36388	10630.375
2220.28132	10654.23214
2223.1969	10592.94643
2226.11061	10579.66071
2229.02246	10547.80357
2231.93245	10532.66071
2234.84058	10500.375
2237.74686	10480.375
2240.65128	10483.23214
2243.55385	10480.375
2246.45456	10468.375
2249.35343	10447.08929
2252.25044	10442.94643
2255.14561	10500.375
2258.03893	10491.80357
2260.93041	10488.66071
2263.82004	10486.94643
2266.70783	10470.51786
2269.59378	10417.08929
2272.4779	10384.375
2275.36017	10378.94643
2278.24061	10363.66071
2281.11922	10286.375
2283.996	10272.94643
2286.87094	10263.66071
2289.74405	10242.66071
2292.61534	10194.94643
2295.4848	10182.80357
2298.35243	10186.08929
2301.21824	10168.375
2304.08223	10162.94643
2306.94439	10157.94643
2309.80474	10134.375
2312.66327	10136.94643
2315.51999	10133.23214
2318.37489	10134.80357
2321.22797	10107.80357
2324.07925	10108.375
2326.92871	10092.66071
2329.77637	10063.51786
2332.62222	10083.66071
2335.46626	10032.66071
2338.3085	10042.23214
2341.14893	10061.23214
2343.98756	10064.80357
2346.8244	10072.80357
2349.65943	10053.08929
2352.49267	10112.66071
2355.32411	10118.66071
2358.15376	10125.23214
2360.98161	10158.23214
2363.80768	10181.80357
2366.63195	10193.08929
2369.45444	10176.94643
2372.27514	10207.375
2375.09405	10160.94643
2377.91118	10146.23214
2380.72652	10106.375
2383.54009	10055.375
2386.35187	10013.375
2389.16188	9943.08929
2391.97011	9906.94643
2394.77657	9858.80357
2397.58125	9871.51786
2400.38416	9814.94643
2403.18529	9788.08929
2405.98466	9776.375
2408.78226	9754.66071
2411.57809	9733.94643
2414.37216	9715.51786
2417.16446	9699.23214
2419.955	9661.80357
2422.74378	9703.66071
2425.5308	9693.51786
2428.31606	9678.51786
2431.09956	9699.375
2433.88131	9686.23214
2436.6613	9697.94643
2439.43954	9692.23214
2442.21603	9714.94643
2444.99077	9719.51786
2447.76377	9714.08929
2450.53501	9706.80357
2453.30451	9721.80357
2456.07226	9709.08929
2458.83827	9660.80357
2461.60254	9690.80357
2464.36507	9671.08929
2467.12586	9650.23214
2469.88492	9677.66071
2472.64224	9673.66071
2475.39782	9679.23214
2478.15167	9681.80357
2480.90379	9763.375
2483.65417	9750.23214
2486.40283	9774.51786
2489.14976	9839.66071
2491.89497	9840.375
2494.63845	9865.23214
2497.3802	9865.66071
2500.12024	9817.94643
2502.85855	9792.23214
2505.59514	9742.08929
2508.33002	9656.80357
2511.06318	9638.80357
2513.79462	9576.66071
2516.52435	9506.51786
2519.25237	9512.94643
2521.97867	9461.51786
2524.70327	9449.08929
2527.42616	9407.80357
2530.14734	9416.94643
2532.86681	9401.80357
2535.58458	9389.08929
2538.30065	9394.94643
2541.01501	9398.23214
2543.72768	9398.23214
2546.43864	9393.66071
2549.14791	9382.23214
2551.85548	9409.51786
2554.56136	9385.23214
2557.26554	9389.08929
2559.96803	9374.375
2562.66883	9359.80357
2565.36794	9328.80357
2568.06536	9297.08929
2570.7611	9287.80357
2573.45514	9294.08929
2576.14751	9251.51786
2578.83819	9237.08929
2581.52719	9224.94643
2584.21451	9210.08929
2586.90015	9212.66071
2589.58411	9190.51786
2592.2664	9181.94643
2594.94701	9157.375
2597.62594	9165.23214
2600.30321	9131.375
2602.9788	9142.23214
2605.65273	9140.23214
2608.32498	9115.94643
2610.99557	9142.23214
2613.66449	9160.80357
2616.33175	9125.80357
2618.99734	9164.94643
2621.66128	9127.08929
2624.32355	9089.51786
2626.98416	9101.80357
2629.64311	9087.23214
2632.30041	9078.51786
2634.95605	9035.08929
2637.61004	9037.66071
2640.26238	8973.08929
2642.91306	8983.51786
2645.56209	8972.94643
2648.20948	8962.94643
2650.85521	9005.51786
2653.4993	8987.66071
2656.14175	9008.66071
2658.78255	9013.94643
2661.42171	8992.375
2664.05923	9020.08929
2666.6951	9054.08929
2669.32934	9048.80357
2671.96194	9074.375
2674.59291	9109.23214
2677.22224	9082.94643
2679.84993	9058.51786
2682.476	9069.51786
2685.10043	9072.51786
2687.72324	9058.66071
2690.34441	9065.80357
2692.96396	9061.23214
2695.58188	9077.94643
2698.19818	9064.94643
2700.81285	9056.51786
2703.4259	9064.23214
2706.03733	9114.08929
2708.64714	9101.66071
2711.25533	9098.51786
2713.86191	9083.51786
2716.46687	9134.23214
2719.07021	9116.51786
2721.67194	9126.375
2724.27206	9125.08929
2726.87057	9115.23214
2729.46747	9110.66071
2732.06276	9091.66071
2734.65644	9090.94643
2737.24852	9072.80357
2739.83899	9059.51786
2742.42786	9061.80357
2745.01513	9040.23214
2747.60079	9022.94643
2750.18486	8994.80357
2752.76733	8978.23214
2755.3482	8961.23214
2757.92747	8996.94643
2760.50515	8969.23214
2763.08123	8971.08929
2765.65573	8927.08929
2768.22863	8936.375
2770.79994	8901.08929
2773.36967	8933.08929
2775.9378	8938.51786
2778.50435	8925.94643
2781.06932	8903.80357
2783.6327	8924.23214
2786.1945	8912.08929
2788.75471	8922.08929
2791.31335	8900.23214
2793.87041	8908.375
2796.42589	8920.375
2798.97979	8925.51786
2801.53212	8927.66071
2804.08288	8939.08929
2806.63206	8926.80357
2809.17967	8923.94643
2811.72571	8933.375
2814.27018	8940.51786
2816.81308	8922.66071
2819.35442	8937.94643
2821.89419	8941.66071
2824.43239	8948.94643
2826.96904	8994.80357
2829.50412	8997.375
2832.03763	8990.23214
2834.56959	8976.80357
2837.1	8974.23214
2839.62884	8970.94643
2842.15613	8970.23214
2844.68186	8994.66071
2847.20604	9052.80357
2849.72867	9084.94643
2852.24974	9103.23214
2854.76927	9102.08929
2857.28724	9103.94643
2859.80367	9098.23214
2862.31855	9084.375
2864.83189	9075.51786
2867.34368	9064.08929
2869.85393	9072.375
2872.36264	9076.66071
2874.8698	9066.23214
2877.37543	9073.66071
2879.87952	9042.51786
2882.38207	9050.66071
2884.88308	9004.23214
2887.38256	9004.51786
2889.88051	8987.51786
2892.37692	9008.66071
2894.8718	8971.08929
2897.36515	8974.94643
2899.85698	8993.08929
2902.34727	8973.375
2904.83604	8974.80357
2907.32328	8994.08929
2909.809	9002.08929
2912.29319	8984.66071
2914.77587	8959.375
2917.25702	8984.94643
2919.73665	8941.80357
2922.21476	8946.94643
2924.69136	8919.80357
2927.16644	8919.94643
2929.64	8909.94643
2932.11205	8866.08929
2934.58258	8833.66071
2937.05161	8830.23214
2939.51912	8818.80357
2941.98513	8799.375
2944.44962	8781.80357
2946.91261	8733.08929
2949.37409	8713.375
2951.83407	8704.51786
2954.29254	8678.66071
2956.74951	8683.80357
2959.20498	8667.80357
2961.65895	8614.80357
2964.11142	8629.80357
2966.56239	8613.66071
2969.01186	8565.375
2971.45984	8562.51786
2973.90632	8559.375
2976.35131	8525.375
2978.7948	8505.23214
