Data from AgNPs_FTO_APTES_UA_20uM_CRN_1uM_R6G_10uM_NaF_0.1M_Addition_RamanShift__0__12-02-02-011.txt Node

Date: Thu Feb 17 12:02:02 GMT 2022
User: TCL
Spectrometer: QEP01345
Trigger mode: 4
Integration Time (sec): 7.000000E0
Scans to average: 10
Electric dark correction enabled: true
Nonlinearity correction enabled: false
Boxcar width: 0
XAxis mode: Raman Shifts
Number of Pixels in Spectrum: 1044
>>>>>Begin Spectral Data<<<<<
46.04893	-0.0875
50.45542	-0.2875
54.85868	-3.6875
59.25871	0.0125
63.6555	65.0125
68.04907	65.1125
72.43941	68.1125
76.82654	69.8125
81.21044	71.5125
85.59113	76.1125
89.96862	79.6125
94.34289	80.1125
98.71396	80.6125
103.08183	84.3125
107.4465	87.6125
111.80798	86.8125
116.16626	91.9125
120.52136	98.3125
124.87327	100.8125
129.222	108.8125
133.56755	112.8125
137.90993	120.4125
142.24913	129.6125
146.58517	153.5125
150.91804	178.4125
155.24774	211.4125
159.57429	269.6125
163.89768	347.9125
168.21792	466.9125
172.53501	638.8125
176.84895	893.8125
181.15975	1262.8125
185.46741	1781.5125
189.77193	2461.3125
194.07331	3305.5125
198.37157	4247.1125
202.6667	5252.5125
206.9587	6255.6125
211.24758	7253.2125
215.53334	8249.8125
219.81599	9322.0125
224.09553	10465.3125
228.37195	11809.3125
232.64527	13203.8125
236.91549	14698.8125
241.18261	16141.5125
245.44663	17478.5125
249.70755	18656.9125
253.96539	19712.1125
258.22014	20547.5125
262.4718	21378.1125
266.72039	21885.1125
270.96589	22181.8125
275.20832	22135.6125
279.44768	21928.7125
283.68397	21652.3125
287.91719	21384.3125
292.14735	21220.3125
296.37445	21255.3125
300.59849	21440.6125
304.81948	21685.6125
309.03742	21924.8125
313.25231	21971.5125
317.46415	21683.8125
321.67296	21236.0125
325.87872	20864.0125
330.08145	20708.5125
334.28114	20706.4125
338.47781	20916.0125
342.67145	21228.7125
346.86207	21603.8125
351.04966	22117.8125
355.23424	22666.8125
359.4158	23099.1125
363.59435	23373.8125
367.76989	23553.0125
371.94243	23648.4125
376.11196	23798.6125
380.27849	23909.9125
384.44203	24022.6125
388.60257	24109.8125
392.76012	24277.4125
396.91468	24479.1125
401.06626	24803.2125
405.21485	25121.6125
409.36047	25087.9125
413.50311	24760.1125
417.64277	24550.9125
421.77947	24570.8125
425.9132	24686.7125
430.04396	24834.8125
434.17176	25030.1125
438.2966	25268.2125
442.41849	25797.0125
446.53742	26659.3125
450.6534	27550.6125
454.76644	28106.8125
458.87653	28041.0125
462.98368	27647.5125
467.08789	27087.9125
471.18916	26459.7125
475.2875	25896.8125
479.38291	25464.6125
483.4754	25191.9125
487.56496	24943.4125
491.6516	24794.3125
495.73531	24565.3125
499.81612	24454.1125
503.89401	24592.1125
507.96899	24703.5125
512.04106	24683.7125
516.11023	24628.6125
520.1765	24582.6125
524.23987	24644.0125
528.30034	24688.3125
532.35792	24609.7125
536.41261	24271.5125
540.46441	23889.4125
544.51333	23731.5125
548.55936	23843.5125
552.60252	24281.1125
556.64279	24967.8125
560.6802	25491.4125
564.71473	25772.9125
568.7464	26170.4125
572.7752	26801.9125
576.80114	27155.7125
580.82422	27553.0125
584.84444	28482.9125
588.86181	30123.0125
592.87633	31924.1125
596.888	32355.9125
600.89682	30842.9125
604.9028	30058.8125
608.90594	32197.8125
612.90624	35277.7125
616.90371	33632.1125
620.89834	28096.2125
624.89015	25530.2125
628.87913	25078.9125
632.86528	25116.8125
636.84862	25008.0125
640.82913	24618.7125
644.80683	24055.1125
648.78172	23729.7125
652.75379	23778.1125
656.72306	24263.9125
660.68952	24805.9125
664.65319	24677.5125
668.61405	24157.4125
672.57211	24018.6125
676.52738	24138.7125
680.47986	24104.5125
684.42955	23948.9125
688.37646	23855.5125
692.32058	24122.2125
696.26192	24495.7125
700.20048	24994.1125
704.13626	25245.0125
708.06928	25224.0125
711.99952	25068.8125
715.927	25087.1125
719.85171	25219.2125
723.77365	25127.2125
727.69284	24856.8125
731.60928	24564.8125
735.52295	24515.7125
739.43388	24552.2125
743.34206	24704.2125
747.24749	24819.5125
751.15017	24967.4125
755.05012	25305.4125
758.94733	25837.0125
762.8418	26950.1125
766.73354	28880.9125
770.62254	30700.2125
774.50882	31254.2125
778.39237	30278.2125
782.27321	28395.0125
786.15132	26633.0125
790.02671	25466.1125
793.89938	25003.7125
797.76935	24783.7125
801.6366	24654.1125
805.50115	24602.9125
809.36299	24573.3125
813.22213	24457.3125
817.07857	24330.5125
820.93231	24286.2125
824.78336	24204.8125
828.63172	24243.8125
832.47738	24262.8125
836.32036	24325.1125
840.16066	24409.5125
843.99827	24356.7125
847.8332	24387.2125
851.66546	24383.0125
855.49504	24415.8125
859.32195	24434.6125
863.1462	24387.2125
866.96777	24358.8125
870.78668	24336.7125
874.60293	24341.1125
878.41652	24426.6125
882.22745	24475.9125
886.03573	24580.2125
889.84136	24577.8125
893.64433	24451.2125
897.44466	24368.0125
901.24235	24324.0125
905.0374	24247.0125
908.8298	24188.3125
912.61957	24238.9125
916.40671	24375.0125
920.19121	24601.9125
923.97308	24833.4125
927.75233	24982.3125
931.52895	24945.6125
935.30295	24658.2125
939.07433	24342.8125
942.84309	24056.5125
946.60924	23978.5125
950.37278	23928.3125
954.13371	23912.7125
957.89203	23892.4125
961.64774	23836.5125
965.40086	23816.3125
969.15137	23864.3125
972.89929	23784.7125
976.64461	23774.3125
980.38733	23842.8125
984.12747	23961.9125
987.86502	24150.5125
991.59999	24389.3125
995.33237	24719.9125
999.06217	25224.8125
1002.78939	25809.9125
1006.51404	26333.8125
1010.23611	26806.8125
1013.95561	27066.6125
1017.67255	27088.6125
1021.38692	26668.3125
1025.09872	26182.4125
1028.80796	25929.3125
1032.51465	26097.3125
1036.21877	26380.0125
1039.92035	26429.3125
1043.61937	26337.2125
1047.31584	26113.9125
1051.00976	25842.9125
1054.70114	25732.5125
1058.38998	25727.4125
1062.07627	25830.5125
1065.76003	26012.0125
1069.44126	26250.8125
1073.11995	26661.2125
1076.79611	27066.3125
1080.46974	27333.2125
1084.14085	27622.3125
1087.80943	27995.6125
1091.47549	28240.0125
1095.13903	28157.5125
1098.80005	27724.4125
1102.45857	27290.1125
1106.11456	26957.3125
1109.76805	26910.3125
1113.41903	27033.2125
1117.06751	27251.5125
1120.71348	27556.6125
1124.35696	27841.2125
1127.99793	28071.7125
1131.63641	28188.8125
1135.2724	27961.9125
1138.90589	27668.7125
1142.5369	27559.0125
1146.16542	27641.6125
1149.79145	27753.5125
1153.415	27877.3125
1157.03607	28125.7125
1160.65467	28671.5125
1164.27079	29739.1125
1167.88443	31034.4125
1171.49561	32701.0125
1175.10432	34991.8125
1178.71056	37922.5125
1182.31434	40577.2125
1185.91565	41397.1125
1189.51451	40504.9125
1193.11091	38696.5125
1196.70485	36973.6125
1200.29634	35632.8125
1203.88538	34767.4125
1207.47197	34131.4125
1211.05612	33562.5125
1214.63782	33006.2125
1218.21708	32664.4125
1221.79391	32569.0125
1225.36829	32644.6125
1228.94024	32485.7125
1232.50976	31875.1125
1236.07685	31160.0125
1239.6415	30704.9125
1243.20374	30739.5125
1246.76355	30951.8125
1250.32093	31474.9125
1253.8759	32109.0125
1257.42845	32883.1125
1260.97859	33788.0125
1264.52631	34715.8125
1268.07163	35685.3125
1271.61453	36510.9125
1275.15503	37254.5125
1278.69312	37992.6125
1282.22882	38797.8125
1285.76211	40022.8125
1289.29301	41475.7125
1292.82151	43155.1125
1296.34761	45064.9125
1299.87133	47534.1125
1303.39266	50351.7125
1306.9116	53557.1125
1310.42815	56617.0125
1313.94233	58579.6125
1317.45412	58224.7125
1320.96354	56120.8125
1324.47058	53752.9125
1327.97525	51750.0125
1331.47754	50102.1125
1334.97747	49066.7125
1338.47502	48233.5125
1341.97022	47363.2125
1345.46305	46591.9125
1348.95352	46585.3125
1352.44163	47809.3125
1355.92738	50554.1125
1359.41078	54621.0125
1362.89183	58058.8125
1366.37053	57728.5125
1369.84688	52593.0125
1373.32088	46026.4125
1376.79254	41750.3125
1380.26186	40218.4125
1383.72883	40111.8125
1387.19347	39953.7125
1390.65578	39221.4125
1394.11575	38712.5125
1397.57339	38924.9125
1401.0287	39497.6125
1404.48168	40064.8125
1407.93234	40199.6125
1411.38068	39764.9125
1414.82669	38991.8125
1418.27039	37996.1125
1421.71177	36833.0125
1425.15083	35765.1125
1428.58758	35300.7125
1432.02203	35780.2125
1435.45416	36720.6125
1438.88399	37640.9125
1442.31151	38185.1125
1445.73673	38443.9125
1449.15965	38495.1125
1452.58027	38181.2125
1455.9986	37664.7125
1459.41463	37494.1125
1462.82837	37917.8125
1466.23982	38666.6125
1469.64898	39541.6125
1473.05586	40250.4125
1476.46045	40682.0125
1479.86276	40805.1125
1483.26279	40721.3125
1486.66054	40639.7125
1490.05602	40985.3125
1493.44922	41366.9125
1496.84016	41811.4125
1500.22882	42525.7125
1503.61521	43824.1125
1506.99934	45387.2125
1510.38121	46798.5125
1513.76081	47330.6125
1517.13816	46164.5125
1520.51324	43882.4125
1523.88607	41928.9125
1527.25665	40851.3125
1530.62498	40462.5125
1533.99105	40193.4125
1537.35488	39632.0125
1540.71647	38884.5125
1544.07581	38129.8125
1547.4329	37357.1125
1550.78776	36628.4125
1554.14038	36074.7125
1557.49077	35714.6125
1560.83892	35660.6125
1564.18484	35753.8125
1567.52853	36059.9125
1570.86999	36471.7125
1574.20922	37052.7125
1577.54624	37361.7125
1580.88103	37199.2125
1584.2136	37103.8125
1587.54395	38020.6125
1590.87208	40233.3125
1594.19801	43277.5125
1597.52172	46379.2125
1600.84321	47680.0125
1604.16251	45860.0125
1607.47959	42025.2125
1610.79447	37868.7125
1614.10715	34382.5125
1617.41763	31942.5125
1620.7259	30548.9125
1624.03199	30067.0125
1627.33587	30252.6125
1630.63757	31221.3125
1633.93707	33105.5125
1637.23439	36238.0125
1640.52951	41024.6125
1643.82246	47059.9125
1647.11321	52135.4125
1650.40179	53158.4125
1653.68819	49139.4125
1656.97241	42308.1125
1660.25446	36078.5125
1663.53433	31830.1125
1666.81203	29320.6125
1670.08756	27813.9125
1673.36092	26823.8125
1676.63211	26156.4125
1679.90115	25699.4125
1683.16801	25359.9125
1686.43272	25132.0125
1689.69527	25050.1125
1692.95567	25118.7125
1696.2139	25431.7125
1699.46999	25730.5125
1702.72392	25676.5125
1705.97571	25346.9125
1709.22535	24917.4125
1712.47284	24733.9125
1715.71819	24589.5125
1718.96139	24481.0125
1722.20246	24412.9125
1725.44139	24285.1125
1728.67818	24157.9125
1731.91284	24040.0125
1735.14537	23935.3125
1738.37576	23831.2125
1741.60403	23799.7125
1744.83017	23748.5125
1748.05418	23789.7125
1751.27607	23843.8125
1754.49584	24019.3125
1757.71349	24196.7125
1760.92903	24344.7125
1764.14244	24259.7125
1767.35375	24273.8125
1770.56294	24259.7125
1773.77002	24155.3125
1776.97499	23922.8125
1780.17785	23682.3125
1783.37861	23513.5125
1786.57727	23404.3125
1789.77382	23294.7125
1792.96828	23276.6125
1796.16064	23222.2125
1799.3509	23193.3125
1802.53907	23146.3125
1805.72514	23125.7125
1808.90913	23029.3125
1812.09102	23007.1125
1815.27083	22976.5125
1818.44856	22936.3125
1821.6242	22890.7125
1824.79776	22858.7125
1827.96924	22884.1125
1831.13864	22863.2125
1834.30597	22830.4125
1837.47122	22802.1125
1840.6344	22755.7125
1843.7955	22748.7125
1846.95454	22788.9125
1850.11151	22787.5125
1853.26642	22770.0125
1856.41926	22770.3125
1859.57004	22761.5125
1862.71876	22759.6125
1865.86542	22713.3125
1869.01003	22688.5125
1872.15258	22672.1125
1875.29308	22692.7125
1878.43152	22652.2125
1881.56792	22637.8125
1884.70227	22684.0125
1887.83457	22664.0125
1890.96482	22640.1125
1894.09304	22604.0125
1897.21921	22589.7125
1900.34335	22553.8125
1903.46544	22539.9125
1906.58551	22581.2125
1909.70353	22570.2125
1912.81953	22546.9125
1915.93349	22531.7125
1919.04543	22475.5125
1922.15534	22427.9125
1925.26322	22397.0125
1928.36908	22390.5125
1931.47292	22374.9125
1934.57473	22263.7125
1937.67453	22215.5125
1940.77232	22211.3125
1943.86808	22132.6125
1946.96184	22064.7125
1950.05358	22009.7125
1953.14331	21994.8125
1956.23103	21949.5125
1959.31675	21866.9125
1962.40046	21822.9125
1965.48217	21716.8125
1968.56188	21703.7125
1971.63959	21640.5125
1974.7153	21588.0125
1977.78901	21543.8125
1980.86073	21493.8125
1983.93046	21405.2125
1986.99819	21372.6125
1990.06394	21366.1125
1993.1277	21287.1125
1996.18947	21178.4125
1999.24925	21170.3125
2002.30706	21134.9125
2005.36288	21072.3125
2008.41672	20998.3125
2011.46859	20964.3125
2014.51848	20908.3125
2017.56639	20826.0125
2020.61233	20792.0125
2023.6563	20712.0125
2026.6983	20688.2125
2029.73833	20658.7125
2032.7764	20633.6125
2035.8125	20564.0125
2038.84664	20578.4125
2041.87881	20573.3125
2044.90903	20533.0125
2047.93729	20479.1125
2050.96359	20501.5125
2053.98794	20492.1125
2057.01034	20501.7125
2060.03078	20486.6125
2063.04927	20477.3125
2066.06582	20495.8125
2069.08042	20452.7125
2072.09307	20423.8125
2075.10378	20377.7125
2078.11255	20357.9125
2081.11938	20398.4125
2084.12426	20379.3125
2087.12722	20376.7125
2090.12824	20346.3125
2093.12732	20379.8125
2096.12447	20396.6125
2099.11969	20345.8125
2102.11299	20356.2125
2105.10435	20420.1125
2108.09379	20405.2125
2111.08131	20432.0125
2114.0669	20407.1125
2117.05057	20430.2125
2120.03233	20416.7125
2123.01216	20435.1125
2125.99008	20485.2125
2128.96609	20507.1125
2131.94018	20567.9125
2134.91236	20578.3125
2137.88263	20611.1125
2140.851	20595.0125
2143.81746	20639.6125
2146.78201	20651.0125
2149.74466	20665.8125
2152.7054	20652.2125
2155.66425	20642.6125
2158.6212	20657.2125
2161.57625	20631.7125
2164.52941	20655.8125
2167.48067	20608.7125
2170.43004	20628.4125
2173.37752	20626.2125
2176.32311	20636.6125
2179.26681	20632.9125
2182.20863	20658.3125
2185.14856	20689.2125
2188.08661	20729.2125
2191.02278	20680.5125
2193.95707	20674.0125
2196.88948	20649.9125
2199.82001	20678.1125
2202.74867	20645.1125
2205.67545	20638.6125
2208.60037	20594.1125
2211.52341	20560.1125
2214.44458	20551.8125
2217.36388	20536.9125
2220.28132	20556.2125
2223.1969	20459.0125
2226.11061	20420.6125
2229.02246	20354.5125
2231.93245	20358.8125
2234.84058	20352.2125
2237.74686	20336.1125
2240.65128	20325.1125
2243.55385	20269.6125
2246.45456	20272.7125
2249.35343	20231.3125
2252.25044	20215.0125
2255.14561	20180.7125
2258.03893	20232.5125
2260.93041	20230.9125
2263.82004	20166.8125
2266.70783	20100.8125
2269.59378	20018.0125
2272.4779	19970.4125
2275.36017	19929.8125
2278.24061	19880.7125
2281.11922	19864.1125
2283.996	19875.0125
2286.87094	19824.3125
2289.74405	19799.3125
2292.61534	19767.6125
2295.4848	19765.2125
2298.35243	19796.0125
2301.21824	19750.0125
2304.08223	19779.7125
2306.94439	19752.7125
2309.80474	19758.5125
2312.66327	19779.6125
2315.51999	19767.9125
2318.37489	19738.6125
2321.22797	19705.0125
2324.07925	19745.3125
2326.92871	19701.3125
2329.77637	19674.4125
2332.62222	19642.7125
2335.46626	19663.3125
2338.3085	19621.9125
2341.14893	19621.3125
2343.98756	19630.7125
2346.8244	19621.8125
2349.65943	19637.1125
2352.49267	19607.0125
2355.32411	19616.4125
2358.15376	19641.9125
2360.98161	19607.6125
2363.80768	19598.9125
2366.63195	19545.0125
2369.45444	19506.3125
2372.27514	19546.8125
2375.09405	19492.7125
2377.91118	19441.7125
2380.72652	19397.9125
2383.54009	19387.8125
2386.35187	19348.1125
2389.16188	19293.7125
2391.97011	19268.1125
2394.77657	19238.9125
2397.58125	19261.0125
2400.38416	19183.8125
2403.18529	19175.9125
2405.98466	19185.3125
2408.78226	19100.2125
2411.57809	19125.5125
2414.37216	19062.8125
2417.16446	19059.9125
2419.955	19070.6125
2422.74378	19026.0125
2425.5308	19030.6125
2428.31606	19047.2125
2431.09956	19019.2125
2433.88131	19039.6125
2436.6613	19069.6125
2439.43954	19020.4125
2442.21603	19012.3125
2444.99077	18996.2125
2447.76377	18990.7125
2450.53501	18959.2125
2453.30451	18972.9125
2456.07226	18947.2125
2458.83827	18924.4125
2461.60254	18928.9125
2464.36507	18930.6125
2467.12586	18919.9125
2469.88492	18917.5125
2472.64224	18957.2125
2475.39782	19023.1125
2478.15167	19044.3125
2480.90379	18978.8125
2483.65417	18994.3125
2486.40283	18985.8125
2489.14976	18956.4125
2491.89497	18921.8125
2494.63845	19051.0125
2497.3802	19039.3125
2500.12024	18980.3125
2502.85855	18980.5125
2505.59514	18949.9125
2508.33002	18908.8125
2511.06318	18860.8125
2513.79462	18846.2125
2516.52435	18837.7125
2519.25237	18804.4125
2521.97867	18784.9125
2524.70327	18772.9125
2527.42616	18730.0125
2530.14734	18742.1125
2532.86681	18740.8125
2535.58458	18700.2125
2538.30065	18722.6125
2541.01501	18723.8125
2543.72768	18760.5125
2546.43864	18687.7125
2549.14791	18663.8125
2551.85548	18672.1125
2554.56136	18617.4125
2557.26554	18595.5125
2559.96803	18569.3125
2562.66883	18528.6125
2565.36794	18528.0125
2568.06536	18565.0125
2570.7611	18526.4125
2573.45514	18510.9125
2576.14751	18463.6125
2578.83819	18441.5125
2581.52719	18479.0125
2584.21451	18404.8125
2586.90015	18424.1125
2589.58411	18366.3125
2592.2664	18375.6125
2594.94701	18372.5125
2597.62594	18358.4125
2600.30321	18334.2125
2602.9788	18365.1125
2605.65273	18319.9125
2608.32498	18327.0125
2610.99557	18303.5125
2613.66449	18355.9125
2616.33175	18318.1125
2618.99734	18268.9125
2621.66128	18233.7125
2624.32355	18214.9125
2626.98416	18218.3125
2629.64311	18185.2125
2632.30041	18164.3125
2634.95605	18175.9125
2637.61004	18144.0125
2640.26238	18171.3125
2642.91306	18119.4125
2645.56209	18120.3125
2648.20948	18138.0125
2650.85521	18096.5125
2653.4993	18127.1125
2656.14175	18154.0125
2658.78255	18131.0125
2661.42171	18163.8125
2664.05923	18157.7125
2666.6951	18192.6125
2669.32934	18173.3125
2671.96194	18203.9125
2674.59291	18197.2125
2677.22224	18217.7125
2679.84993	18193.3125
2682.476	18182.6125
2685.10043	18165.3125
2687.72324	18131.2125
2690.34441	18168.6125
2692.96396	18160.2125
2695.58188	18206.2125
2698.19818	18126.4125
2700.81285	18179.7125
2703.4259	18302.1125
2706.03733	18691.6125
2708.64714	18407.2125
2711.25533	18315.7125
2713.86191	18291.8125
2716.46687	18298.5125
2719.07021	18278.6125
2721.67194	18260.3125
2724.27206	18241.1125
2726.87057	18256.2125
2729.46747	18223.0125
2732.06276	18236.4125
2734.65644	18246.3125
2737.24852	18233.0125
2739.83899	18220.8125
2742.42786	18235.2125
2745.01513	18208.3125
2747.60079	18196.7125
2750.18486	18171.1125
2752.76733	18190.2125
2755.3482	18159.8125
2757.92747	18115.9125
2760.50515	18111.4125
2763.08123	18090.9125
2765.65573	18086.6125
2768.22863	18037.1125
2770.79994	18068.4125
2773.36967	18046.9125
2775.9378	18091.8125
2778.50435	18080.5125
2781.06932	18071.2125
2783.6327	18085.3125
2786.1945	18041.6125
2788.75471	18040.0125
2791.31335	17957.9125
2793.87041	17968.2125
2796.42589	17903.7125
2798.97979	17913.4125
2801.53212	17836.9125
2804.08288	17824.2125
2806.63206	17816.5125
2809.17967	17761.5125
2811.72571	17712.8125
2814.27018	17676.6125
2816.81308	17614.8125
2819.35442	17626.6125
2821.89419	17583.9125
2824.43239	17573.5125
2826.96904	17594.6125
2829.50412	17587.0125
2832.03763	17548.6125
2834.56959	17545.2125
2837.1	17531.5125
2839.62884	17511.1125
2842.15613	17478.6125
2844.68186	17520.6125
2847.20604	17494.9125
2849.72867	17514.5125
2852.24974	17480.0125
2854.76927	17554.6125
2857.28724	17599.9125
2859.80367	17510.1125
2862.31855	17438.7125
2864.83189	17444.0125
2867.34368	17396.4125
2869.85393	17377.9125
2872.36264	17324.0125
2874.8698	17311.1125
2877.37543	17276.0125
2879.87952	17285.3125
2882.38207	17297.9125
2884.88308	17257.1125
2887.38256	17293.8125
2889.88051	17277.7125
2892.37692	17272.4125
2894.8718	17303.2125
2897.36515	17324.1125
2899.85698	17311.6125
2902.34727	17319.4125
2904.83604	17309.6125
2907.32328	17356.5125
2909.809	17391.2125
2912.29319	17411.0125
2914.77587	17396.7125
2917.25702	17386.2125
2919.73665	17385.9125
2922.21476	17390.3125
2924.69136	17326.2125
2927.16644	17339.2125
2929.64	17309.3125
2932.11205	17285.0125
2934.58258	17230.5125
2937.05161	17313.8125
2939.51912	17281.3125
2941.98513	17257.4125
2944.44962	17226.6125
2946.91261	17181.5125
2949.37409	17211.9125
2951.83407	17184.3125
2954.29254	17164.6125
2956.74951	17213.1125
2959.20498	17255.2125
2961.65895	17236.2125
2964.11142	17200.3125
2966.56239	17188.5125
2969.01186	17160.4125
2971.45984	17118.1125
2973.90632	17074.9125
2976.35131	17072.7125
2978.7948	17012.9125
2981.23681	17001.9125
2983.67732	16968.8125
2986.11635	16925.5125
2988.55388	16894.1125
2990.98993	16876.4125
2993.4245	16850.3125
2995.85758	16795.7125
2998.28917	16759.5125
3000.71928	16696.8125
3003.14791	16695.1125
3005.57506	16703.7125
3008.00073	16652.2125
3010.42493	16640.4125
3012.84764	16599.6125
3015.26888	16613.3125
3017.68865	16581.3125
3020.10694	16540.1125
3022.52376	16534.4125
3024.9391	16501.7125
