Data from AgNPs_FTO_APTES_UA_20uM_CRN_500uM_R6G_10uM_NaF_0.1M_Addition_RamanShift__22__18-57-44-985.txt Node

Date: Thu Feb 17 18:57:44 GMT 2022
User: TCL
Spectrometer: QEP01345
Trigger mode: 4
Integration Time (sec): 1.000000E1
Scans to average: 7
Electric dark correction enabled: true
Nonlinearity correction enabled: false
Boxcar width: 0
XAxis mode: Raman Shifts
Number of Pixels in Spectrum: 1044
>>>>>Begin Spectral Data<<<<<
46.04893	0.07143
50.45542	-1.35714
54.85868	-0.21429
59.25871	-2.07143
63.6555	74.07143
68.04907	73.07143
72.43941	80.07143
76.82654	85.5
81.21044	87.92857
85.59113	90.21429
89.96862	93.78571
94.34289	97.07143
98.71396	104.64286
103.08183	101.35714
107.4465	109.35714
111.80798	102.35714
116.16626	109.35714
120.52136	111.78571
124.87327	118.5
129.222	124.78571
133.56755	128.07143
137.90993	145.35714
142.24913	153.78571
146.58517	165.5
150.91804	200.92857
155.24774	231.07143
159.57429	283.78571
163.89768	362.21429
168.21792	486.35714
172.53501	660.07143
176.84895	919.5
181.15975	1300.07143
185.46741	1843.64286
189.77193	2549.64286
194.07331	3431.64286
198.37157	4432.07143
202.6667	5553.5
206.9587	6630.64286
211.24758	7695.35714
215.53334	8809.07143
219.81599	9938.5
224.09553	11194.5
228.37195	12595.21429
232.64527	14170.64286
236.91549	15756.5
241.18261	17376.35714
245.44663	18801.07143
249.70755	20052.5
253.96539	21171.07143
258.22014	22008.78571
262.4718	22767.35714
266.72039	23219.78571
270.96589	23449.78571
275.20832	23379.78571
279.44768	23090.07143
283.68397	22739.92857
287.91719	22421.92857
292.14735	22211.78571
296.37445	22238.35714
300.59849	22415.07143
304.81948	22733.64286
309.03742	22956.92857
313.25231	22937.21429
317.46415	22477.78571
321.67296	21838.92857
325.87872	21298.07143
330.08145	21056.5
334.28114	21116.92857
338.47781	21399.35714
342.67145	21712.21429
346.86207	22146.92857
351.04966	22731.78571
355.23424	23478.92857
359.4158	24088.64286
363.59435	24596.78571
367.76989	24866.21429
371.94243	25028.78571
376.11196	25098.64286
380.27849	25179.35714
384.44203	25227.78571
388.60257	25221.64286
392.76012	25238.35714
396.91468	25328.07143
401.06626	25716.78571
405.21485	25980.64286
409.36047	25872.07143
413.50311	25397.78571
417.64277	24948.07143
421.77947	24641.21429
425.9132	24564.64286
430.04396	24665.5
434.17176	24848.64286
438.2966	25164.64286
442.41849	25636.35714
446.53742	26286.35714
450.6534	26865.64286
454.76644	27372.35714
458.87653	27548.78571
462.98368	27354.64286
467.08789	27027.35714
471.18916	26658.35714
475.2875	26211.64286
479.38291	25904.07143
483.4754	25641.35714
487.56496	25409.78571
491.6516	25282.92857
495.73531	25204.64286
499.81612	25186.64286
503.89401	25369.92857
507.96899	25535.5
512.04106	25678.64286
516.11023	25774.92857
520.1765	25887.64286
524.23987	25945.5
528.30034	25874.78571
532.35792	25847.5
536.41261	25698.21429
540.46441	25491.07143
544.51333	25334.07143
548.55936	25374.07143
552.60252	25594.64286
556.64279	25859.64286
560.6802	26083.21429
564.71473	26270.21429
568.7464	26482.07143
572.7752	26728.21429
576.80114	26617.21429
580.82422	26431.07143
584.84444	26485.35714
588.86181	26893.35714
592.87633	27516.64286
596.888	27938.21429
600.89682	28144.07143
604.9028	29086.07143
608.90594	32335.92857
612.90624	36462.35714
616.90371	35379.07143
620.89834	29690.07143
624.89015	26849.64286
628.87913	26298.07143
632.86528	26409.78571
636.84862	26472.5
640.82913	26311.92857
644.80683	25746.78571
648.78172	25298.78571
652.75379	25293.5
656.72306	25698.78571
660.68952	26258.78571
664.65319	26157.5
668.61405	25691.35714
672.57211	25681.07143
676.52738	25828.07143
680.47986	25900.92857
684.42955	25768.78571
688.37646	25590.35714
692.32058	25510.07143
696.26192	25604.92857
700.20048	25805.92857
704.13626	25869.64286
708.06928	25735.92857
711.99952	25576.78571
715.927	25422.64286
719.85171	25440.5
723.77365	25523.21429
727.69284	25423.5
731.60928	25351.64286
735.52295	25394.07143
739.43388	25397.78571
743.34206	25460.64286
747.24749	25478.5
751.15017	25501.5
755.05012	25685.07143
758.94733	26140.92857
762.8418	27245.78571
766.73354	29184.35714
770.62254	31367.64286
774.50882	32475.64286
778.39237	31733.78571
782.27321	29503.64286
786.15132	27350.92857
790.02671	25994.64286
793.89938	25370.5
797.76935	25108.21429
801.6366	25055.21429
805.50115	24975.92857
809.36299	24851.5
813.22213	24820.21429
817.07857	24745.78571
820.93231	24654.07143
824.78336	24633.64286
828.63172	24678.92857
832.47738	24695.07143
836.32036	24702.21429
840.16066	24725.5
843.99827	24729.5
847.8332	24802.07143
851.66546	24679.64286
855.49504	24752.35714
859.32195	24842.92857
863.1462	24878.78571
866.96777	24867.78571
870.78668	24813.5
874.60293	24865.92857
878.41652	24826.78571
882.22745	24886.64286
886.03573	24919.07143
889.84136	24921.21429
893.64433	24818.92857
897.44466	24690.21429
901.24235	24633.78571
905.0374	24545.35714
908.8298	24388.5
912.61957	24319.07143
916.40671	24419.21429
920.19121	24539.5
923.97308	24714.78571
927.75233	24853.35714
931.52895	24967.5
935.30295	24903.35714
939.07433	24599.64286
942.84309	24351.21429
946.60924	24079.07143
950.37278	24008.07143
954.13371	23855.07143
957.89203	23732.92857
961.64774	23682.64286
965.40086	23615.92857
969.15137	23534.07143
972.89929	23488.07143
976.64461	23472.21429
980.38733	23459.92857
984.12747	23562.07143
987.86502	23642.78571
991.59999	23857.5
995.33237	24176.64286
999.06217	24598.92857
1002.78939	25072.78571
1006.51404	25409.78571
1010.23611	25660.5
1013.95561	25777.92857
1017.67255	25863.07143
1021.38692	25730.35714
1025.09872	25542.5
1028.80796	25566.21429
1032.51465	25936.64286
1036.21877	26307.35714
1039.92035	26385.92857
1043.61937	26218.07143
1047.31584	25852.64286
1051.00976	25452.64286
1054.70114	25189.92857
1058.38998	25066.21429
1062.07627	25052.07143
1065.76003	25062.5
1069.44126	25111.21429
1073.11995	25144.21429
1076.79611	25287.5
1080.46974	25489.35714
1084.14085	25778.92857
1087.80943	25959.21429
1091.47549	26066.21429
1095.13903	25950.5
1098.80005	25620.78571
1102.45857	25392.5
1106.11456	25296.21429
1109.76805	25410.21429
1113.41903	25669.5
1117.06751	26024.5
1120.71348	26464.78571
1124.35696	26844.64286
1127.99793	27270.21429
1131.63641	27319.21429
1135.2724	26927.21429
1138.90589	26414.07143
1142.5369	26085.07143
1146.16542	25839.78571
1149.79145	25635.21429
1153.415	25572.78571
1157.03607	25672.92857
1160.65467	25979.21429
1164.27079	26517.5
1167.88443	27338.5
1171.49561	28495.5
1175.10432	30142.07143
1178.71056	32390.5
1182.31434	34428.92857
1185.91565	35437.07143
1189.51451	35079.78571
1193.11091	33800.07143
1196.70485	32349.78571
1200.29634	31212.64286
1203.88538	30344.35714
1207.47197	29477.92857
1211.05612	28606.21429
1214.63782	28121.21429
1218.21708	27997.64286
1221.79391	27994.92857
1225.36829	28155.35714
1228.94024	28038.78571
1232.50976	27636.35714
1236.07685	27363.5
1239.6415	27219.35714
1243.20374	27305.21429
1246.76355	27447.21429
1250.32093	27757.5
1253.8759	28096.5
1257.42845	28606.07143
1260.97859	29106.21429
1264.52631	29592.07143
1268.07163	30074.92857
1271.61453	30633.78571
1275.15503	31213.35714
1278.69312	31662.92857
1282.22882	32137.92857
1285.76211	32531.64286
1289.29301	33128.21429
1292.82151	33764.35714
1296.34761	34652.92857
1299.87133	35962.78571
1303.39266	37911.78571
1306.9116	40578.92857
1310.42815	43267.5
1313.94233	44760.64286
1317.45412	44101.5
1320.96354	42144.5
1324.47058	40095.78571
1327.97525	38284.5
1331.47754	37151.07143
1334.97747	36747.21429
1338.47502	36924.07143
1341.97022	37494.35714
1345.46305	38193.21429
1348.95352	39063.35714
1352.44163	40439.5
1355.92738	42476.78571
1359.41078	45564.35714
1362.89183	48427.5
1366.37053	47569.21429
1369.84688	42571.92857
1373.32088	37414.07143
1376.79254	34111.92857
1380.26186	32436.21429
1383.72883	31600.92857
1387.19347	31081.07143
1390.65578	30516.92857
1394.11575	30079.07143
1397.57339	30025.35714
1401.0287	30323.07143
1404.48168	30729.92857
1407.93234	31081.92857
1411.38068	31329.92857
1414.82669	31313.64286
1418.27039	31070.64286
1421.71177	30549.64286
1425.15083	29977.92857
1428.58758	29666.07143
1432.02203	29692.5
1435.45416	29923.78571
1438.88399	30252.07143
1442.31151	30370.5
1445.73673	30490.5
1449.15965	30593.64286
1452.58027	30619.35714
1455.9986	30494.21429
1459.41463	30392.64286
1462.82837	30594.64286
1466.23982	31084.35714
1469.64898	31687.92857
1473.05586	32168.5
1476.46045	32431.78571
1479.86276	32583.64286
1483.26279	32709.07143
1486.66054	32912.5
1490.05602	33159.5
1493.44922	33650.78571
1496.84016	34229.35714
1500.22882	35311.5
1503.61521	37124.07143
1506.99934	39512.78571
1510.38121	41475.35714
1513.76081	41728.21429
1517.13816	39939.35714
1520.51324	37058.64286
1523.88607	34540.21429
1527.25665	32854.35714
1530.62498	32026.21429
1533.99105	31581.64286
1537.35488	31419.92857
1540.71647	31284.64286
1544.07581	31210.35714
1547.4329	31074.07143
1550.78776	30987.92857
1554.14038	30821.78571
1557.49077	30777.35714
1560.83892	30903.21429
1564.18484	31040.35714
1567.52853	31284.21429
1570.86999	31540.92857
1574.20922	31760.07143
1577.54624	31703.07143
1580.88103	31152.07143
1584.2136	30446.78571
1587.54395	30238.07143
1590.87208	30880.64286
1594.19801	32327.07143
1597.52172	34152.5
1600.84321	35257.64286
1604.16251	34788.92857
1607.47959	33224.07143
1610.79447	31264.35714
1614.10715	29419.21429
1617.41763	27922.78571
1620.7259	26889.21429
1624.03199	26354.78571
1627.33587	26283.64286
1630.63757	26624.64286
1633.93707	27525.21429
1637.23439	28919.64286
1640.52951	30896.78571
1643.82246	33506.78571
1647.11321	35966.92857
1650.40179	37014.07143
1653.68819	35512.78571
1656.97241	32161.5
1660.25446	28759.64286
1663.53433	26320.21429
1666.81203	24865.35714
1670.08756	23947.78571
1673.36092	23405.21429
1676.63211	22983.07143
1679.90115	22700.35714
1683.16801	22434.07143
1686.43272	22271.07143
1689.69527	22138.35714
1692.95567	22004.64286
1696.2139	21944.35714
1699.46999	21872.07143
1702.72392	21851.92857
1705.97571	21791.35714
1709.22535	21763.92857
1712.47284	21751.21429
1715.71819	21733.21429
1718.96139	21648.07143
1722.20246	21595.64286
1725.44139	21522.35714
1728.67818	21444.07143
1731.91284	21344.5
1735.14537	21288.07143
1738.37576	21283.78571
1741.60403	21172.5
1744.83017	21128.64286
1748.05418	21129.21429
1751.27607	21121.5
1754.49584	21064.92857
1757.71349	21013.5
1760.92903	21008.92857
1764.14244	20969.78571
1767.35375	20919.78571
1770.56294	20874.07143
1773.77002	20846.35714
1776.97499	20767.21429
1780.17785	20733.07143
1783.37861	20745.64286
1786.57727	20664.78571
1789.77382	20580.35714
1792.96828	20574.5
1796.16064	20526.07143
1799.3509	20497.5
1802.53907	20474.92857
1805.72514	20389.07143
1808.90913	20319.78571
1812.09102	20291.78571
1815.27083	20267.07143
1818.44856	20265.92857
1821.6242	20246.21429
1824.79776	20232.64286
1827.96924	20212.35714
1831.13864	20125.64286
1834.30597	20133.07143
1837.47122	20117.35714
1840.6344	20104.92857
1843.7955	20097.35714
1846.95454	20068.5
1850.11151	20045.78571
1853.26642	20033.92857
1856.41926	20003.07143
1859.57004	20042.78571
1862.71876	19991.21429
1865.86542	20018.5
1869.01003	20012.92857
1872.15258	20000.35714
1875.29308	19992.92857
1878.43152	19989.78571
1881.56792	19990.5
1884.70227	19947.64286
1887.83457	19916.78571
1890.96482	19882.5
1894.09304	19900.92857
1897.21921	19834.35714
1900.34335	19858.35714
1903.46544	19853.5
1906.58551	19813.92857
1909.70353	19760.07143
1912.81953	19764.07143
1915.93349	19703.07143
1919.04543	19693.07143
1922.15534	19670.78571
1925.26322	19656.07143
1928.36908	19639.78571
1931.47292	19592.21429
1934.57473	19573.78571
1937.67453	19540.64286
1940.77232	19441.5
1943.86808	19426.07143
1946.96184	19333.5
1950.05358	19335.5
1953.14331	19299.07143
1956.23103	19244.21429
1959.31675	19191.78571
1962.40046	19113.21429
1965.48217	19061.92857
1968.56188	19022.07143
1971.63959	18954.35714
1974.7153	18919.35714
1977.78901	18920.92857
1980.86073	18798.21429
1983.93046	18768.35714
1986.99819	18698.5
1990.06394	18646.35714
1993.1277	18616.92857
1996.18947	18510.5
1999.24925	18478.07143
2002.30706	18402.35714
2005.36288	18362.35714
2008.41672	18290.07143
2011.46859	18290.78571
2014.51848	18221.35714
2017.56639	18143.92857
2020.61233	18096.92857
2023.6563	18088.78571
2026.6983	17990.07143
2029.73833	18007.64286
2032.7764	17958.21429
2035.8125	17917.92857
2038.84664	17911.35714
2041.87881	17870.21429
2044.90903	17845.5
2047.93729	17808.64286
2050.96359	17786.92857
2053.98794	17755.64286
2057.01034	17777.92857
2060.03078	17732.92857
2063.04927	17730.21429
2066.06582	17714.35714
2069.08042	17705.92857
2072.09307	17652.64286
2075.10378	17677.64286
2078.11255	17683.21429
2081.11938	17669.92857
2084.12426	17662.78571
2087.12722	17652.5
2090.12824	17633.64286
2093.12732	17642.5
2096.12447	17656.21429
2099.11969	17626.07143
2102.11299	17643.64286
2105.10435	17641.64286
2108.09379	17618.92857
2111.08131	17694.78571
2114.0669	17644.92857
2117.05057	17685.64286
2120.03233	17710.07143
2123.01216	17712.21429
2125.99008	17792.5
2128.96609	17788.35714
2131.94018	17806.78571
2134.91236	17802.64286
2137.88263	17804.5
2140.851	17782.21429
2143.81746	17780.21429
2146.78201	17793.92857
2149.74466	17845.92857
2152.7054	17831.35714
2155.66425	17803.5
2158.6212	17806.35714
2161.57625	17781.92857
2164.52941	17763.21429
2167.48067	17751.5
2170.43004	17767.5
2173.37752	17767.78571
2176.32311	17788.78571
2179.26681	17814.21429
2182.20863	17769.21429
2185.14856	17826.92857
2188.08661	17791.92857
2191.02278	17783.5
2193.95707	17785.35714
2196.88948	17786.21429
2199.82001	17736.21429
2202.74867	17756.35714
2205.67545	17712.64286
2208.60037	17722.78571
2211.52341	17666.64286
2214.44458	17654.78571
2217.36388	17630.35714
2220.28132	17620.21429
2223.1969	17566.35714
2226.11061	17573.35714
2229.02246	17500.92857
2231.93245	17488.5
2234.84058	17415.35714
2237.74686	17400.64286
2240.65128	17451.92857
2243.55385	17408.5
2246.45456	17385.5
2249.35343	17345.21429
2252.25044	17312.64286
2255.14561	17332.64286
2258.03893	17314.07143
2260.93041	17255.07143
2263.82004	17244.92857
2266.70783	17200.5
2269.59378	17112.92857
2272.4779	17106.21429
2275.36017	17072.78571
2278.24061	17012.5
2281.11922	16987.92857
2283.996	16990.35714
2286.87094	16957.64286
2289.74405	16936.21429
2292.61534	16907.35714
2295.4848	16922.92857
2298.35243	16941.35714
2301.21824	16904.35714
2304.08223	16891.07143
2306.94439	16875.07143
2309.80474	16857.78571
2312.66327	16870.78571
2315.51999	16879.35714
2318.37489	16878.21429
2321.22797	16823.92857
2324.07925	16820.64286
2326.92871	16778.35714
2329.77637	16778.92857
2332.62222	16751.21429
2335.46626	16754.35714
2338.3085	16766.07143
2341.14893	16739.92857
2343.98756	16763.07143
2346.8244	16746.64286
2349.65943	16750.92857
2352.49267	16696.35714
2355.32411	16710.78571
2358.15376	16684.92857
2360.98161	16695.21429
2363.80768	16692.35714
2366.63195	16654.07143
2369.45444	16617.78571
2372.27514	16564.64286
2375.09405	16566.35714
2377.91118	16546.78571
2380.72652	16491.21429
2383.54009	16471.35714
2386.35187	16411.64286
2389.16188	16356.21429
2391.97011	16346.78571
2394.77657	16330.92857
2397.58125	16339.78571
2400.38416	16315.64286
2403.18529	16293.07143
2405.98466	16262.78571
2408.78226	16187.92857
2411.57809	16170.07143
2414.37216	16151.35714
2417.16446	16112.5
2419.955	16096.07143
2422.74378	16114.78571
2425.5308	16080.64286
2428.31606	16109.78571
2431.09956	16111.64286
2433.88131	16088.07143
2436.6613	16048.5
2439.43954	16049.64286
2442.21603	16027.35714
2444.99077	16061.21429
2447.76377	16038.35714
2450.53501	15984.07143
2453.30451	16005.64286
2456.07226	15977.5
2458.83827	15971.78571
2461.60254	15946.78571
2464.36507	15940.78571
2467.12586	15936.64286
2469.88492	15918.64286
2472.64224	15905.64286
2475.39782	15902.78571
2478.15167	15930.92857
2480.90379	15917.07143
2483.65417	15959.35714
2486.40283	15944.92857
2489.14976	15937.5
2491.89497	15963.35714
2494.63845	15945.07143
2497.3802	15933.78571
2500.12024	15982.5
2502.85855	15886.35714
2505.59514	15881.78571
2508.33002	15849.92857
2511.06318	15786.64286
2513.79462	15827.07143
2516.52435	15800.78571
2519.25237	15765.21429
2521.97867	15737.92857
2524.70327	15716.64286
2527.42616	15732.64286
2530.14734	15741.5
2532.86681	15697.64286
2535.58458	15695.92857
2538.30065	15643.21429
2541.01501	15637.35714
2543.72768	15591.92857
2546.43864	15580.92857
2549.14791	15589.64286
2551.85548	15575.92857
2554.56136	15545.5
2557.26554	15547.78571
2559.96803	15529.21429
2562.66883	15476.35714
2565.36794	15420.78571
2568.06536	15422.07143
2570.7611	15400.5
2573.45514	15383.35714
2576.14751	15345.21429
2578.83819	15355.21429
2581.52719	15339.35714
2584.21451	15353.5
2586.90015	15305.78571
2589.58411	15298.92857
2592.2664	15287.64286
2594.94701	15274.21429
2597.62594	15272.5
2600.30321	15197.78571
2602.9788	15243.35714
2605.65273	15165.64286
2608.32498	15168.35714
2610.99557	15204.92857
2613.66449	15194.07143
2616.33175	15184.21429
2618.99734	15180.07143
2621.66128	15159.07143
2624.32355	15130.21429
2626.98416	15134.78571
2629.64311	15137.35714
2632.30041	15137.64286
2634.95605	15091.21429
2637.61004	15045.92857
2640.26238	15050.92857
2642.91306	15030.78571
2645.56209	15050.5
2648.20948	15033.64286
2650.85521	15018.5
2653.4993	15002.5
2656.14175	14990.64286
2658.78255	15035.35714
2661.42171	15018.5
2664.05923	15025.5
2666.6951	15038.78571
2669.32934	15055.35714
2671.96194	15072.78571
2674.59291	15035.64286
2677.22224	15037.78571
2679.84993	15001.21429
2682.476	15015.64286
2685.10043	14998.92857
2687.72324	14981.92857
2690.34441	14983.64286
2692.96396	14978.21429
2695.58188	15023.07143
2698.19818	14968.35714
2700.81285	14974.07143
2703.4259	14954.21429
2706.03733	14999.78571
2708.64714	14987.35714
2711.25533	14979.07143
2713.86191	14994.78571
2716.46687	14992.5
2719.07021	15015.35714
2721.67194	14983.78571
2724.27206	14971.64286
2726.87057	15021.64286
2729.46747	15018.92857
2732.06276	15005.07143
2734.65644	14975.64286
2737.24852	15013.92857
2739.83899	14980.21429
2742.42786	14978.78571
2745.01513	14931.92857
2747.60079	14910.5
2750.18486	14908.21429
2752.76733	14892.78571
2755.3482	14908.5
2757.92747	14916.35714
2760.50515	14877.35714
2763.08123	14895.64286
2765.65573	14860.92857
2768.22863	14857.78571
2770.79994	14857.78571
2773.36967	14801.07143
2775.9378	14814.78571
2778.50435	14819.64286
2781.06932	14760.07143
2783.6327	14809.07143
2786.1945	14787.35714
2788.75471	14736.07143
2791.31335	14718.64286
2793.87041	14695.07143
2796.42589	14681.92857
2798.97979	14688.78571
2801.53212	14641.07143
2804.08288	14620.92857
2806.63206	14595.92857
2809.17967	14591.78571
2811.72571	14581.5
2814.27018	14570.35714
2816.81308	14535.64286
2819.35442	14473.64286
2821.89419	14485.5
2824.43239	14474.78571
2826.96904	14471.5
2829.50412	14461.35714
2832.03763	14441.64286
2834.56959	14440.64286
2837.1	14429.5
2839.62884	14394.64286
2842.15613	14398.64286
2844.68186	14412.21429
2847.20604	14379.64286
2849.72867	14349.21429
2852.24974	14364.5
2854.76927	14365.35714
2857.28724	14324.64286
2859.80367	14321.21429
2862.31855	14264.5
2864.83189	14275.64286
2867.34368	14264.78571
2869.85393	14283.21429
2872.36264	14259.07143
2874.8698	14283.35714
2877.37543	14233.92857
2879.87952	14294.35714
2882.38207	14270.21429
2884.88308	14248.64286
2887.38256	14241.64286
2889.88051	14280.64286
2892.37692	14301.5
2894.8718	14300.35714
2897.36515	14331.5
2899.85698	14346.78571
2902.34727	14364.21429
2904.83604	14381.21429
2907.32328	14394.64286
2909.809	14406.78571
2912.29319	14439.5
2914.77587	14450.35714
2917.25702	14463.5
2919.73665	14432.5
2922.21476	14430.35714
2924.69136	14457.07143
2927.16644	14431.35714
2929.64	14433.78571
2932.11205	14388.21429
2934.58258	14330.35714
2937.05161	14387.21429
2939.51912	14336.92857
2941.98513	14354.21429
2944.44962	14323.64286
2946.91261	14319.07143
2949.37409	14343.64286
2951.83407	14284.92857
2954.29254	14306.21429
2956.74951	14265.5
2959.20498	14258.78571
2961.65895	14256.21429
2964.11142	14194.07143
2966.56239	14192.64286
2969.01186	14164.64286
2971.45984	14149.07143
2973.90632	14111.64286
2976.35131	14059.07143
2978.7948	14057.35714
