Data from AgNPs_FTO_APTES_UA_20uM_CRN_10uM_R6G_10uM_NaF_0.1M_Addition_RamanShift__3__14-13-52-186.txt Node

Date: Thu Feb 17 14:13:52 GMT 2022
User: TCL
Spectrometer: QEP01345
Trigger mode: 4
Integration Time (sec): 7.000000E0
Scans to average: 10
Electric dark correction enabled: true
Nonlinearity correction enabled: false
Boxcar width: 0
XAxis mode: Raman Shifts
Number of Pixels in Spectrum: 1044
>>>>>Begin Spectral Data<<<<<
46.04893	-0.025
50.45542	-1.825
54.85868	-2.825
59.25871	-1.625
63.6555	117.775
68.04907	124.175
72.43941	130.375
76.82654	129.375
81.21044	132.375
85.59113	143.775
89.96862	145.475
94.34289	145.275
98.71396	150.675
103.08183	155.075
107.4465	158.375
111.80798	164.775
116.16626	171.975
120.52136	179.475
124.87327	185.175
129.222	201.475
133.56755	214.575
137.90993	230.575
142.24913	253.075
146.58517	295.175
150.91804	345.575
155.24774	409.875
159.57429	523.875
163.89768	667.075
168.21792	896.175
172.53501	1245.375
176.84895	1743.175
181.15975	2467.475
185.46741	3473.375
189.77193	4805.775
194.07331	6463.175
198.37157	8337.575
202.6667	10332.475
206.9587	12275.275
211.24758	14227.075
215.53334	16133.375
219.81599	18157.975
224.09553	20461.575
228.37195	22951.075
232.64527	25608.775
236.91549	28512.175
241.18261	31466.375
245.44663	34178.975
249.70755	36636.175
253.96539	38867.175
258.22014	40674.175
262.4718	42175.775
266.72039	43253.975
270.96589	43793.275
275.20832	43875.775
279.44768	43675.775
283.68397	43253.675
287.91719	42794.675
292.14735	42551.575
296.37445	42530.075
300.59849	42698.775
304.81948	42937.275
309.03742	43034.775
313.25231	42897.775
317.46415	42380.175
321.67296	41747.475
325.87872	41198.375
330.08145	40920.575
334.28114	40917.075
338.47781	41180.675
342.67145	41741.975
346.86207	42392.175
351.04966	43156.775
355.23424	43976.775
359.4158	44590.575
363.59435	45040.975
367.76989	45372.575
371.94243	45668.175
376.11196	45976.075
380.27849	46242.875
384.44203	46496.975
388.60257	46839.075
392.76012	47225.175
396.91468	47743.875
401.06626	48336.875
405.21485	48793.975
409.36047	48632.675
413.50311	48180.875
417.64277	47811.075
421.77947	47740.575
425.9132	47951.375
430.04396	48199.275
434.17176	48523.375
438.2966	48954.275
442.41849	49857.575
446.53742	51229.475
450.6534	52772.175
454.76644	53790.175
458.87653	54121.475
462.98368	53719.975
467.08789	52984.475
471.18916	52097.475
475.2875	51371.475
479.38291	50850.875
483.4754	50468.475
487.56496	50084.475
491.6516	49585.175
495.73531	49079.275
499.81612	48850.775
503.89401	49092.675
507.96899	49208.375
512.04106	49134.275
516.11023	49023.675
520.1765	48825.875
524.23987	48744.375
528.30034	48680.675
532.35792	48430.475
536.41261	47979.975
540.46441	47580.675
544.51333	47505.175
548.55936	47910.575
552.60252	48739.375
556.64279	49775.975
560.6802	50684.875
564.71473	51003.775
568.7464	51625.175
572.7752	52669.475
576.80114	53729.575
580.82422	54804.575
584.84444	56237.275
588.86181	58204.075
592.87633	60111.875
596.888	60211.175
600.89682	58329.375
604.9028	58043.775
608.90594	61038.675
612.90624	64541.375
616.90371	61308.875
620.89834	53741.675
624.89015	50293.875
628.87913	49821.975
632.86528	49943.675
636.84862	49786.875
640.82913	49193.475
644.80683	48340.775
648.78172	47732.875
652.75379	47737.575
656.72306	48343.575
660.68952	49079.075
664.65319	48861.375
668.61405	48150.675
672.57211	48102.975
676.52738	48306.675
680.47986	48345.975
684.42955	48023.975
688.37646	47864.075
692.32058	48277.775
696.26192	48911.875
700.20048	49508.875
704.13626	49912.875
708.06928	49859.075
711.99952	49598.475
715.927	49569.375
719.85171	49736.375
723.77365	49703.775
727.69284	49216.375
731.60928	48679.275
735.52295	48483.075
739.43388	48588.675
743.34206	48830.875
747.24749	49079.175
751.15017	49410.575
755.05012	50035.575
758.94733	51119.475
762.8418	52991.075
766.73354	55963.975
770.62254	58787.975
774.50882	59270.375
778.39237	57301.875
782.27321	54180.575
786.15132	51570.875
790.02671	50018.475
793.89938	49252.175
797.76935	48880.375
801.6366	48797.375
805.50115	48619.675
809.36299	48511.775
813.22213	48241.775
817.07857	48161.275
820.93231	48086.075
824.78336	47956.275
828.63172	47951.075
832.47738	47901.975
836.32036	47975.275
840.16066	48159.775
843.99827	48221.675
847.8332	48231.675
851.66546	48244.575
855.49504	48208.375
859.32195	48257.075
863.1462	48165.375
866.96777	48162.675
870.78668	48068.675
874.60293	48176.275
878.41652	48166.475
882.22745	48301.375
886.03573	48382.475
889.84136	48392.775
893.64433	48169.475
897.44466	48016.875
901.24235	47910.775
905.0374	47790.175
908.8298	47746.575
912.61957	47793.375
916.40671	48156.375
920.19121	48661.475
923.97308	49102.575
927.75233	49136.575
931.52895	48789.875
935.30295	48324.575
939.07433	47778.075
942.84309	47344.075
946.60924	47188.775
950.37278	47196.775
954.13371	47230.275
957.89203	47163.875
961.64774	47088.175
965.40086	46995.275
969.15137	46967.475
972.89929	46822.075
976.64461	46832.875
980.38733	46854.375
984.12747	46985.175
987.86502	47423.775
991.59999	47823.175
995.33237	48387.575
999.06217	49306.775
1002.78939	50385.575
1006.51404	51352.775
1010.23611	51999.275
1013.95561	52507.475
1017.67255	52630.275
1021.38692	52121.575
1025.09872	51496.375
1028.80796	51145.875
1032.51465	51695.975
1036.21877	52277.075
1039.92035	52451.975
1043.61937	52175.775
1047.31584	51702.575
1051.00976	51002.275
1054.70114	50683.975
1058.38998	50704.075
1062.07627	50901.075
1065.76003	51320.075
1069.44126	51876.075
1073.11995	52471.475
1076.79611	53065.175
1080.46974	53477.475
1084.14085	53940.175
1087.80943	54404.975
1091.47549	54713.675
1095.13903	54656.775
1098.80005	54075.875
1102.45857	53248.375
1106.11456	52774.575
1109.76805	52579.975
1113.41903	52703.875
1117.06751	52928.675
1120.71348	53284.075
1124.35696	53695.175
1127.99793	54001.975
1131.63641	54087.475
1135.2724	53910.975
1138.90589	53676.475
1142.5369	53708.975
1146.16542	53841.475
1149.79145	54219.975
1153.415	54608.975
1157.03607	55130.175
1160.65467	56264.075
1164.27079	58105.675
1167.88443	60478.375
1171.49561	63190.675
1175.10432	66733.275
1178.71056	71182.875
1182.31434	75459.675
1185.91565	77331.975
1189.51451	76568.375
1193.11091	74555.275
1196.70485	72090.375
1200.29634	69954.175
1203.88538	68413.475
1207.47197	67520.575
1211.05612	66579.075
1214.63782	65546.675
1218.21708	64625.975
1221.79391	63855.975
1225.36829	63409.975
1228.94024	62742.575
1232.50976	61765.075
1236.07685	60620.375
1239.6415	59989.375
1243.20374	59917.175
1246.76355	60325.075
1250.32093	61231.475
1253.8759	62254.975
1257.42845	63629.675
1260.97859	65055.175
1264.52631	66638.775
1268.07163	68280.475
1271.61453	69952.375
1275.15503	71541.575
1278.69312	73119.075
1282.22882	74689.875
1285.76211	76535.975
1289.29301	78817.675
1292.82151	81670.375
1296.34761	85162.675
1299.87133	89555.375
1303.39266	94597.475
1306.9116	99478.275
1310.42815	103751.775
1313.94233	106013.975
1317.45412	105466.875
1320.96354	103259.775
1324.47058	100889.775
1327.97525	98734.475
1331.47754	96949.375
1334.97747	95673.975
1338.47502	94865.275
1341.97022	94024.275
1345.46305	93142.675
1348.95352	92487.275
1352.44163	92813.275
1355.92738	94949.775
1359.41078	98870.575
1362.89183	102075.175
1366.37053	100568.175
1369.84688	93241.575
1373.32088	84207.675
1376.79254	78201.975
1380.26186	76089.275
1383.72883	76121.375
1387.19347	76259.075
1390.65578	75721.675
1394.11575	75411.775
1397.57339	75813.875
1401.0287	76672.175
1404.48168	77411.875
1407.93234	77394.275
1411.38068	76492.075
1414.82669	74757.775
1418.27039	72547.675
1421.71177	70266.475
1425.15083	68368.075
1428.58758	67556.375
1432.02203	68113.675
1435.45416	69618.975
1438.88399	71390.175
1442.31151	72660.275
1445.73673	73257.275
1449.15965	73517.975
1452.58027	73475.075
1455.9986	73216.275
1459.41463	73334.175
1462.82837	74224.475
1466.23982	75433.175
1469.64898	76658.075
1473.05586	77642.975
1476.46045	78033.975
1479.86276	77695.475
1483.26279	77125.975
1486.66054	76704.575
1490.05602	77023.475
1493.44922	77661.875
1496.84016	78347.375
1500.22882	79438.775
1503.61521	81404.975
1506.99934	83822.275
1510.38121	85546.375
1513.76081	85660.475
1517.13816	83639.075
1520.51324	80837.175
1523.88607	78773.375
1527.25665	78158.375
1530.62498	78237.075
1533.99105	78384.475
1537.35488	77848.875
1540.71647	76645.275
1544.07581	75146.575
1547.4329	73526.875
1550.78776	72036.175
1554.14038	71004.175
1557.49077	70331.775
1560.83892	70089.875
1564.18484	69930.775
1567.52853	70209.975
1570.86999	70861.475
1574.20922	71741.575
1577.54624	72500.275
1580.88103	72437.775
1584.2136	72838.975
1587.54395	74720.175
1590.87208	78266.375
1594.19801	82794.975
1597.52172	87241.675
1600.84321	88681.875
1604.16251	85397.075
1607.47959	79560.875
1610.79447	73192.675
1614.10715	67747.975
1617.41763	63524.275
1620.7259	60711.375
1624.03199	59392.475
1627.33587	59534.375
1630.63757	60919.475
1633.93707	64059.875
1637.23439	69415.775
1640.52951	77342.775
1643.82246	86506.375
1647.11321	93476.575
1650.40179	94080.875
1653.68819	87505.875
1656.97241	77019.975
1660.25446	67171.575
1663.53433	60288.275
1666.81203	55837.675
1670.08756	53178.475
1673.36092	51452.575
1676.63211	50263.075
1679.90115	49489.075
1683.16801	48882.875
1686.43272	48404.275
1689.69527	48147.675
1692.95567	47852.575
1696.2139	47694.675
1699.46999	47613.375
1702.72392	47533.075
1705.97571	47436.575
1709.22535	47394.975
1712.47284	47330.975
1715.71819	47309.475
1718.96139	47236.075
1722.20246	47107.575
1725.44139	46906.775
1728.67818	46769.175
1731.91284	46585.975
1735.14537	46378.075
1738.37576	46133.775
1741.60403	46054.575
1744.83017	45892.775
1748.05418	45806.575
1751.27607	45773.075
1754.49584	45740.475
1757.71349	45723.275
1760.92903	45731.575
1764.14244	45626.675
1767.35375	45553.475
1770.56294	45510.375
1773.77002	45502.175
1776.97499	45530.875
1780.17785	45407.075
1783.37861	45297.275
1786.57727	45252.175
1789.77382	45186.475
1792.96828	45202.175
1796.16064	45084.175
1799.3509	45062.275
1802.53907	44990.075
1805.72514	44870.575
1808.90913	44771.175
1812.09102	44679.275
1815.27083	44680.075
1818.44856	44635.775
1821.6242	44524.075
1824.79776	44530.675
1827.96924	44470.975
1831.13864	44444.075
1834.30597	44454.575
1837.47122	44348.475
1840.6344	44325.775
1843.7955	44328.575
1846.95454	44359.775
1850.11151	44334.775
1853.26642	44319.775
1856.41926	44320.175
1859.57004	44305.875
1862.71876	44237.875
1865.86542	44178.175
1869.01003	44145.775
1872.15258	44113.775
1875.29308	44104.475
1878.43152	44000.075
1881.56792	44007.175
1884.70227	44072.475
1887.83457	44097.475
1890.96482	44040.275
1894.09304	43976.075
1897.21921	43942.275
1900.34335	43801.375
1903.46544	43764.975
1906.58551	43788.375
1909.70353	43759.375
1912.81953	43723.075
1915.93349	43717.575
1919.04543	43560.475
1922.15534	43489.275
1925.26322	43465.775
1928.36908	43370.375
1931.47292	43343.975
1934.57473	43290.175
1937.67453	43176.475
1940.77232	43084.675
1943.86808	42973.575
1946.96184	42905.075
1950.05358	42727.175
1953.14331	42685.575
1956.23103	42571.075
1959.31675	42437.175
1962.40046	42377.075
1965.48217	42248.275
1968.56188	42101.675
1971.63959	42024.275
1974.7153	41853.775
1977.78901	41816.575
1980.86073	41697.675
1983.93046	41603.275
1986.99819	41479.075
1990.06394	41365.275
1993.1277	41251.175
1996.18947	41150.475
1999.24925	41097.675
2002.30706	41011.775
2005.36288	40871.275
2008.41672	40696.075
2011.46859	40611.075
2014.51848	40567.375
2017.56639	40442.775
2020.61233	40354.375
2023.6563	40283.275
2026.6983	40163.675
2029.73833	40068.375
2032.7764	39991.775
2035.8125	39972.075
2038.84664	39900.675
2041.87881	39864.675
2044.90903	39820.575
2047.93729	39806.975
2050.96359	39736.475
2053.98794	39711.275
2057.01034	39706.075
2060.03078	39730.775
2063.04927	39609.275
2066.06582	39593.975
2069.08042	39581.475
2072.09307	39521.675
2075.10378	39484.975
2078.11255	39479.975
2081.11938	39524.375
2084.12426	39495.675
2087.12722	39501.775
2090.12824	39462.575
2093.12732	39534.175
2096.12447	39524.375
2099.11969	39486.975
2102.11299	39486.875
2105.10435	39540.975
2108.09379	39584.575
2111.08131	39567.875
2114.0669	39542.975
2117.05057	39603.575
2120.03233	39672.275
2123.01216	39729.175
2125.99008	39744.575
2128.96609	39854.675
2131.94018	39846.975
2134.91236	39889.275
2137.88263	39980.775
2140.851	39948.975
2143.81746	39989.775
2146.78201	40057.775
2149.74466	40080.975
2152.7054	40051.275
2155.66425	40047.975
2158.6212	40099.075
2161.57625	40039.475
2164.52941	40033.575
2167.48067	40020.175
2170.43004	40012.875
2173.37752	39993.675
2176.32311	40022.375
2179.26681	39989.375
2182.20863	40053.975
2185.14856	40123.375
2188.08661	40121.875
2191.02278	40114.275
2193.95707	40063.875
2196.88948	40033.575
2199.82001	40060.475
2202.74867	40005.875
2205.67545	39938.075
2208.60037	39891.175
2211.52341	39883.375
2214.44458	39894.875
2217.36388	39784.775
2220.28132	39769.375
2223.1969	39675.175
2226.11061	39574.875
2229.02246	39501.975
2231.93245	39457.175
2234.84058	39376.075
2237.74686	39346.675
2240.65128	39339.475
2243.55385	39275.975
2246.45456	39318.775
2249.35343	39272.775
2252.25044	39196.775
2255.14561	39105.375
2258.03893	39090.675
2260.93041	39007.775
2263.82004	38924.475
2266.70783	38837.775
2269.59378	38772.975
2272.4779	38718.375
2275.36017	38645.675
2278.24061	38603.975
2281.11922	38493.575
2283.996	38451.275
2286.87094	38456.575
2289.74405	38433.575
2292.61534	38441.375
2295.4848	38333.975
2298.35243	38349.375
2301.21824	38368.275
2304.08223	38338.075
2306.94439	38370.475
2309.80474	38361.875
2312.66327	38387.775
2315.51999	38371.875
2318.37489	38298.375
2321.22797	38291.875
2324.07925	38272.375
2326.92871	38166.075
2329.77637	38156.975
2332.62222	38117.475
2335.46626	38073.275
2338.3085	38090.775
2341.14893	38067.175
2343.98756	38068.675
2346.8244	38018.975
2349.65943	38024.875
2352.49267	38038.675
2355.32411	38041.175
2358.15376	38002.175
2360.98161	38004.175
2363.80768	37962.275
2366.63195	37954.275
2369.45444	37898.075
2372.27514	37845.875
2375.09405	37806.175
2377.91118	37706.075
2380.72652	37683.475
2383.54009	37595.375
2386.35187	37569.175
2389.16188	37460.675
2391.97011	37398.075
2394.77657	37334.575
2397.58125	37327.575
2400.38416	37322.275
2403.18529	37240.875
2405.98466	37210.875
2408.78226	37109.575
2411.57809	37057.975
2414.37216	37052.275
2417.16446	37034.975
2419.955	36994.775
2422.74378	36967.175
2425.5308	36961.475
2428.31606	36976.675
2431.09956	36949.475
2433.88131	36910.275
2436.6613	36884.775
2439.43954	36884.875
2442.21603	36858.175
2444.99077	36832.175
2447.76377	36876.775
2450.53501	36788.175
2453.30451	36799.375
2456.07226	36735.875
2458.83827	36772.175
2461.60254	36753.675
2464.36507	36719.775
2467.12586	36715.375
2469.88492	36686.475
2472.64224	36745.275
2475.39782	36699.875
2478.15167	36785.875
2480.90379	36810.675
2483.65417	36790.975
2486.40283	36826.475
2489.14976	36768.775
2491.89497	36774.275
2494.63845	36860.175
2497.3802	36764.775
2500.12024	36764.275
2502.85855	36711.675
2505.59514	36731.675
2508.33002	36642.275
2511.06318	36622.775
2513.79462	36632.275
2516.52435	36575.075
2519.25237	36579.375
2521.97867	36580.175
2524.70327	36532.475
2527.42616	36489.075
2530.14734	36475.375
2532.86681	36487.475
2535.58458	36465.575
2538.30065	36435.675
2541.01501	36395.375
2543.72768	36378.675
2546.43864	36439.975
2549.14791	36334.675
2551.85548	36266.175
2554.56136	36187.175
2557.26554	36128.075
2559.96803	36077.575
2562.66883	36091.775
2565.36794	36055.375
2568.06536	36040.675
2570.7611	35972.075
2573.45514	35923.275
2576.14751	35875.375
2578.83819	35933.575
2581.52719	35888.875
2584.21451	35819.175
2586.90015	35832.175
2589.58411	35796.475
2592.2664	35739.775
2594.94701	35698.675
2597.62594	35685.075
2600.30321	35671.675
2602.9788	35655.775
2605.65273	35636.875
2608.32498	35662.275
2610.99557	35669.575
2613.66449	35698.375
2616.33175	35643.275
2618.99734	35645.175
2621.66128	35550.375
2624.32355	35526.075
2626.98416	35508.975
2629.64311	35442.975
2632.30041	35518.075
2634.95605	35417.475
2637.61004	35429.675
2640.26238	35344.475
2642.91306	35320.975
2645.56209	35309.575
2648.20948	35347.175
2650.85521	35315.675
2653.4993	35298.175
2656.14175	35282.575
2658.78255	35385.675
2661.42171	35393.675
2664.05923	35413.675
2666.6951	35427.475
2669.32934	35402.575
2671.96194	35393.975
2674.59291	35480.175
2677.22224	35475.775
2679.84993	35439.275
2682.476	35431.175
2685.10043	35381.675
2687.72324	35402.775
2690.34441	35404.975
2692.96396	35345.475
2695.58188	35377.475
2698.19818	35365.275
2700.81285	35306.375
2703.4259	35326.075
2706.03733	35421.575
2708.64714	35425.675
2711.25533	35422.175
2713.86191	35434.775
2716.46687	35542.475
2719.07021	35524.675
2721.67194	35522.775
2724.27206	35432.175
2726.87057	35512.175
2729.46747	35511.775
2732.06276	35547.275
2734.65644	35527.375
2737.24852	35556.675
2739.83899	35595.375
2742.42786	35608.875
2745.01513	35583.275
2747.60079	35559.175
2750.18486	35498.875
2752.76733	35455.975
2755.3482	35390.775
2757.92747	35388.975
2760.50515	35297.375
2763.08123	35343.775
2765.65573	35372.575
2768.22863	35355.375
2770.79994	35294.375
2773.36967	35324.575
2775.9378	35344.575
2778.50435	35355.975
2781.06932	35289.175
2783.6327	35252.575
2786.1945	35250.175
2788.75471	35213.875
2791.31335	35124.675
2793.87041	35113.675
2796.42589	35062.975
2798.97979	35034.675
2801.53212	34932.475
2804.08288	34913.675
2806.63206	34798.475
2809.17967	34701.275
2811.72571	34613.075
2814.27018	34510.475
2816.81308	34444.375
2819.35442	34393.875
2821.89419	34360.275
2824.43239	34381.075
2826.96904	34392.775
2829.50412	34386.875
2832.03763	34259.775
2834.56959	34267.975
2837.1	34204.175
2839.62884	34171.675
2842.15613	34084.675
2844.68186	34164.075
2847.20604	34055.975
2849.72867	34065.975
2852.24974	34014.175
2854.76927	33990.975
2857.28724	33983.775
2859.80367	33993.175
2862.31855	33946.475
2864.83189	33925.175
2867.34368	33812.275
2869.85393	33860.075
2872.36264	33834.075
2874.8698	33789.675
2877.37543	33746.175
2879.87952	33752.575
2882.38207	33672.575
2884.88308	33730.675
2887.38256	33753.075
2889.88051	33728.975
2892.37692	33755.375
2894.8718	33807.975
2897.36515	33851.775
2899.85698	33831.175
2902.34727	33879.475
2904.83604	33868.975
2907.32328	33960.175
2909.809	33939.875
2912.29319	33987.175
2914.77587	33963.175
2917.25702	33978.575
2919.73665	33984.575
2922.21476	33939.275
2924.69136	33896.575
2927.16644	33866.075
2929.64	33813.475
2932.11205	33785.075
2934.58258	33709.275
2937.05161	33801.175
2939.51912	33809.775
2941.98513	33762.075
2944.44962	33706.475
2946.91261	33675.275
2949.37409	33794.775
2951.83407	33741.975
2954.29254	33671.475
2956.74951	33712.275
2959.20498	33737.575
2961.65895	33640.875
2964.11142	33667.875
2966.56239	33691.575
2969.01186	33618.775
2971.45984	33509.475
2973.90632	33530.975
2976.35131	33481.775
2978.7948	33451.275
2981.23681	33361.975
2983.67732	33307.875
2986.11635	33264.075
2988.55388	33230.475
2990.98993	33193.675
2993.4245	33134.375
2995.85758	33064.775
2998.28917	33004.975
3000.71928	32961.575
3003.14791	32851.475
3005.57506	32855.075
3008.00073	32757.675
3010.42493	32714.375
3012.84764	32625.375
3015.26888	32618.875
3017.68865	32564.775
3020.10694	32534.975
3022.52376	32504.375
3024.9391	32435.175
3027.35298	32471.475
3029.76539	32410.075
3032.17632	32415.575
3034.5858	32361.875
3036.9938	32340.975
3039.40034	32248.675
3041.80542	32266.775
3044.20903	32209.575
3046.61118	32168.575
3049.01187	32096.675
3051.4111	32017.075
3053.80888	31930.275
3056.20519	31896.875
3058.60005	31872.075
3060.99345	31840.675
3063.3854	31789.175
3065.7759	31615.975
3068.16494	31576.975
3070.55254	31495.675
3072.93868	31393.675
3075.32338	31321.275
3077.70662	31255.375
3080.08842	31160.575
3082.46878	31090.875
3084.84769	31099.475
3087.22515	31080.075
3089.60118	31083.475
3091.97576	31012.275
3094.3489	30994.575
3096.72061	31004.275
3099.09087	31030.675
3101.4597	31020.475
3103.82709	31007.875
3106.19305	30985.075
3108.55757	30984.675
3110.92066	30878.575
3113.28232	30894.375
3115.64255	30736.375
3118.00134	30693.075
3120.35871	30592.975
3122.71466	30568.575
3125.06917	30517.875
