Data from AgNPs_FTO_APTES_UA_20uM_CRN_5uM_R6G_10uM_NaF_0.1M_Addition_RamanShift__23__13-58-42-164.txt Node

Date: Thu Feb 17 13:58:42 GMT 2022
User: TCL
Spectrometer: QEP01345
Trigger mode: 4
Integration Time (sec): 7.000000E0
Scans to average: 10
Electric dark correction enabled: true
Nonlinearity correction enabled: false
Boxcar width: 0
XAxis mode: Raman Shifts
Number of Pixels in Spectrum: 1044
>>>>>Begin Spectral Data<<<<<
46.04893	0.4125
50.45542	-1.3875
54.85868	-3.1875
59.25871	-1.9875
63.6555	124.7125
68.04907	128.7125
72.43941	134.7125
76.82654	136.1125
81.21044	140.2125
85.59113	145.4125
89.96862	148.7125
94.34289	150.2125
98.71396	160.9125
103.08183	161.9125
107.4465	166.2125
111.80798	170.6125
116.16626	178.0125
120.52136	186.5125
124.87327	196.4125
129.222	204.3125
133.56755	225.0125
137.90993	240.1125
142.24913	264.8125
146.58517	301.2125
150.91804	356.7125
155.24774	430.2125
159.57429	541.3125
163.89768	705.2125
168.21792	943.0125
172.53501	1285.4125
176.84895	1818.0125
181.15975	2573.2125
185.46741	3632.5125
189.77193	5000.3125
194.07331	6715.8125
198.37157	8683.7125
202.6667	10766.1125
206.9587	12839.4125
211.24758	14836.9125
215.53334	16860.7125
219.81599	18997.6125
224.09553	21363.3125
228.37195	23991.1125
232.64527	26851.0125
236.91549	29907.1125
241.18261	33043.3125
245.44663	36022.5125
249.70755	38659.0125
253.96539	40928.2125
258.22014	43025.0125
262.4718	44706.1125
266.72039	45959.7125
270.96589	46652.6125
275.20832	46778.9125
279.44768	46606.0125
283.68397	46212.8125
287.91719	45867.7125
292.14735	45678.3125
296.37445	45685.4125
300.59849	45747.3125
304.81948	45900.6125
309.03742	45823.6125
313.25231	45448.4125
317.46415	44612.0125
321.67296	43665.5125
325.87872	42925.1125
330.08145	42555.0125
334.28114	42660.1125
338.47781	43021.0125
342.67145	43486.1125
346.86207	44324.0125
351.04966	45300.1125
355.23424	46197.3125
359.4158	46999.2125
363.59435	47646.6125
367.76989	48068.3125
371.94243	48384.7125
376.11196	48616.8125
380.27849	48897.6125
384.44203	49189.1125
388.60257	49478.7125
392.76012	49798.2125
396.91468	50269.7125
401.06626	50949.0125
405.21485	51454.2125
409.36047	51453.5125
413.50311	50886.4125
417.64277	50369.6125
421.77947	50225.2125
425.9132	50427.2125
430.04396	50794.1125
434.17176	51283.4125
438.2966	51858.2125
442.41849	52752.7125
446.53742	54099.0125
450.6534	55527.0125
454.76644	56654.0125
458.87653	57157.0125
462.98368	56919.1125
467.08789	56213.8125
471.18916	55346.5125
475.2875	54744.7125
479.38291	54324.5125
483.4754	53898.1125
487.56496	53361.2125
491.6516	52738.7125
495.73531	52106.7125
499.81612	51729.8125
503.89401	51936.8125
507.96899	52018.4125
512.04106	51957.4125
516.11023	51829.3125
520.1765	51635.3125
524.23987	51521.6125
528.30034	51250.3125
532.35792	50931.1125
536.41261	50498.6125
540.46441	50178.3125
544.51333	50199.8125
548.55936	50698.9125
552.60252	51615.3125
556.64279	52651.1125
560.6802	53323.0125
564.71473	53734.5125
568.7464	54390.2125
572.7752	55249.8125
576.80114	55859.0125
580.82422	56269.5125
584.84444	56799.7125
588.86181	57567.6125
592.87633	58560.5125
596.888	59079.6125
600.89682	58973.9125
604.9028	60523.4125
608.90594	65188.1125
612.90624	69986.0125
616.90371	66446.3125
620.89834	57395.4125
624.89015	53571.6125
628.87913	53035.5125
632.86528	52968.4125
636.84862	52638.4125
640.82913	52001.2125
644.80683	50874.4125
648.78172	50082.0125
652.75379	50000.3125
656.72306	50700.9125
660.68952	51556.7125
664.65319	51425.7125
668.61405	50660.7125
672.57211	50486.6125
676.52738	50567.7125
680.47986	50502.6125
684.42955	50385.6125
688.37646	50366.9125
692.32058	50659.8125
696.26192	51052.0125
700.20048	51635.7125
704.13626	51969.4125
708.06928	51809.9125
711.99952	51471.3125
715.927	51342.3125
719.85171	51485.1125
723.77365	51415.4125
727.69284	51110.7125
731.60928	50685.3125
735.52295	50617.2125
739.43388	50747.7125
743.34206	51019.6125
747.24749	51310.7125
751.15017	51572.3125
755.05012	52356.2125
758.94733	53556.2125
762.8418	55755.3125
766.73354	59311.4125
770.62254	62766.5125
774.50882	63506.6125
778.39237	60993.9125
782.27321	57041.2125
786.15132	53793.3125
790.02671	51959.0125
793.89938	51130.7125
797.76935	50762.1125
801.6366	50733.6125
805.50115	50539.7125
809.36299	50377.8125
813.22213	50170.9125
817.07857	50095.0125
820.93231	50107.9125
824.78336	50045.8125
828.63172	50005.1125
832.47738	50001.3125
836.32036	50062.3125
840.16066	50330.2125
843.99827	50471.3125
847.8332	50406.4125
851.66546	50260.4125
855.49504	50125.4125
859.32195	50196.6125
863.1462	50001.2125
866.96777	49910.5125
870.78668	49852.4125
874.60293	49881.1125
878.41652	49918.5125
882.22745	50048.0125
886.03573	50044.7125
889.84136	50066.5125
893.64433	49856.3125
897.44466	49673.3125
901.24235	49547.5125
905.0374	49468.8125
908.8298	49458.9125
912.61957	49537.3125
916.40671	49879.7125
920.19121	50426.3125
923.97308	50903.3125
927.75233	51055.3125
931.52895	50737.4125
935.30295	50366.3125
939.07433	49649.7125
942.84309	49202.7125
946.60924	48991.5125
950.37278	48933.7125
954.13371	48821.6125
957.89203	48623.7125
961.64774	48481.9125
965.40086	48323.8125
969.15137	48186.5125
972.89929	48004.2125
976.64461	47970.0125
980.38733	47933.7125
984.12747	48143.0125
987.86502	48549.3125
991.59999	49152.7125
995.33237	50003.8125
999.06217	51372.9125
1002.78939	52938.1125
1006.51404	53987.5125
1010.23611	54563.4125
1013.95561	54926.2125
1017.67255	54981.3125
1021.38692	54574.9125
1025.09872	54238.8125
1028.80796	54624.7125
1032.51465	55834.9125
1036.21877	56943.2125
1039.92035	56985.9125
1043.61937	56305.2125
1047.31584	55058.7125
1051.00976	53710.7125
1054.70114	53003.4125
1058.38998	52818.4125
1062.07627	52874.8125
1065.76003	53105.3125
1069.44126	53406.0125
1073.11995	53839.5125
1076.79611	54248.8125
1080.46974	54572.4125
1084.14085	55060.1125
1087.80943	55553.7125
1091.47549	55804.8125
1095.13903	55591.3125
1098.80005	54906.5125
1102.45857	54191.5125
1106.11456	53783.7125
1109.76805	53819.7125
1113.41903	54192.0125
1117.06751	54663.7125
1120.71348	55210.2125
1124.35696	55680.0125
1127.99793	55985.8125
1131.63641	56020.9125
1135.2724	55614.8125
1138.90589	55166.7125
1142.5369	54925.6125
1146.16542	54848.5125
1149.79145	55064.9125
1153.415	55472.9125
1157.03607	56143.4125
1160.65467	57185.3125
1164.27079	58849.2125
1167.88443	61288.0125
1171.49561	64421.6125
1175.10432	68720.7125
1178.71056	73963.2125
1182.31434	79020.4125
1185.91565	81522.2125
1189.51451	81145.3125
1193.11091	78569.1125
1196.70485	75393.8125
1200.29634	72553.6125
1203.88538	70444.4125
1207.47197	68641.5125
1211.05612	67210.8125
1214.63782	66182.7125
1218.21708	65826.9125
1221.79391	65940.8125
1225.36829	65863.6125
1228.94024	65147.6125
1232.50976	63950.4125
1236.07685	62921.6125
1239.6415	62577.7125
1243.20374	62586.6125
1246.76355	63022.2125
1250.32093	63820.5125
1253.8759	65043.5125
1257.42845	66576.0125
1260.97859	68016.7125
1264.52631	69136.4125
1268.07163	70727.6125
1271.61453	72296.8125
1275.15503	74029.9125
1278.69312	75988.2125
1282.22882	77574.1125
1285.76211	79141.7125
1289.29301	80812.3125
1292.82151	82954.8125
1296.34761	85841.9125
1299.87133	89918.0125
1303.39266	94777.5125
1306.9116	100539.9125
1310.42815	106084.1125
1313.94233	109870.1125
1317.45412	110135.0125
1320.96354	108130.9125
1324.47058	105533.4125
1327.97525	103110.1125
1331.47754	101261.0125
1334.97747	100826.9125
1338.47502	101306.7125
1341.97022	101909.2125
1345.46305	101743.4125
1348.95352	100573.8125
1352.44163	99772.7125
1355.92738	100911.2125
1359.41078	104557.4125
1362.89183	107985.3125
1366.37053	105855.1125
1369.84688	97457.5125
1373.32088	88200.2125
1376.79254	81910.6125
1380.26186	79099.1125
1383.72883	78312.7125
1387.19347	78131.2125
1390.65578	77750.8125
1394.11575	77850.8125
1397.57339	78788.9125
1401.0287	80426.1125
1404.48168	82123.7125
1407.93234	83204.6125
1411.38068	83327.0125
1414.82669	82159.9125
1418.27039	79660.0125
1421.71177	76522.0125
1425.15083	73847.1125
1428.58758	72299.5125
1432.02203	72341.5125
1435.45416	73344.5125
1438.88399	74728.5125
1442.31151	76024.0125
1445.73673	77094.2125
1449.15965	77988.8125
1452.58027	78602.6125
1455.9986	78612.6125
1459.41463	78959.6125
1462.82837	79784.0125
1466.23982	81220.3125
1469.64898	82598.7125
1473.05586	83568.2125
1476.46045	83838.2125
1479.86276	83676.7125
1483.26279	83252.6125
1486.66054	83004.5125
1490.05602	83318.1125
1493.44922	83765.0125
1496.84016	84077.5125
1500.22882	84809.7125
1503.61521	86604.3125
1506.99934	89242.2125
1510.38121	91497.2125
1513.76081	91896.9125
1517.13816	89749.6125
1520.51324	86347.3125
1523.88607	83266.2125
1527.25665	81576.3125
1530.62498	81117.0125
1533.99105	80995.6125
1537.35488	80783.5125
1540.71647	80328.3125
1544.07581	79511.3125
1547.4329	78503.2125
1550.78776	77247.7125
1554.14038	76237.4125
1557.49077	75759.1125
1560.83892	75441.3125
1564.18484	75210.1125
1567.52853	75155.0125
1570.86999	75301.9125
1574.20922	75745.4125
1577.54624	76235.9125
1580.88103	75876.9125
1584.2136	75969.9125
1587.54395	77627.8125
1590.87208	81084.7125
1594.19801	86281.8125
1597.52172	91621.9125
1600.84321	93948.6125
1604.16251	91140.8125
1607.47959	85364.7125
1610.79447	78829.3125
1614.10715	72792.7125
1617.41763	67844.4125
1620.7259	64408.6125
1624.03199	62722.9125
1627.33587	62595.9125
1630.63757	63922.6125
1633.93707	67098.1125
1637.23439	71993.3125
1640.52951	78744.3125
1643.82246	86037.2125
1647.11321	91615.2125
1650.40179	92134.1125
1653.68819	86536.0125
1656.97241	77060.8125
1660.25446	67861.1125
1663.53433	60997.6125
1666.81203	56746.4125
1670.08756	53980.8125
1673.36092	52246.9125
1676.63211	51071.0125
1679.90115	50155.1125
1683.16801	49461.4125
1686.43272	48952.9125
1689.69527	48711.7125
1692.95567	48384.4125
1696.2139	48198.6125
1699.46999	48149.4125
1702.72392	48029.7125
1705.97571	47928.3125
1709.22535	47800.6125
1712.47284	47781.2125
1715.71819	47825.0125
1718.96139	47682.8125
1722.20246	47526.2125
1725.44139	47387.6125
1728.67818	47160.3125
1731.91284	46922.9125
1735.14537	46712.6125
1738.37576	46561.2125
1741.60403	46441.8125
1744.83017	46269.2125
1748.05418	46156.5125
1751.27607	46065.5125
1754.49584	46009.9125
1757.71349	46050.2125
1760.92903	46032.7125
1764.14244	45895.1125
1767.35375	45897.6125
1770.56294	45818.8125
1773.77002	45819.7125
1776.97499	45800.3125
1780.17785	45694.4125
1783.37861	45669.0125
1786.57727	45585.0125
1789.77382	45480.5125
1792.96828	45491.9125
1796.16064	45448.4125
1799.3509	45430.6125
1802.53907	45379.7125
1805.72514	45211.6125
1808.90913	45114.9125
1812.09102	45019.4125
1815.27083	44961.6125
1818.44856	44888.6125
1821.6242	44821.8125
1824.79776	44789.0125
1827.96924	44805.1125
1831.13864	44739.1125
1834.30597	44734.1125
1837.47122	44676.6125
1840.6344	44676.0125
1843.7955	44633.9125
1846.95454	44656.8125
1850.11151	44661.1125
1853.26642	44642.3125
1856.41926	44625.8125
1859.57004	44628.9125
1862.71876	44572.9125
1865.86542	44533.2125
1869.01003	44498.9125
1872.15258	44500.2125
1875.29308	44486.8125
1878.43152	44416.6125
1881.56792	44471.5125
1884.70227	44495.8125
1887.83457	44419.9125
1890.96482	44406.0125
1894.09304	44385.6125
1897.21921	44400.6125
1900.34335	44282.9125
1903.46544	44234.9125
1906.58551	44242.1125
1909.70353	44270.4125
1912.81953	44218.4125
1915.93349	44139.5125
1919.04543	44055.2125
1922.15534	43982.1125
1925.26322	43938.0125
1928.36908	43846.3125
1931.47292	43809.2125
1934.57473	43668.0125
1937.67453	43585.0125
1940.77232	43493.3125
1943.86808	43364.0125
1946.96184	43256.2125
1950.05358	43125.0125
1953.14331	43027.5125
1956.23103	42903.0125
1959.31675	42769.4125
1962.40046	42636.0125
1965.48217	42420.4125
1968.56188	42341.1125
1971.63959	42298.2125
1974.7153	42179.4125
1977.78901	42029.3125
1980.86073	41954.1125
1983.93046	41826.4125
1986.99819	41717.5125
1990.06394	41584.2125
1993.1277	41542.2125
1996.18947	41402.9125
1999.24925	41230.8125
2002.30706	41199.5125
2005.36288	41068.4125
2008.41672	40919.4125
2011.46859	40823.6125
2014.51848	40703.7125
2017.56639	40615.0125
2020.61233	40475.5125
2023.6563	40480.3125
2026.6983	40302.4125
2029.73833	40249.8125
2032.7764	40194.7125
2035.8125	40180.4125
2038.84664	40083.4125
2041.87881	40092.2125
2044.90903	40013.4125
2047.93729	39968.0125
2050.96359	39921.0125
2053.98794	39859.4125
2057.01034	39859.5125
2060.03078	39824.4125
2063.04927	39790.6125
2066.06582	39735.5125
2069.08042	39762.9125
2072.09307	39710.5125
2075.10378	39608.5125
2078.11255	39591.6125
2081.11938	39555.8125
2084.12426	39606.1125
2087.12722	39528.1125
2090.12824	39487.2125
2093.12732	39488.3125
2096.12447	39510.1125
2099.11969	39426.9125
2102.11299	39477.9125
2105.10435	39496.9125
2108.09379	39536.4125
2111.08131	39570.3125
2114.0669	39502.3125
2117.05057	39577.1125
2120.03233	39611.9125
2123.01216	39652.3125
2125.99008	39755.1125
2128.96609	39776.6125
2131.94018	39825.3125
2134.91236	39810.0125
2137.88263	39880.1125
2140.851	39830.4125
2143.81746	39897.1125
2146.78201	39904.1125
2149.74466	39937.2125
2152.7054	39923.1125
2155.66425	39937.9125
2158.6212	39939.0125
2161.57625	39921.4125
2164.52941	39875.8125
2167.48067	39867.3125
2170.43004	39868.0125
2173.37752	39865.1125
2176.32311	39907.1125
2179.26681	39869.3125
2182.20863	39835.6125
2185.14856	39920.9125
2188.08661	39952.0125
2191.02278	39965.4125
2193.95707	39840.2125
2196.88948	39889.3125
2199.82001	39894.4125
2202.74867	39828.6125
2205.67545	39822.8125
2208.60037	39816.1125
2211.52341	39752.7125
2214.44458	39797.4125
2217.36388	39752.0125
2220.28132	39707.6125
2223.1969	39585.3125
2226.11061	39469.2125
2229.02246	39356.7125
2231.93245	39349.2125
2234.84058	39249.5125
2237.74686	39200.8125
2240.65128	39197.4125
2243.55385	39096.4125
2246.45456	39149.7125
2249.35343	39055.4125
2252.25044	39064.5125
2255.14561	38974.2125
2258.03893	38936.5125
2260.93041	38838.5125
2263.82004	38741.7125
2266.70783	38661.0125
2269.59378	38579.0125
2272.4779	38508.5125
2275.36017	38415.1125
2278.24061	38395.7125
2281.11922	38315.5125
2283.996	38189.4125
2286.87094	38209.4125
2289.74405	38216.2125
2292.61534	38176.8125
2295.4848	38127.3125
2298.35243	38120.2125
2301.21824	38122.8125
2304.08223	38110.3125
2306.94439	38144.2125
2309.80474	38233.5125
2312.66327	38247.9125
2315.51999	38210.3125
2318.37489	38172.6125
2321.22797	38176.2125
2324.07925	38151.2125
2326.92871	38060.1125
2329.77637	38008.7125
2332.62222	38002.2125
2335.46626	38070.6125
2338.3085	37979.3125
2341.14893	38036.8125
2343.98756	38032.9125
2346.8244	38051.0125
2349.65943	38042.2125
2352.49267	38012.6125
2355.32411	37984.7125
2358.15376	38029.9125
2360.98161	37937.1125
2363.80768	37905.3125
2366.63195	37892.7125
2369.45444	37795.9125
2372.27514	37774.2125
2375.09405	37698.6125
2377.91118	37625.9125
2380.72652	37521.1125
2383.54009	37417.2125
2386.35187	37388.3125
2389.16188	37284.6125
2391.97011	37215.5125
2394.77657	37142.1125
2397.58125	37088.2125
2400.38416	37078.3125
2403.18529	37026.5125
2405.98466	36973.6125
2408.78226	36840.6125
2411.57809	36817.7125
2414.37216	36781.2125
2417.16446	36797.3125
2419.955	36629.4125
2422.74378	36644.0125
2425.5308	36578.0125
2428.31606	36612.2125
2431.09956	36633.7125
2433.88131	36595.7125
2436.6613	36581.7125
2439.43954	36610.8125
2442.21603	36552.2125
2444.99077	36498.6125
2447.76377	36483.6125
2450.53501	36503.3125
2453.30451	36460.2125
2456.07226	36460.6125
2458.83827	36424.2125
2461.60254	36327.4125
2464.36507	36391.4125
2467.12586	36373.1125
2469.88492	36419.6125
2472.64224	36437.6125
2475.39782	36387.2125
2478.15167	36502.9125
2480.90379	36524.9125
2483.65417	36579.5125
2486.40283	36565.1125
2489.14976	36575.4125
2491.89497	36515.9125
2494.63845	36589.9125
2497.3802	36562.7125
2500.12024	36520.3125
2502.85855	36597.0125
2505.59514	36556.2125
2508.33002	36467.1125
2511.06318	36408.0125
2513.79462	36349.1125
2516.52435	36354.0125
2519.25237	36330.5125
2521.97867	36330.2125
2524.70327	36303.7125
2527.42616	36278.5125
2530.14734	36247.5125
2532.86681	36132.0125
2535.58458	36184.5125
2538.30065	36170.2125
2541.01501	36194.7125
2543.72768	36171.6125
2546.43864	36104.9125
2549.14791	36118.0125
2551.85548	36084.6125
2554.56136	35977.4125
2557.26554	35928.8125
2559.96803	35826.3125
2562.66883	35847.8125
2565.36794	35802.1125
2568.06536	35829.9125
2570.7611	35781.4125
2573.45514	35672.8125
2576.14751	35687.0125
2578.83819	35644.3125
2581.52719	35681.9125
2584.21451	35642.6125
2586.90015	35625.8125
2589.58411	35621.3125
2592.2664	35613.3125
2594.94701	35637.2125
2597.62594	35602.5125
2600.30321	35579.9125
2602.9788	35640.1125
2605.65273	35546.6125
2608.32498	35583.5125
2610.99557	35532.7125
2613.66449	35547.2125
2616.33175	35563.0125
2618.99734	35515.4125
2621.66128	35494.1125
2624.32355	35532.0125
2626.98416	35519.5125
2629.64311	35520.3125
2632.30041	35521.6125
2634.95605	35507.9125
2637.61004	35478.8125
2640.26238	35385.1125
2642.91306	35368.0125
2645.56209	35298.2125
2648.20948	35302.4125
2650.85521	35330.0125
2653.4993	35268.2125
2656.14175	35276.0125
2658.78255	35341.4125
2661.42171	35333.8125
2664.05923	35414.6125
2666.6951	35383.3125
2669.32934	35418.1125
2671.96194	35359.8125
2674.59291	35448.5125
2677.22224	35513.3125
2679.84993	35475.1125
2682.476	35411.8125
2685.10043	35397.5125
2687.72324	35354.6125
2690.34441	35286.3125
2692.96396	35326.8125
2695.58188	35334.1125
2698.19818	35282.7125
2700.81285	35227.5125
2703.4259	35213.2125
2706.03733	35329.6125
2708.64714	35266.9125
2711.25533	35299.6125
2713.86191	35291.0125
2716.46687	35399.4125
2719.07021	35418.5125
2721.67194	35432.5125
2724.27206	35354.9125
2726.87057	35342.5125
2729.46747	35410.4125
2732.06276	35383.1125
2734.65644	35367.0125
2737.24852	35449.3125
2739.83899	35410.4125
2742.42786	35466.4125
2745.01513	35416.7125
2747.60079	35380.2125
2750.18486	35342.5125
2752.76733	35370.5125
2755.3482	35305.9125
2757.92747	35251.0125
2760.50515	35266.6125
2763.08123	35248.4125
2765.65573	35254.8125
2768.22863	35208.8125
2770.79994	35214.5125
2773.36967	35215.0125
2775.9378	35260.2125
2778.50435	35236.2125
2781.06932	35257.0125
2783.6327	35205.5125
2786.1945	35176.2125
2788.75471	35139.1125
2791.31335	35053.9125
2793.87041	35048.6125
2796.42589	34958.7125
2798.97979	34893.9125
2801.53212	34852.2125
2804.08288	34839.5125
2806.63206	34757.2125
2809.17967	34715.0125
2811.72571	34621.5125
2814.27018	34549.3125
2816.81308	34470.9125
2819.35442	34421.8125
2821.89419	34374.6125
2824.43239	34395.0125
2826.96904	34404.0125
2829.50412	34361.0125
2832.03763	34256.2125
2834.56959	34252.7125
2837.1	34192.5125
2839.62884	34138.6125
2842.15613	34091.9125
2844.68186	34106.3125
2847.20604	34089.6125
2849.72867	33998.9125
2852.24974	33986.9125
2854.76927	33980.6125
2857.28724	33904.1125
2859.80367	33895.7125
2862.31855	33867.2125
2864.83189	33842.8125
2867.34368	33809.1125
2869.85393	33825.5125
2872.36264	33767.0125
2874.8698	33751.8125
2877.37543	33726.9125
2879.87952	33731.9125
2882.38207	33736.9125
2884.88308	33711.1125
2887.38256	33759.7125
2889.88051	33736.6125
2892.37692	33769.4125
2894.8718	33836.1125
2897.36515	33847.5125
2899.85698	33832.9125
2902.34727	33892.5125
2904.83604	33866.7125
2907.32328	33945.9125
2909.809	33932.4125
2912.29319	34009.0125
2914.77587	33993.0125
2917.25702	33978.0125
2919.73665	33927.4125
2922.21476	33930.3125
2924.69136	33882.3125
2927.16644	33849.8125
2929.64	33778.9125
2932.11205	33786.4125
2934.58258	33672.4125
2937.05161	33741.8125
2939.51912	33743.1125
2941.98513	33705.7125
2944.44962	33743.7125
2946.91261	33617.9125
2949.37409	33674.1125
2951.83407	33635.9125
2954.29254	33642.7125
2956.74951	33618.1125
2959.20498	33616.3125
2961.65895	33593.5125
2964.11142	33579.4125
2966.56239	33567.5125
2969.01186	33539.2125
2971.45984	33413.5125
2973.90632	33382.5125
2976.35131	33369.7125
2978.7948	33310.9125
2981.23681	33232.7125
2983.67732	33129.4125
2986.11635	33081.1125
2988.55388	33036.7125
2990.98993	32959.2125
2993.4245	32876.2125
2995.85758	32812.4125
2998.28917	32711.3125
3000.71928	32681.2125
3003.14791	32612.6125
3005.57506	32632.3125
3008.00073	32548.4125
3010.42493	32493.9125
3012.84764	32417.2125
3015.26888	32343.0125
3017.68865	32298.2125
3020.10694	32241.3125
