Data from AgNPs_UA_10uM_CRN_0uM_R6G_10uM_Q_RamanShift__29__12-22-32-660.txt Node

Date: Mon Jul 18 12:22:32 BST 2022
User: TCL
Spectrometer: QEP01345
Trigger mode: 4
Integration Time (sec): 7.000000E0
Scans to average: 10
Electric dark correction enabled: true
Nonlinearity correction enabled: false
Boxcar width: 0
XAxis mode: Raman Shifts
Number of Pixels in Spectrum: 1044
>>>>>Begin Spectral Data<<<<<
46.04893	0.325
50.45542	-1.775
54.85868	-2.175
59.25871	-1.175
63.6555	93.125
68.04907	100.325
72.43941	104.025
76.82654	108.825
81.21044	107.625
85.59113	111.525
89.96862	119.025
94.34289	124.125
98.71396	124.225
103.08183	127.825
107.4465	132.825
111.80798	137.625
116.16626	139.125
120.52136	144.925
124.87327	156.225
129.222	157.925
133.56755	167.625
137.90993	179.725
142.24913	191.825
146.58517	215.825
150.91804	249.525
155.24774	298.225
159.57429	364.525
163.89768	471.625
168.21792	624.725
172.53501	838.925
176.84895	1154.925
181.15975	1617.425
185.46741	2258.625
189.77193	3097.025
194.07331	4128.725
198.37157	5296.925
202.6667	6513.525
206.9587	7726.825
211.24758	8932.325
215.53334	10165.125
219.81599	11513.925
224.09553	13070.225
228.37195	14770.425
232.64527	16619.725
236.91549	18525.325
241.18261	20308.325
245.44663	21915.425
249.70755	23349.625
253.96539	24548.625
258.22014	25497.525
262.4718	26354.325
266.72039	26947.425
270.96589	27198.125
275.20832	27272.825
279.44768	27070.125
283.68397	26759.725
287.91719	26572.225
292.14735	26602.025
296.37445	26886.425
300.59849	27420.525
304.81948	27947.925
309.03742	28288.825
313.25231	27966.025
317.46415	26983.825
321.67296	25610.225
325.87872	24573.225
330.08145	24135.525
334.28114	24223.425
338.47781	24585.025
342.67145	25125.025
346.86207	25851.525
351.04966	26935.325
355.23424	28046.125
359.4158	28977.225
363.59435	29503.925
367.76989	29744.325
371.94243	29805.225
376.11196	29736.725
380.27849	29736.825
384.44203	29671.825
388.60257	29518.725
392.76012	29570.825
396.91468	29956.125
401.06626	30642.025
405.21485	31063.525
409.36047	30705.125
413.50311	29796.325
417.64277	28921.925
421.77947	28582.725
425.9132	28562.525
430.04396	28713.725
434.17176	28993.025
438.2966	29473.425
442.41849	30225.025
446.53742	31248.025
450.6534	32267.925
454.76644	32950.325
458.87653	33023.225
462.98368	32635.525
467.08789	32021.025
471.18916	31244.225
475.2875	30537.225
479.38291	29999.725
483.4754	29552.225
487.56496	29143.125
491.6516	28794.725
495.73531	28540.325
499.81612	28451.625
503.89401	28679.425
507.96899	28822.225
512.04106	28982.125
516.11023	29242.625
520.1765	29313.825
524.23987	29207.825
528.30034	28892.525
532.35792	28547.725
536.41261	28149.725
540.46441	27730.225
544.51333	27668.625
548.55936	27982.025
552.60252	28660.825
556.64279	29366.725
560.6802	29672.725
564.71473	30059.325
568.7464	30901.125
572.7752	31451.225
576.80114	31193.425
580.82422	30908.625
584.84444	31040.925
588.86181	31483.025
592.87633	32163.525
596.888	32775.525
600.89682	33733.725
604.9028	36889.425
608.90594	43996.725
612.90624	50328.925
616.90371	45308.525
620.89834	34823.425
624.89015	30812.025
628.87913	30267.025
632.86528	30223.325
636.84862	30010.325
640.82913	29283.025
644.80683	28217.025
648.78172	27570.725
652.75379	27771.625
656.72306	28688.325
660.68952	29589.725
664.65319	29206.925
668.61405	28355.525
672.57211	28052.825
676.52738	28032.425
680.47986	27923.225
684.42955	27784.225
688.37646	27767.925
692.32058	27900.925
696.26192	28164.325
700.20048	28522.425
704.13626	28727.525
708.06928	28595.925
711.99952	28367.825
715.927	28272.325
719.85171	28302.525
723.77365	28136.325
727.69284	27817.325
731.60928	27659.625
735.52295	27752.525
739.43388	27942.825
743.34206	28149.525
747.24749	28430.925
751.15017	28715.125
755.05012	29333.125
758.94733	30708.325
762.8418	33429.825
766.73354	37606.425
770.62254	41342.225
774.50882	42340.225
778.39237	39813.625
782.27321	35401.325
786.15132	31671.225
790.02671	29582.825
793.89938	28651.025
797.76935	28315.925
801.6366	28139.025
805.50115	28008.225
809.36299	27841.025
813.22213	27663.225
817.07857	27629.325
820.93231	27662.125
824.78336	27707.625
828.63172	27854.525
832.47738	27928.725
836.32036	27913.425
840.16066	28055.425
843.99827	28057.125
847.8332	27914.625
851.66546	27775.325
855.49504	27694.025
859.32195	27612.125
863.1462	27448.225
866.96777	27378.525
870.78668	27278.825
874.60293	27329.325
878.41652	27431.925
882.22745	27611.325
886.03573	27694.425
889.84136	27583.125
893.64433	27500.025
897.44466	27371.925
901.24235	27323.625
905.0374	27303.925
908.8298	27229.025
912.61957	27295.925
916.40671	27549.425
920.19121	27938.825
923.97308	28414.625
927.75233	28739.525
931.52895	28811.925
935.30295	28360.725
939.07433	27614.325
942.84309	27083.225
946.60924	26796.325
950.37278	26673.825
954.13371	26547.625
957.89203	26372.025
961.64774	26292.225
965.40086	26249.525
969.15137	26175.025
972.89929	26106.925
976.64461	26156.825
980.38733	26233.925
984.12747	26355.125
987.86502	26598.525
991.59999	26966.225
995.33237	27605.525
999.06217	28725.825
1002.78939	30046.125
1006.51404	30705.525
1010.23611	31097.625
1013.95561	31400.425
1017.67255	31405.325
1021.38692	31056.425
1025.09872	30892.625
1028.80796	31430.225
1032.51465	32544.025
1036.21877	33390.625
1039.92035	33306.325
1043.61937	32562.025
1047.31584	31409.025
1051.00976	30412.925
1054.70114	29915.225
1058.38998	29749.625
1062.07627	29880.725
1065.76003	29916.125
1069.44126	30100.525
1073.11995	30442.125
1076.79611	30696.225
1080.46974	30966.825
1084.14085	31490.025
1087.80943	32000.725
1091.47549	32060.725
1095.13903	31565.025
1098.80005	30728.625
1102.45857	30084.225
1106.11456	29777.225
1109.76805	29892.525
1113.41903	30378.725
1117.06751	31089.225
1120.71348	31982.225
1124.35696	32867.125
1127.99793	33450.225
1131.63641	33209.525
1135.2724	32308.425
1138.90589	31528.025
1142.5369	31018.125
1146.16542	30733.225
1149.79145	30708.125
1153.415	30933.325
1157.03607	31363.725
1160.65467	32048.525
1164.27079	33161.725
1167.88443	34912.025
1171.49561	37577.425
1175.10432	41534.325
1178.71056	46475.425
1182.31434	50529.725
1185.91565	52185.025
1189.51451	51349.125
1193.11091	48626.425
1196.70485	45296.225
1200.29634	42636.825
1203.88538	40441.225
1207.47197	38473.225
1211.05612	37059.725
1214.63782	36463.725
1218.21708	36587.625
1221.79391	36886.125
1225.36829	37086.125
1228.94024	36804.525
1232.50976	36350.025
1236.07685	36038.125
1239.6415	35989.025
1243.20374	36110.925
1246.76355	36403.025
1250.32093	37072.725
1253.8759	38034.825
1257.42845	39264.325
1260.97859	40426.425
1264.52631	41352.225
1268.07163	42298.225
1271.61453	43358.025
1275.15503	44568.825
1278.69312	45758.625
1282.22882	46818.625
1285.76211	47949.425
1289.29301	49144.425
1292.82151	50428.025
1296.34761	52174.125
1299.87133	54804.625
1303.39266	58879.025
1306.9116	64417.925
1310.42815	70103.325
1313.94233	73079.725
1317.45412	71867.925
1320.96354	68369.925
1324.47058	64721.725
1327.97525	61804.125
1331.47754	60108.925
1334.97747	59710.325
1338.47502	60121.425
1341.97022	60901.225
1345.46305	61547.225
1348.95352	62245.725
1352.44163	63928.425
1355.92738	67502.325
1359.41078	73470.025
1362.89183	78258.425
1366.37053	75426.725
1369.84688	66414.525
1373.32088	57560.725
1376.79254	51851.525
1380.26186	48988.425
1383.72883	47594.825
1387.19347	46600.925
1390.65578	45529.525
1394.11575	44942.325
1397.57339	45158.125
1401.0287	45936.925
1404.48168	46860.425
1407.93234	47783.825
1411.38068	48394.325
1414.82669	48071.925
1418.27039	46658.225
1421.71177	44881.925
1425.15083	43441.125
1428.58758	42835.025
1432.02203	43021.825
1435.45416	43540.925
1438.88399	43958.725
1442.31151	44234.525
1445.73673	44513.725
1449.15965	44769.925
1452.58027	44781.925
1455.9986	44475.625
1459.41463	44471.125
1462.82837	44895.925
1466.23982	45918.325
1469.64898	46931.225
1473.05586	47675.725
1476.46045	48156.025
1479.86276	48678.225
1483.26279	49185.725
1486.66054	49804.325
1490.05602	50821.525
1493.44922	52192.025
1496.84016	54014.825
1500.22882	56671.825
1503.61521	60363.725
1506.99934	64675.525
1510.38121	68158.725
1513.76081	68813.925
1517.13816	65709.525
1520.51324	60460.725
1523.88607	55818.425
1527.25665	52703.525
1530.62498	50967.325
1533.99105	49968.825
1537.35488	49318.925
1540.71647	48877.925
1544.07581	48428.525
1547.4329	47902.125
1550.78776	47158.425
1554.14038	46483.925
1557.49077	46227.025
1560.83892	46205.625
1564.18484	46626.325
1567.52853	47029.125
1570.86999	47383.225
1574.20922	47736.125
1577.54624	47528.325
1580.88103	46259.925
1584.2136	45211.325
1587.54395	45475.225
1590.87208	47693.225
1594.19801	51530.325
1597.52172	55590.225
1600.84321	57264.225
1604.16251	55421.125
1607.47959	51177.625
1610.79447	46415.025
1614.10715	42126.225
1617.41763	38951.525
1620.7259	37096.525
1624.03199	36288.625
1627.33587	36478.925
1630.63757	37682.725
1633.93707	39842.925
1637.23439	42970.625
1640.52951	47039.025
1643.82246	51568.125
1647.11321	55519.825
1650.40179	56712.725
1653.68819	53388.525
1656.97241	46802.425
1660.25446	40274.025
1663.53433	35546.925
1666.81203	32621.225
1670.08756	30745.225
1673.36092	29636.725
1676.63211	28874.325
1679.90115	28287.125
1683.16801	27890.325
1686.43272	27591.025
1689.69527	27369.125
1692.95567	27165.425
1696.2139	27095.025
1699.46999	26982.025
1702.72392	26952.125
1705.97571	26863.825
1709.22535	26879.725
1712.47284	26893.525
1715.71819	26904.325
1718.96139	26835.525
1722.20246	26723.125
1725.44139	26594.325
1728.67818	26469.625
1731.91284	26318.025
1735.14537	26191.725
1738.37576	26098.825
1741.60403	26059.825
1744.83017	25964.025
1748.05418	25906.125
1751.27607	25818.125
1754.49584	25828.325
1757.71349	25788.725
1760.92903	25751.225
1764.14244	25725.625
1767.35375	25734.425
1770.56294	25688.825
1773.77002	25640.425
1776.97499	25627.025
1780.17785	25603.125
1783.37861	25553.925
1786.57727	25527.325
1789.77382	25488.225
1792.96828	25484.625
1796.16064	25496.525
1799.3509	25470.925
1802.53907	25405.825
1805.72514	25310.325
1808.90913	25252.725
1812.09102	25223.025
1815.27083	25162.525
1818.44856	25141.825
1821.6242	25101.025
1824.79776	25096.325
1827.96924	25044.325
1831.13864	25056.225
1834.30597	25052.625
1837.47122	25027.825
1840.6344	25023.825
1843.7955	25050.925
1846.95454	24993.025
1850.11151	24996.925
1853.26642	24974.325
1856.41926	25019.825
1859.57004	25071.725
1862.71876	25025.725
1865.86542	25050.925
1869.01003	25043.425
1872.15258	25069.525
1875.29308	25070.025
1878.43152	25030.025
1881.56792	25022.225
1884.70227	25039.825
1887.83457	25014.225
1890.96482	25042.125
1894.09304	25015.525
1897.21921	25025.525
1900.34335	25036.225
1903.46544	25021.125
1906.58551	24985.825
1909.70353	24991.225
1912.81953	24989.325
1915.93349	25040.825
1919.04543	24997.325
1922.15534	24987.525
1925.26322	24906.525
1928.36908	24876.725
1931.47292	24826.825
1934.57473	24736.725
1937.67453	24651.225
1940.77232	24625.625
1943.86808	24518.125
1946.96184	24420.225
1950.05358	24373.825
1953.14331	24261.525
1956.23103	24160.125
1959.31675	24095.125
1962.40046	24096.825
1965.48217	24040.125
1968.56188	23942.725
1971.63959	23917.825
1974.7153	23843.125
1977.78901	23820.325
1980.86073	23674.325
1983.93046	23636.825
1986.99819	23534.125
1990.06394	23494.325
1993.1277	23417.825
1996.18947	23338.925
1999.24925	23344.925
2002.30706	23273.825
2005.36288	23243.825
2008.41672	23213.125
2011.46859	23096.925
2014.51848	23037.325
2017.56639	23054.825
2020.61233	22950.625
2023.6563	22892.725
2026.6983	22823.025
2029.73833	22785.325
2032.7764	22746.625
2035.8125	22692.525
2038.84664	22666.425
2041.87881	22667.925
2044.90903	22593.525
2047.93729	22547.525
2050.96359	22577.525
2053.98794	22454.225
2057.01034	22489.125
2060.03078	22517.125
2063.04927	22485.425
2066.06582	22440.025
2069.08042	22409.125
2072.09307	22418.625
2075.10378	22385.525
2078.11255	22350.725
2081.11938	22376.525
2084.12426	22327.325
2087.12722	22294.825
2090.12824	22325.325
2093.12732	22323.125
2096.12447	22310.925
2099.11969	22327.325
2102.11299	22349.625
2105.10435	22346.325
2108.09379	22329.725
2111.08131	22369.025
2114.0669	22321.825
2117.05057	22326.425
2120.03233	22388.925
2123.01216	22407.525
2125.99008	22407.825
2128.96609	22468.825
2131.94018	22483.925
2134.91236	22503.825
2137.88263	22526.425
2140.851	22524.125
2143.81746	22534.625
2146.78201	22552.925
2149.74466	22561.125
2152.7054	22570.925
2155.66425	22543.225
2158.6212	22552.825
2161.57625	22477.225
2164.52941	22467.225
2167.48067	22493.625
2170.43004	22502.625
2173.37752	22517.825
2176.32311	22482.925
2179.26681	22487.225
2182.20863	22542.925
2185.14856	22572.325
2188.08661	22529.825
2191.02278	22540.125
2193.95707	22559.125
2196.88948	22534.225
2199.82001	22538.125
2202.74867	22493.925
2205.67545	22501.525
2208.60037	22485.825
2211.52341	22429.225
2214.44458	22439.125
2217.36388	22465.325
2220.28132	22423.825
2223.1969	22358.925
2226.11061	22303.925
2229.02246	22274.125
2231.93245	22261.725
2234.84058	22208.725
2237.74686	22146.125
2240.65128	22152.925
2243.55385	22128.525
2246.45456	22076.425
2249.35343	22048.325
2252.25044	22032.025
2255.14561	22015.525
2258.03893	21992.125
2260.93041	21975.225
2263.82004	21911.425
2266.70783	21895.125
2269.59378	21845.625
2272.4779	21791.125
2275.36017	21718.525
2278.24061	21714.325
2281.11922	21659.925
2283.996	21636.025
2286.87094	21603.225
2289.74405	21584.125
2292.61534	21582.225
2295.4848	21548.225
2298.35243	21571.525
2301.21824	21562.825
2304.08223	21570.925
2306.94439	21572.625
2309.80474	21627.925
2312.66327	21626.025
2315.51999	21631.925
2318.37489	21676.725
2321.22797	21636.725
2324.07925	21625.825
2326.92871	21604.625
2329.77637	21594.725
2332.62222	21612.825
2335.46626	21662.625
2338.3085	21630.625
2341.14893	21647.725
2343.98756	21682.325
2346.8244	21714.125
2349.65943	21774.625
2352.49267	21755.025
2355.32411	21736.425
2358.15376	21722.225
2360.98161	21699.925
2363.80768	21696.725
2366.63195	21669.025
2369.45444	21602.825
2372.27514	21567.025
2375.09405	21524.725
2377.91118	21469.825
2380.72652	21355.125
2383.54009	21309.425
2386.35187	21268.825
2389.16188	21275.925
2391.97011	21234.025
2394.77657	21178.625
2397.58125	21189.725
2400.38416	21147.325
2403.18529	21091.925
2405.98466	21068.325
2408.78226	21023.025
2411.57809	20986.925
2414.37216	20965.725
2417.16446	20923.525
2419.955	20874.825
2422.74378	20903.325
2425.5308	20809.225
2428.31606	20778.425
2431.09956	20824.025
2433.88131	20762.425
2436.6613	20782.025
2439.43954	20770.325
2442.21603	20756.825
2444.99077	20742.125
2447.76377	20755.925
2450.53501	20720.125
2453.30451	20712.725
2456.07226	20688.425
2458.83827	20693.725
2461.60254	20706.425
2464.36507	20665.725
2467.12586	20655.925
2469.88492	20661.425
2472.64224	20672.225
2475.39782	20683.825
2478.15167	20713.925
2480.90379	20749.825
2483.65417	20851.425
2486.40283	20865.125
2489.14976	20887.125
2491.89497	20921.025
2494.63845	20939.425
2497.3802	20935.525
2500.12024	20948.225
2502.85855	20896.225
2505.59514	20821.425
2508.33002	20810.125
2511.06318	20771.125
2513.79462	20749.925
2516.52435	20662.325
2519.25237	20681.525
2521.97867	20636.325
2524.70327	20638.625
2527.42616	20608.725
2530.14734	20602.425
2532.86681	20619.025
2535.58458	20645.525
2538.30065	20630.425
2541.01501	20611.125
2543.72768	20639.225
2546.43864	20585.425
2549.14791	20554.625
2551.85548	20538.025
2554.56136	20496.425
2557.26554	20497.825
2559.96803	20456.725
2562.66883	20445.625
2565.36794	20404.225
2568.06536	20416.325
2570.7611	20428.225
2573.45514	20404.925
2576.14751	20410.225
2578.83819	20424.625
2581.52719	20396.625
2584.21451	20374.925
2586.90015	20364.025
2589.58411	20434.525
2592.2664	20441.925
2594.94701	20399.925
2597.62594	20425.725
2600.30321	20392.625
2602.9788	20350.125
2605.65273	20324.425
2608.32498	20362.425
2610.99557	20352.825
2613.66449	20391.625
2616.33175	20372.025
2618.99734	20394.025
2621.66128	20387.725
2624.32355	20436.325
2626.98416	20428.425
2629.64311	20419.825
2632.30041	20405.125
2634.95605	20359.825
2637.61004	20352.625
2640.26238	20342.425
2642.91306	20360.125
2645.56209	20298.225
2648.20948	20267.025
2650.85521	20245.525
2653.4993	20222.525
2656.14175	20200.725
2658.78255	20242.225
2661.42171	20270.225
2664.05923	20326.425
2666.6951	20307.025
2669.32934	20343.625
2671.96194	20374.225
2674.59291	20367.225
2677.22224	20356.925
2679.84993	20393.025
2682.476	20332.325
2685.10043	20350.825
2687.72324	20306.525
2690.34441	20285.325
2692.96396	20271.025
2695.58188	20268.125
2698.19818	20228.725
2700.81285	20209.925
2703.4259	20216.525
2706.03733	20290.025
2708.64714	20265.525
2711.25533	20298.025
2713.86191	20259.025
2716.46687	20319.325
2719.07021	20283.425
2721.67194	20292.525
2724.27206	20319.025
2726.87057	20349.825
2729.46747	20326.325
2732.06276	20381.125
2734.65644	20353.725
2737.24852	20329.925
2739.83899	20282.025
2742.42786	20306.725
2745.01513	20219.925
2747.60079	20250.625
2750.18486	20277.425
2752.76733	20254.825
2755.3482	20273.325
2757.92747	20242.725
2760.50515	20206.825
2763.08123	20176.525
2765.65573	20183.425
2768.22863	20205.725
2770.79994	20196.025
2773.36967	20170.425
2775.9378	20161.725
2778.50435	20143.125
2781.06932	20155.225
2783.6327	20139.725
2786.1945	20156.825
2788.75471	20159.825
2791.31335	20096.725
2793.87041	20062.725
2796.42589	20013.325
2798.97979	20034.025
2801.53212	19982.025
2804.08288	20014.425
2806.63206	19951.125
2809.17967	19937.625
2811.72571	19908.125
2814.27018	19884.425
2816.81308	19834.825
2819.35442	19824.525
2821.89419	19819.225
2824.43239	19853.125
2826.96904	19821.625
2829.50412	19816.725
2832.03763	19756.325
2834.56959	19803.725
2837.1	19794.725
2839.62884	19812.525
2842.15613	19758.525
2844.68186	19757.325
2847.20604	19753.025
2849.72867	19753.125
2852.24974	19726.625
2854.76927	19738.625
2857.28724	19732.325
2859.80367	19694.525
2862.31855	19695.125
2864.83189	19691.925
2867.34368	19685.625
2869.85393	19636.425
2872.36264	19630.925
2874.8698	19591.525
2877.37543	19625.025
2879.87952	19593.725
2882.38207	19619.925
2884.88308	19604.925
2887.38256	19640.525
2889.88051	19622.725
2892.37692	19610.725
2894.8718	19638.125
2897.36515	19663.225
2899.85698	19617.925
2902.34727	19643.125
2904.83604	19685.725
2907.32328	19708.125
2909.809	19720.225
2912.29319	19737.925
2914.77587	19732.525
2917.25702	19733.425
2919.73665	19697.625
2922.21476	19688.125
2924.69136	19674.925
2927.16644	19650.125
2929.64	19629.125
2932.11205	19595.725
2934.58258	19472.025
2937.05161	19470.425
2939.51912	19473.425
2941.98513	19451.725
2944.44962	19440.725
2946.91261	19377.225
2949.37409	19403.225
2951.83407	19398.825
2954.29254	19396.025
2956.74951	19386.325
2959.20498	19368.025
2961.65895	19391.225
2964.11142	19391.525
2966.56239	19339.325
2969.01186	19308.025
2971.45984	19246.825
2973.90632	19206.425
2976.35131	19158.425
2978.7948	19110.125
2981.23681	19073.125
2983.67732	19070.525
2986.11635	19019.925
2988.55388	19021.025
2990.98993	18952.125
2993.4245	18917.625
2995.85758	18870.625
2998.28917	18815.225
3000.71928	18784.225
3003.14791	18718.225
3005.57506	18717.425
3008.00073	18611.725
3010.42493	18614.025
3012.84764	18596.025
3015.26888	18576.225
3017.68865	18549.525
3020.10694	18499.925
3022.52376	18484.725
3024.9391	18429.525
3027.35298	18413.425
3029.76539	18410.325
3032.17632	18399.025
3034.5858	18406.725
3036.9938	18408.025
3039.40034	18388.825
3041.80542	18354.625
3044.20903	18334.025
3046.61118	18300.625
3049.01187	18218.325
3051.4111	18215.625
3053.80888	18186.825
3056.20519	18172.425
3058.60005	18107.125
3060.99345	18050.925
3063.3854	18000.125
3065.7759	17934.825
3068.16494	17893.725
3070.55254	17827.325
3072.93868	17803.725
3075.32338	17719.525
3077.70662	17639.825
3080.08842	17624.825
3082.46878	17600.725
3084.84769	17573.825
3087.22515	17584.225
3089.60118	17596.425
3091.97576	17558.925
3094.3489	17554.525
3096.72061	17571.225
3099.09087	17547.425
3101.4597	17537.825
3103.82709	17543.925
3106.19305	17546.525
3108.55757	17492.225
3110.92066	17442.425
3113.28232	17442.825
3115.64255	17428.025
3118.00134	17397.725
3120.35871	17358.925
3122.71466	17318.125
3125.06917	17287.425
3127.42226	17220.625
3129.77393	17258.425
