Data from AgNPs_UA_100uM_CRN_0uM_R6G_10uM_Q_RamanShift__3__13-15-55-310.txt Node

Date: Tue Jul 26 13:15:55 BST 2022
User: TCL
Spectrometer: QEP01345
Trigger mode: 4
Integration Time (sec): 7.000000E0
Scans to average: 10
Electric dark correction enabled: true
Nonlinearity correction enabled: false
Boxcar width: 0
XAxis mode: Raman Shifts
Number of Pixels in Spectrum: 1044
>>>>>Begin Spectral Data<<<<<
46.04893	-1.6875
50.45542	0.5125
54.85868	-0.2875
59.25871	0.3125
63.6555	75.0125
68.04907	80.3125
72.43941	86.3125
76.82654	90.1125
81.21044	92.8125
85.59113	96.0125
89.96862	103.3125
94.34289	108.5125
98.71396	109.2125
103.08183	112.2125
107.4465	111.4125
111.80798	114.3125
116.16626	116.3125
120.52136	121.7125
124.87327	122.7125
129.222	128.1125
133.56755	134.1125
137.90993	141.0125
142.24913	151.2125
146.58517	162.6125
150.91804	180.4125
155.24774	206.0125
159.57429	249.2125
163.89768	309.8125
168.21792	405.3125
172.53501	541.4125
176.84895	745.3125
181.15975	1041.7125
185.46741	1449.0125
189.77193	1991.9125
194.07331	2660.3125
198.37157	3392.8125
202.6667	4182.3125
206.9587	4982.8125
211.24758	5756.9125
215.53334	6547.6125
219.81599	7398.1125
224.09553	8318.3125
228.37195	9325.2125
232.64527	10487.1125
236.91549	11658.3125
241.18261	12777.8125
245.44663	13806.2125
249.70755	14670.4125
253.96539	15416.5125
258.22014	16061.0125
262.4718	16568.8125
266.72039	16927.3125
270.96589	17106.4125
275.20832	17086.9125
279.44768	16881.8125
283.68397	16678.1125
287.91719	16532.7125
292.14735	16468.8125
296.37445	16573.2125
300.59849	16797.4125
304.81948	17127.6125
309.03742	17330.4125
313.25231	17430.4125
317.46415	17146.0125
321.67296	16700.6125
325.87872	16256.3125
330.08145	16112.2125
334.28114	16101.2125
338.47781	16260.2125
342.67145	16525.1125
346.86207	16856.5125
351.04966	17278.8125
355.23424	17748.3125
359.4158	18083.8125
363.59435	18347.9125
367.76989	18509.2125
371.94243	18550.9125
376.11196	18592.0125
380.27849	18642.9125
384.44203	18672.1125
388.60257	18731.5125
392.76012	18902.6125
396.91468	19057.6125
401.06626	19347.1125
405.21485	19520.6125
409.36047	19403.8125
413.50311	19042.0125
417.64277	18691.3125
421.77947	18508.5125
425.9132	18519.8125
430.04396	18622.3125
434.17176	18803.0125
438.2966	18955.5125
442.41849	19221.3125
446.53742	19541.2125
450.6534	19853.8125
454.76644	20075.6125
458.87653	20134.7125
462.98368	20063.3125
467.08789	19983.6125
471.18916	19823.6125
475.2875	19521.7125
479.38291	19316.0125
483.4754	19142.7125
487.56496	19001.9125
491.6516	18989.7125
495.73531	19059.9125
499.81612	19104.2125
503.89401	19233.6125
507.96899	19312.4125
512.04106	19375.1125
516.11023	19468.6125
520.1765	19492.5125
524.23987	19547.8125
528.30034	19531.9125
532.35792	19482.0125
536.41261	19399.7125
540.46441	19216.9125
544.51333	19183.6125
548.55936	19310.2125
552.60252	19572.7125
556.64279	19831.1125
560.6802	19969.8125
564.71473	20020.8125
568.7464	20248.5125
572.7752	20374.3125
576.80114	20429.2125
580.82422	20548.5125
584.84444	20792.6125
588.86181	20998.2125
592.87633	21078.3125
596.888	21270.4125
600.89682	21640.6125
604.9028	22866.9125
608.90594	25703.5125
612.90624	28553.7125
616.90371	26977.3125
620.89834	22433.6125
624.89015	20459.0125
628.87913	20246.5125
632.86528	20534.4125
636.84862	20773.0125
640.82913	20591.1125
644.80683	20093.4125
648.78172	19739.7125
652.75379	19784.6125
656.72306	20095.3125
660.68952	20465.8125
664.65319	20355.3125
668.61405	19966.9125
672.57211	19876.5125
676.52738	19947.1125
680.47986	19877.0125
684.42955	19770.3125
688.37646	19699.4125
692.32058	19786.1125
696.26192	19973.8125
700.20048	20173.1125
704.13626	20320.0125
708.06928	20301.5125
711.99952	20177.1125
715.927	20148.7125
719.85171	20194.4125
723.77365	20252.8125
727.69284	20149.5125
731.60928	20045.6125
735.52295	20026.4125
739.43388	20079.3125
743.34206	20111.7125
747.24749	20179.3125
751.15017	20281.1125
755.05012	20499.6125
758.94733	20987.5125
762.8418	22216.5125
766.73354	24136.0125
770.62254	25848.2125
774.50882	26266.2125
778.39237	25271.3125
782.27321	23516.0125
786.15132	21979.1125
790.02671	21015.0125
793.89938	20516.8125
797.76935	20300.7125
801.6366	20224.1125
805.50115	20157.6125
809.36299	20112.2125
813.22213	20018.7125
817.07857	19994.6125
820.93231	20002.3125
824.78336	20004.7125
828.63172	20017.3125
832.47738	20037.1125
836.32036	19965.6125
840.16066	19982.7125
843.99827	19954.0125
847.8332	19973.2125
851.66546	19979.6125
855.49504	20052.5125
859.32195	20060.9125
863.1462	20041.2125
866.96777	20034.8125
870.78668	20074.6125
874.60293	20113.6125
878.41652	20216.6125
882.22745	20287.5125
886.03573	20412.2125
889.84136	20416.6125
893.64433	20358.3125
897.44466	20268.0125
901.24235	20230.9125
905.0374	20206.1125
908.8298	20149.5125
912.61957	20109.1125
916.40671	20157.5125
920.19121	20252.8125
923.97308	20378.6125
927.75233	20455.0125
931.52895	20471.7125
935.30295	20349.0125
939.07433	20085.9125
942.84309	19860.9125
946.60924	19792.2125
950.37278	19743.1125
954.13371	19714.5125
957.89203	19724.3125
961.64774	19715.3125
965.40086	19692.6125
969.15137	19687.3125
972.89929	19670.3125
976.64461	19633.1125
980.38733	19666.6125
984.12747	19715.8125
987.86502	19802.6125
991.59999	19906.4125
995.33237	20060.2125
999.06217	20268.7125
1002.78939	20573.2125
1006.51404	20801.4125
1010.23611	21128.0125
1013.95561	21302.0125
1017.67255	21329.6125
1021.38692	21171.5125
1025.09872	21017.1125
1028.80796	20828.1125
1032.51465	20821.9125
1036.21877	20874.3125
1039.92035	20930.8125
1043.61937	20984.5125
1047.31584	20938.4125
1051.00976	20957.3125
1054.70114	20949.7125
1058.38998	20995.2125
1062.07627	21150.1125
1065.76003	21301.0125
1069.44126	21514.7125
1073.11995	21819.7125
1076.79611	22105.8125
1080.46974	22348.3125
1084.14085	22530.8125
1087.80943	22699.2125
1091.47549	22799.2125
1095.13903	22695.9125
1098.80005	22415.0125
1102.45857	22125.0125
1106.11456	21929.6125
1109.76805	21824.2125
1113.41903	21938.1125
1117.06751	22163.1125
1120.71348	22514.2125
1124.35696	22899.2125
1127.99793	23247.8125
1131.63641	23182.1125
1135.2724	22841.1125
1138.90589	22505.1125
1142.5369	22315.0125
1146.16542	22164.5125
1149.79145	22009.4125
1153.415	21956.7125
1157.03607	21998.3125
1160.65467	22196.0125
1164.27079	22636.1125
1167.88443	23324.5125
1171.49561	24326.1125
1175.10432	25754.9125
1178.71056	27603.2125
1182.31434	29221.9125
1185.91565	30013.8125
1189.51451	30011.0125
1193.11091	29485.4125
1196.70485	28604.2125
1200.29634	27616.2125
1203.88538	26717.6125
1207.47197	25801.3125
1211.05612	24926.6125
1214.63782	24334.9125
1218.21708	23991.8125
1221.79391	23807.6125
1225.36829	23764.5125
1228.94024	23732.3125
1232.50976	23678.5125
1236.07685	23625.0125
1239.6415	23592.0125
1243.20374	23652.7125
1246.76355	23740.9125
1250.32093	23923.3125
1253.8759	24188.4125
1257.42845	24639.1125
1260.97859	25211.0125
1264.52631	25736.3125
1268.07163	26206.7125
1271.61453	26639.3125
1275.15503	26953.8125
1278.69312	27189.2125
1282.22882	27351.5125
1285.76211	27642.8125
1289.29301	28141.6125
1292.82151	28675.1125
1296.34761	29298.0125
1299.87133	30240.4125
1303.39266	31578.9125
1306.9116	33435.7125
1310.42815	35265.2125
1313.94233	36117.3125
1317.45412	35524.3125
1320.96354	34313.8125
1324.47058	33011.5125
1327.97525	31950.2125
1331.47754	31231.6125
1334.97747	31048.8125
1338.47502	31203.5125
1341.97022	31679.6125
1345.46305	32531.4125
1348.95352	33694.9125
1352.44163	35025.3125
1355.92738	36694.4125
1359.41078	38948.0125
1362.89183	40807.5125
1366.37053	39857.1125
1369.84688	35915.4125
1373.32088	31934.1125
1376.79254	29324.6125
1380.26186	28018.8125
1383.72883	27276.2125
1387.19347	26721.7125
1390.65578	26140.7125
1394.11575	25522.0125
1397.57339	25109.9125
1401.0287	24948.2125
1404.48168	24831.4125
1407.93234	24891.3125
1411.38068	24925.0125
1414.82669	24970.7125
1418.27039	24812.8125
1421.71177	24617.0125
1425.15083	24379.0125
1428.58758	24233.1125
1432.02203	24311.8125
1435.45416	24513.0125
1438.88399	24668.2125
1442.31151	24735.9125
1445.73673	24807.8125
1449.15965	24883.1125
1452.58027	24858.5125
1455.9986	24815.6125
1459.41463	24868.7125
1462.82837	25182.4125
1466.23982	25584.7125
1469.64898	26064.1125
1473.05586	26548.6125
1476.46045	26817.3125
1479.86276	27082.3125
1483.26279	27340.2125
1486.66054	27742.0125
1490.05602	28242.8125
1493.44922	29045.9125
1496.84016	30280.5125
1500.22882	32232.7125
1503.61521	34643.0125
1506.99934	37158.1125
1510.38121	38602.6125
1513.76081	38186.3125
1517.13816	35985.4125
1520.51324	33162.4125
1523.88607	30842.9125
1527.25665	29382.8125
1530.62498	28671.2125
1533.99105	28276.8125
1537.35488	27984.4125
1540.71647	27683.5125
1544.07581	27357.9125
1547.4329	27067.0125
1550.78776	26778.6125
1554.14038	26685.6125
1557.49077	26681.6125
1560.83892	26808.1125
1564.18484	27106.9125
1567.52853	27557.0125
1570.86999	27921.8125
1574.20922	28210.5125
1577.54624	28021.6125
1580.88103	27306.2125
1584.2136	26448.1125
1587.54395	26004.7125
1590.87208	26243.2125
1594.19801	27077.1125
1597.52172	28105.1125
1600.84321	28547.7125
1604.16251	28224.3125
1607.47959	27435.3125
1610.79447	26389.9125
1614.10715	25256.7125
1617.41763	24180.1125
1620.7259	23372.4125
1624.03199	22872.3125
1627.33587	22765.4125
1630.63757	22957.0125
1633.93707	23566.6125
1637.23439	24688.1125
1640.52951	26437.6125
1643.82246	28738.0125
1647.11321	30978.5125
1650.40179	32063.5125
1653.68819	31045.2125
1656.97241	28383.6125
1660.25446	25526.9125
1663.53433	23418.7125
1666.81203	22061.9125
1670.08756	21241.4125
1673.36092	20692.4125
1676.63211	20363.1125
1679.90115	20100.0125
1683.16801	19899.2125
1686.43272	19725.0125
1689.69527	19568.7125
1692.95567	19490.3125
1696.2139	19436.6125
1699.46999	19382.5125
1702.72392	19283.8125
1705.97571	19268.6125
1709.22535	19272.5125
1712.47284	19221.0125
1715.71819	19223.0125
1718.96139	19181.6125
1722.20246	19159.8125
1725.44139	19099.3125
1728.67818	19017.5125
1731.91284	18918.4125
1735.14537	18873.1125
1738.37576	18806.6125
1741.60403	18766.5125
1744.83017	18704.1125
1748.05418	18650.0125
1751.27607	18623.9125
1754.49584	18603.9125
1757.71349	18592.1125
1760.92903	18569.9125
1764.14244	18549.7125
1767.35375	18552.8125
1770.56294	18527.8125
1773.77002	18500.3125
1776.97499	18475.1125
1780.17785	18436.5125
1783.37861	18426.3125
1786.57727	18420.2125
1789.77382	18396.3125
1792.96828	18373.5125
1796.16064	18318.7125
1799.3509	18320.4125
1802.53907	18302.3125
1805.72514	18230.5125
1808.90913	18169.6125
1812.09102	18150.1125
1815.27083	18116.5125
1818.44856	18141.6125
1821.6242	18103.0125
1824.79776	18082.1125
1827.96924	18012.0125
1831.13864	18020.6125
1834.30597	17992.3125
1837.47122	17986.3125
1840.6344	17959.4125
1843.7955	18006.6125
1846.95454	17993.9125
1850.11151	17980.5125
1853.26642	17962.2125
1856.41926	17947.9125
1859.57004	17916.6125
1862.71876	17920.4125
1865.86542	17929.3125
1869.01003	17884.6125
1872.15258	17880.0125
1875.29308	17868.4125
1878.43152	17839.2125
1881.56792	17828.0125
1884.70227	17787.2125
1887.83457	17765.8125
1890.96482	17733.0125
1894.09304	17713.5125
1897.21921	17708.3125
1900.34335	17676.7125
1903.46544	17665.3125
1906.58551	17669.5125
1909.70353	17679.3125
1912.81953	17618.9125
1915.93349	17619.8125
1919.04543	17578.0125
1922.15534	17581.8125
1925.26322	17575.3125
1928.36908	17546.6125
1931.47292	17504.6125
1934.57473	17455.5125
1937.67453	17390.8125
1940.77232	17390.4125
1943.86808	17332.8125
1946.96184	17279.1125
1950.05358	17226.5125
1953.14331	17203.9125
1956.23103	17154.4125
1959.31675	17132.4125
1962.40046	17080.6125
1965.48217	17021.7125
1968.56188	16975.7125
1971.63959	16934.6125
1974.7153	16871.7125
1977.78901	16875.2125
1980.86073	16817.8125
1983.93046	16743.2125
1986.99819	16705.9125
1990.06394	16683.7125
1993.1277	16623.3125
1996.18947	16563.0125
1999.24925	16492.9125
2002.30706	16485.1125
2005.36288	16423.6125
2008.41672	16390.5125
2011.46859	16329.9125
2014.51848	16269.4125
2017.56639	16260.2125
2020.61233	16227.0125
2023.6563	16215.5125
2026.6983	16128.9125
2029.73833	16123.9125
2032.7764	16058.1125
2035.8125	16063.8125
2038.84664	16005.9125
2041.87881	16004.5125
2044.90903	15976.0125
2047.93729	15950.4125
2050.96359	15934.7125
2053.98794	15935.8125
2057.01034	15898.5125
2060.03078	15926.2125
2063.04927	15866.9125
2066.06582	15832.3125
2069.08042	15880.3125
2072.09307	15834.8125
2075.10378	15838.8125
2078.11255	15816.9125
2081.11938	15847.1125
2084.12426	15847.9125
2087.12722	15859.9125
2090.12824	15819.8125
2093.12732	15835.2125
2096.12447	15844.5125
2099.11969	15837.8125
2102.11299	15821.2125
2105.10435	15857.3125
2108.09379	15862.4125
2111.08131	15880.8125
2114.0669	15851.5125
2117.05057	15886.8125
2120.03233	15925.7125
2123.01216	15958.8125
2125.99008	15954.5125
2128.96609	15966.4125
2131.94018	15998.9125
2134.91236	15997.5125
2137.88263	16024.8125
2140.851	15982.5125
2143.81746	16032.2125
2146.78201	16029.4125
2149.74466	16036.3125
2152.7054	16020.0125
2155.66425	16022.9125
2158.6212	16015.7125
2161.57625	16018.1125
2164.52941	16017.6125
2167.48067	16040.5125
2170.43004	16010.7125
2173.37752	16117.9125
2176.32311	16009.6125
2179.26681	15990.4125
2182.20863	15993.0125
2185.14856	15994.7125
2188.08661	15999.0125
2191.02278	16006.9125
2193.95707	15994.9125
2196.88948	16001.3125
2199.82001	15995.7125
2202.74867	15945.3125
2205.67545	15957.2125
2208.60037	15944.5125
2211.52341	15927.5125
2214.44458	15898.2125
2217.36388	15883.0125
2220.28132	15817.0125
2223.1969	15730.5125
2226.11061	15739.7125
2229.02246	15729.8125
2231.93245	15732.2125
2234.84058	15717.1125
2237.74686	15660.5125
2240.65128	15645.3125
2243.55385	15625.9125
2246.45456	15631.7125
2249.35343	15616.1125
2252.25044	15595.9125
2255.14561	15585.1125
2258.03893	15578.8125
2260.93041	15537.7125
2263.82004	15488.3125
2266.70783	15498.2125
2269.59378	15461.1125
2272.4779	15449.4125
2275.36017	15413.1125
2278.24061	15396.5125
2281.11922	15353.0125
2283.996	15337.7125
2286.87094	15327.7125
2289.74405	15292.2125
2292.61534	15277.5125
2295.4848	15248.2125
2298.35243	15257.4125
2301.21824	15239.9125
2304.08223	15250.7125
2306.94439	15227.1125
2309.80474	15231.8125
2312.66327	15232.3125
2315.51999	15209.6125
2318.37489	15189.8125
2321.22797	15189.7125
2324.07925	15142.5125
2326.92871	15137.7125
2329.77637	15143.5125
2332.62222	15074.3125
2335.46626	15063.7125
2338.3085	15027.7125
2341.14893	15011.1125
2343.98756	14999.7125
2346.8244	15005.3125
2349.65943	15006.3125
2352.49267	14956.9125
2355.32411	14978.1125
2358.15376	14974.4125
2360.98161	14988.7125
2363.80768	14978.4125
2366.63195	14958.9125
2369.45444	14960.8125
2372.27514	14964.0125
2375.09405	14951.1125
2377.91118	14916.0125
2380.72652	14893.0125
2383.54009	14873.6125
2386.35187	14840.1125
2389.16188	14793.1125
2391.97011	14772.0125
2394.77657	14731.4125
2397.58125	14711.1125
2400.38416	14680.4125
2403.18529	14646.7125
2405.98466	14665.6125
2408.78226	14623.2125
2411.57809	14614.0125
2414.37216	14602.5125
2417.16446	14624.6125
2419.955	14552.6125
2422.74378	14567.6125
2425.5308	14609.2125
2428.31606	14583.9125
2431.09956	14600.2125
2433.88131	14542.2125
2436.6613	14519.6125
2439.43954	14537.7125
2442.21603	14554.0125
2444.99077	14530.6125
2447.76377	14560.5125
2450.53501	14512.4125
2453.30451	14476.2125
2456.07226	14431.7125
2458.83827	14457.6125
2461.60254	14429.3125
2464.36507	14441.6125
2467.12586	14428.6125
2469.88492	14408.2125
2472.64224	14423.5125
2475.39782	14428.9125
2478.15167	14436.2125
2480.90379	14389.7125
2483.65417	14398.7125
2486.40283	14400.4125
2489.14976	14390.2125
2491.89497	14377.9125
2494.63845	14384.4125
2497.3802	14346.0125
2500.12024	14403.3125
2502.85855	14365.5125
2505.59514	14313.6125
2508.33002	14303.3125
2511.06318	14307.3125
2513.79462	14276.0125
2516.52435	14261.4125
2519.25237	14263.6125
2521.97867	14224.8125
2524.70327	14195.3125
2527.42616	14183.4125
2530.14734	14189.4125
2532.86681	14161.7125
2535.58458	14151.8125
2538.30065	14109.1125
2541.01501	14127.7125
2543.72768	14098.9125
2546.43864	14072.5125
2549.14791	14048.1125
2551.85548	14053.8125
2554.56136	14042.8125
2557.26554	14022.8125
2559.96803	13993.0125
2562.66883	13999.7125
2565.36794	13954.4125
2568.06536	13945.6125
2570.7611	13909.9125
2573.45514	13879.4125
2576.14751	13870.8125
2578.83819	13907.1125
2581.52719	13841.7125
2584.21451	13825.9125
2586.90015	13834.5125
2589.58411	13772.6125
2592.2664	13760.1125
2594.94701	13757.0125
2597.62594	13759.8125
2600.30321	13723.3125
2602.9788	13700.8125
2605.65273	13664.9125
2608.32498	13669.8125
2610.99557	13664.2125
2613.66449	13672.7125
2616.33175	13656.8125
2618.99734	13624.4125
2621.66128	13617.6125
2624.32355	13559.8125
2626.98416	13588.2125
2629.64311	13557.8125
2632.30041	13533.3125
2634.95605	13520.5125
2637.61004	13508.3125
2640.26238	13501.9125
2642.91306	13502.0125
2645.56209	13463.8125
2648.20948	13475.9125
2650.85521	13446.3125
2653.4993	13466.7125
2656.14175	13447.9125
2658.78255	13443.6125
2661.42171	13437.4125
2664.05923	13494.8125
2666.6951	13478.2125
2669.32934	13485.8125
2671.96194	13489.0125
2674.59291	13475.9125
2677.22224	13453.0125
2679.84993	13473.1125
2682.476	13463.7125
2685.10043	13472.5125
2687.72324	13453.3125
2690.34441	13440.7125
2692.96396	13462.2125
2695.58188	13444.2125
2698.19818	13414.0125
2700.81285	13431.8125
2703.4259	13376.2125
2706.03733	13453.5125
2708.64714	13430.4125
2711.25533	13465.0125
2713.86191	13439.2125
2716.46687	13456.7125
2719.07021	13429.4125
2721.67194	13451.2125
2724.27206	13454.0125
2726.87057	13465.2125
2729.46747	13439.8125
2732.06276	13453.4125
2734.65644	13427.0125
2737.24852	13461.9125
2739.83899	13423.4125
2742.42786	13435.8125
2745.01513	13398.3125
2747.60079	13386.9125
2750.18486	13375.6125
2752.76733	13362.8125
2755.3482	13355.0125
2757.92747	13346.1125
2760.50515	13300.8125
2763.08123	13290.1125
2765.65573	13317.2125
2768.22863	13296.7125
2770.79994	13268.4125
2773.36967	13241.9125
2775.9378	13220.2125
2778.50435	13202.6125
2781.06932	13196.5125
2783.6327	13189.1125
2786.1945	13164.8125
2788.75471	13174.9125
2791.31335	13145.2125
2793.87041	13121.6125
2796.42589	13106.9125
2798.97979	13102.2125
2801.53212	13072.8125
2804.08288	13052.7125
2806.63206	13002.4125
2809.17967	12995.1125
2811.72571	12971.4125
2814.27018	12944.5125
2816.81308	12913.0125
2819.35442	12887.1125
2821.89419	12843.2125
2824.43239	12886.7125
2826.96904	12840.4125
2829.50412	12838.7125
2832.03763	12774.8125
2834.56959	12786.2125
2837.1	12770.8125
2839.62884	12775.4125
2842.15613	12736.3125
2844.68186	12770.6125
2847.20604	12747.0125
2849.72867	12723.4125
2852.24974	12705.5125
2854.76927	12682.7125
2857.28724	12696.5125
2859.80367	12699.2125
2862.31855	12701.4125
2864.83189	12676.7125
2867.34368	12626.2125
2869.85393	12644.6125
2872.36264	12582.1125
2874.8698	12582.2125
2877.37543	12592.6125
2879.87952	12587.4125
2882.38207	12567.9125
2884.88308	12593.0125
2887.38256	12593.9125
2889.88051	12563.0125
2892.37692	12597.3125
2894.8718	12560.0125
2897.36515	12581.5125
2899.85698	12555.7125
2902.34727	12601.5125
2904.83604	12606.7125
2907.32328	12639.4125
2909.809	12620.5125
2912.29319	12640.2125
2914.77587	12632.6125
2917.25702	12625.7125
2919.73665	12613.8125
2922.21476	12608.6125
2924.69136	12601.1125
2927.16644	12576.1125
2929.64	12567.5125
2932.11205	12562.6125
2934.58258	12490.5125
2937.05161	12519.0125
2939.51912	12544.4125
2941.98513	12552.9125
2944.44962	12536.7125
2946.91261	12472.8125
2949.37409	12506.4125
2951.83407	12484.0125
2954.29254	12491.1125
2956.74951	12479.9125
2959.20498	12463.9125
2961.65895	12456.6125
2964.11142	12467.8125
2966.56239	12460.8125
2969.01186	12482.3125
2971.45984	12472.1125
2973.90632	12468.8125
2976.35131	12429.1125
2978.7948	12429.0125
2981.23681	12442.0125
2983.67732	12398.8125
2986.11635	12375.6125
2988.55388	12332.1125
2990.98993	12301.2125
2993.4245	12269.9125
2995.85758	12279.2125
2998.28917	12247.1125
3000.71928	12216.9125
3003.14791	12196.7125
3005.57506	12204.1125
3008.00073	12136.6125
3010.42493	12161.8125
3012.84764	12127.6125
3015.26888	12128.8125
3017.68865	12087.4125
3020.10694	12112.4125
3022.52376	12057.6125
3024.9391	12042.5125
3027.35298	12035.1125
