Data from AgNPs_UA_100uM_CRN_0uM_R6G_10uM_Q_RamanShift__15__13-29-55-327.txt Node

Date: Tue Jul 26 13:29:55 BST 2022
User: TCL
Spectrometer: QEP01345
Trigger mode: 4
Integration Time (sec): 7.000000E0
Scans to average: 10
Electric dark correction enabled: true
Nonlinearity correction enabled: false
Boxcar width: 0
XAxis mode: Raman Shifts
Number of Pixels in Spectrum: 1044
>>>>>Begin Spectral Data<<<<<
46.04893	-1.125
50.45542	0.075
54.85868	-1.025
59.25871	-0.225
63.6555	66.175
68.04907	72.475
72.43941	76.475
76.82654	80.775
81.21044	84.975
85.59113	84.675
89.96862	88.575
94.34289	95.275
98.71396	95.475
103.08183	97.775
107.4465	96.375
111.80798	99.675
116.16626	104.975
120.52136	105.775
124.87327	106.775
129.222	112.175
133.56755	111.275
137.90993	117.775
142.24913	126.075
146.58517	133.075
150.91804	143.075
155.24774	169.775
159.57429	194.975
163.89768	240.875
168.21792	307.575
172.53501	411.275
176.84895	555.275
181.15975	771.375
185.46741	1075.675
189.77193	1481.375
194.07331	1978.775
198.37157	2537.375
202.6667	3127.475
206.9587	3716.975
211.24758	4281.275
215.53334	4837.075
219.81599	5438.375
224.09553	6061.675
228.37195	6756.575
232.64527	7543.675
236.91549	8376.675
241.18261	9265.575
245.44663	10143.475
249.70755	11003.975
253.96539	11724.475
258.22014	12316.475
262.4718	12782.475
266.72039	13064.175
270.96589	13204.375
275.20832	13190.075
279.44768	13094.575
283.68397	12917.075
287.91719	12748.675
292.14735	12576.375
296.37445	12455.775
300.59849	12385.575
304.81948	12310.975
309.03742	12258.975
313.25231	12223.075
317.46415	12178.275
321.67296	12175.275
325.87872	12154.775
330.08145	12239.675
334.28114	12379.775
338.47781	12515.875
342.67145	12664.675
346.86207	12852.875
351.04966	13041.275
355.23424	13218.275
359.4158	13418.575
363.59435	13597.775
367.76989	13802.575
371.94243	13957.775
376.11196	14107.775
380.27849	14236.475
384.44203	14390.675
388.60257	14522.875
392.76012	14655.475
396.91468	14790.775
401.06626	14918.575
405.21485	15087.175
409.36047	15177.375
413.50311	15202.175
417.64277	15243.875
421.77947	15282.475
425.9132	15376.575
430.04396	15478.975
434.17176	15629.375
438.2966	15749.475
442.41849	15894.875
446.53742	16036.175
450.6534	16183.675
454.76644	16306.375
458.87653	16470.575
462.98368	16582.375
467.08789	16634.475
471.18916	16689.375
475.2875	16698.875
479.38291	16687.575
483.4754	16724.475
487.56496	16744.675
491.6516	16765.475
495.73531	16829.575
499.81612	16843.175
503.89401	16936.275
507.96899	17007.775
512.04106	17056.875
516.11023	17140.975
520.1765	17137.775
524.23987	17208.675
528.30034	17272.775
532.35792	17295.375
536.41261	17334.475
540.46441	17338.775
544.51333	17359.975
548.55936	17418.775
552.60252	17504.375
556.64279	17625.175
560.6802	17699.275
564.71473	17794.775
568.7464	17797.375
572.7752	17843.875
576.80114	17893.875
580.82422	17949.975
584.84444	18018.175
588.86181	18067.575
592.87633	18162.575
596.888	18218.875
600.89682	18412.975
604.9028	18747.775
608.90594	19259.575
612.90624	19770.975
616.90371	19496.175
620.89834	18890.175
624.89015	18622.375
628.87913	18619.275
632.86528	18757.275
636.84862	18864.175
640.82913	18885.975
644.80683	18822.775
648.78172	18834.775
652.75379	18898.375
656.72306	18981.375
660.68952	19144.175
664.65319	19179.775
668.61405	19206.475
672.57211	19313.875
676.52738	19370.175
680.47986	19367.075
684.42955	19418.175
688.37646	19419.575
692.32058	19519.375
696.26192	19614.675
700.20048	19726.275
704.13626	19841.075
708.06928	19887.675
711.99952	19887.575
715.927	19863.075
719.85171	19882.075
723.77365	19934.975
727.69284	19907.275
731.60928	19888.475
735.52295	19917.475
739.43388	19981.375
743.34206	20008.875
747.24749	20069.875
751.15017	20111.375
755.05012	20218.475
758.94733	20319.675
762.8418	20464.675
766.73354	20728.675
770.62254	21011.775
774.50882	21173.075
778.39237	21158.875
782.27321	21023.675
786.15132	20807.175
790.02671	20640.975
793.89938	20556.775
797.76935	20535.675
801.6366	20515.575
805.50115	20536.575
809.36299	20510.775
813.22213	20520.375
817.07857	20549.675
820.93231	20597.675
824.78336	20660.875
828.63172	20720.575
832.47738	20733.275
836.32036	20789.775
840.16066	20780.375
843.99827	20825.975
847.8332	20871.275
851.66546	20930.875
855.49504	20959.275
859.32195	21038.175
863.1462	21041.775
866.96777	21089.675
870.78668	21108.675
874.60293	21196.275
878.41652	21229.675
882.22745	21309.075
886.03573	21337.675
889.84136	21347.175
893.64433	21392.775
897.44466	21370.475
901.24235	21385.875
905.0374	21417.675
908.8298	21389.675
912.61957	21396.375
916.40671	21411.675
920.19121	21417.975
923.97308	21400.375
927.75233	21432.175
931.52895	21444.375
935.30295	21437.575
939.07433	21400.675
942.84309	21366.975
946.60924	21362.875
950.37278	21365.175
954.13371	21312.375
957.89203	21333.875
961.64774	21323.675
965.40086	21362.875
969.15137	21316.375
972.89929	21288.775
976.64461	21301.975
980.38733	21290.075
984.12747	21335.275
987.86502	21379.275
991.59999	21412.675
995.33237	21498.775
999.06217	21525.575
1002.78939	21659.175
1006.51404	21711.575
1010.23611	21841.075
1013.95561	21879.675
1017.67255	21915.875
1021.38692	21912.575
1025.09872	21885.275
1028.80796	21853.575
1032.51465	21828.975
1036.21877	21863.075
1039.92035	21868.875
1043.61937	21922.575
1047.31584	21943.175
1051.00976	21991.575
1054.70114	22028.975
1058.38998	22029.475
1062.07627	22075.875
1065.76003	22177.575
1069.44126	22262.975
1073.11995	22418.675
1076.79611	22494.375
1080.46974	22599.575
1084.14085	22592.175
1087.80943	22559.875
1091.47549	22606.675
1095.13903	22637.175
1098.80005	22677.775
1102.45857	22652.975
1106.11456	22651.175
1109.76805	22601.475
1113.41903	22517.775
1117.06751	22544.575
1120.71348	22531.975
1124.35696	22565.575
1127.99793	22632.775
1131.63641	22592.275
1135.2724	22575.475
1138.90589	22526.975
1142.5369	22454.775
1146.16542	22447.875
1149.79145	22431.475
1153.415	22370.675
1157.03607	22329.675
1160.65467	22342.775
1164.27079	22385.275
1167.88443	22488.475
1171.49561	22679.875
1175.10432	22869.975
1178.71056	23179.675
1182.31434	23467.075
1185.91565	23636.275
1189.51451	23818.175
1193.11091	23908.475
1196.70485	23875.275
1200.29634	23794.775
1203.88538	23673.275
1207.47197	23566.975
1211.05612	23370.275
1214.63782	23203.475
1218.21708	23151.275
1221.79391	23023.775
1225.36829	22954.275
1228.94024	22970.375
1232.50976	22969.375
1236.07685	23020.875
1239.6415	23044.775
1243.20374	23090.375
1246.76355	23145.275
1250.32093	23188.775
1253.8759	23275.075
1257.42845	23421.175
1260.97859	23570.375
1264.52631	23662.175
1268.07163	23681.475
1271.61453	23756.475
1275.15503	23779.375
1278.69312	23805.875
1282.22882	23768.775
1285.76211	23725.075
1289.29301	23745.375
1292.82151	23776.475
1296.34761	23942.075
1299.87133	24064.075
1303.39266	24217.175
1306.9116	24501.075
1310.42815	24679.875
1313.94233	24847.375
1317.45412	24903.275
1320.96354	24830.575
1324.47058	24662.675
1327.97525	24488.875
1331.47754	24336.375
1334.97747	24276.675
1338.47502	24314.075
1341.97022	24490.875
1345.46305	24805.075
1348.95352	25114.875
1352.44163	25369.075
1355.92738	25451.975
1359.41078	25490.875
1362.89183	25454.775
1366.37053	25164.975
1369.84688	24603.375
1373.32088	24011.875
1376.79254	23615.575
1380.26186	23282.575
1383.72883	23116.475
1387.19347	22934.175
1390.65578	22760.875
1394.11575	22593.575
1397.57339	22432.775
1401.0287	22385.775
1404.48168	22307.575
1407.93234	22285.475
1411.38068	22327.875
1414.82669	22311.575
1418.27039	22268.375
1421.71177	22217.475
1425.15083	22169.975
1428.58758	22125.075
1432.02203	22117.875
1435.45416	22082.375
1438.88399	22030.775
1442.31151	21950.575
1445.73673	21971.775
1449.15965	21995.175
1452.58027	21981.875
1455.9986	21999.375
1459.41463	22039.275
1462.82837	22149.075
1466.23982	22239.875
1469.64898	22352.275
1473.05586	22504.775
1476.46045	22558.475
1479.86276	22618.475
1483.26279	22645.775
1486.66054	22730.475
1490.05602	22808.575
1493.44922	22938.275
1496.84016	23172.875
1500.22882	23472.075
1503.61521	23800.075
1506.99934	24089.775
1510.38121	24204.775
1513.76081	24126.875
1517.13816	23936.075
1520.51324	23622.875
1523.88607	23452.375
1527.25665	23262.475
1530.62498	23134.775
1533.99105	23098.775
1537.35488	23129.875
1540.71647	23125.575
1544.07581	23143.875
1547.4329	23144.275
1550.78776	23157.175
1554.14038	23145.075
1557.49077	23151.475
1560.83892	23146.275
1564.18484	23179.975
1567.52853	23202.875
1570.86999	23217.075
1574.20922	23265.575
1577.54624	23284.875
1580.88103	23233.375
1584.2136	23049.775
1587.54395	22994.675
1590.87208	23093.575
1594.19801	23203.375
1597.52172	23384.575
1600.84321	23506.075
1604.16251	23495.275
1607.47959	23400.875
1610.79447	23166.175
1614.10715	22894.275
1617.41763	22654.975
1620.7259	22406.475
1624.03199	22268.275
1627.33587	22184.175
1630.63757	22135.075
1633.93707	22200.775
1637.23439	22352.675
1640.52951	22579.975
1643.82246	22872.875
1647.11321	23168.575
1650.40179	23271.475
1653.68819	23038.275
1656.97241	22729.275
1660.25446	22333.675
1663.53433	21986.375
1666.81203	21763.375
1670.08756	21636.175
1673.36092	21563.275
1676.63211	21420.775
1679.90115	21385.975
1683.16801	21305.475
1686.43272	21246.575
1689.69527	21180.775
1692.95567	21160.875
1696.2139	21170.575
1699.46999	21107.175
1702.72392	21082.275
1705.97571	21102.975
1709.22535	21127.175
1712.47284	21099.875
1715.71819	21114.075
1718.96139	21087.975
1722.20246	21102.975
1725.44139	21074.375
1728.67818	21038.775
1731.91284	20970.975
1735.14537	20967.575
1738.37576	20921.375
1741.60403	20858.475
1744.83017	20839.275
1748.05418	20811.775
1751.27607	20807.075
1754.49584	20749.575
1757.71349	20743.575
1760.92903	20747.275
1764.14244	20730.475
1767.35375	20739.475
1770.56294	20741.775
1773.77002	20704.075
1776.97499	20703.275
1780.17785	20666.875
1783.37861	20666.875
1786.57727	20632.375
1789.77382	20635.375
1792.96828	20621.375
1796.16064	20601.075
1799.3509	20568.075
1802.53907	20528.975
1805.72514	20524.175
1808.90913	20458.275
1812.09102	20405.775
1815.27083	20404.075
1818.44856	20433.275
1821.6242	20383.275
1824.79776	20351.775
1827.96924	20304.175
1831.13864	20276.175
1834.30597	20264.575
1837.47122	20250.175
1840.6344	20193.775
1843.7955	20237.775
1846.95454	20190.775
1850.11151	20217.175
1853.26642	20177.775
1856.41926	20209.775
1859.57004	20175.875
1862.71876	20135.675
1865.86542	20164.475
1869.01003	20146.275
1872.15258	20113.975
1875.29308	20097.075
1878.43152	20058.675
1881.56792	20015.475
1884.70227	20003.975
1887.83457	19959.675
1890.96482	19958.375
1894.09304	19904.975
1897.21921	19889.375
1900.34335	19866.375
1903.46544	19863.475
1906.58551	19865.475
1909.70353	19827.975
1912.81953	19796.275
1915.93349	19772.375
1919.04543	19777.775
1922.15534	19783.275
1925.26322	19750.475
1928.36908	19719.775
1931.47292	19666.875
1934.57473	19594.175
1937.67453	19577.775
1940.77232	19534.075
1943.86808	19472.075
1946.96184	19424.975
1950.05358	19383.475
1953.14331	19351.275
1956.23103	19272.275
1959.31675	19230.575
1962.40046	19183.475
1965.48217	19136.275
1968.56188	19063.175
1971.63959	18999.175
1974.7153	18947.475
1977.78901	18884.575
1980.86073	18851.875
1983.93046	18817.675
1986.99819	18759.475
1990.06394	18676.975
1993.1277	18641.075
1996.18947	18609.975
1999.24925	18538.075
2002.30706	18484.275
2005.36288	18417.875
2008.41672	18395.575
2011.46859	18292.775
2014.51848	18249.975
2017.56639	18202.775
2020.61233	18206.275
2023.6563	18161.175
2026.6983	18103.175
2029.73833	18069.975
2032.7764	18007.475
2035.8125	17939.975
2038.84664	17913.375
2041.87881	17904.475
2044.90903	17863.675
2047.93729	17848.075
2050.96359	17821.875
2053.98794	17817.475
2057.01034	17802.275
2060.03078	17778.375
2063.04927	17753.275
2066.06582	17694.875
2069.08042	17714.475
2072.09307	17731.175
2075.10378	17714.175
2078.11255	17656.575
2081.11938	17681.775
2084.12426	17683.975
2087.12722	17675.575
2090.12824	17673.075
2093.12732	17687.575
2096.12447	17676.775
2099.11969	17673.475
2102.11299	17658.975
2105.10435	17669.175
2108.09379	17677.475
2111.08131	17690.975
2114.0669	17649.275
2117.05057	17671.075
2120.03233	17724.575
2123.01216	17739.475
2125.99008	17779.275
2128.96609	17767.075
2131.94018	17785.775
2134.91236	17812.475
2137.88263	17814.175
2140.851	17825.575
2143.81746	17843.975
2146.78201	17840.175
2149.74466	17857.875
2152.7054	17913.575
2155.66425	17824.175
2158.6212	17821.075
2161.57625	17835.675
2164.52941	17844.575
2167.48067	17806.175
2170.43004	17787.675
2173.37752	17767.875
2176.32311	17758.375
2179.26681	17780.075
2182.20863	17790.375
2185.14856	17757.275
2188.08661	17768.575
2191.02278	17745.375
2193.95707	17738.075
2196.88948	17720.675
2199.82001	17758.775
2202.74867	17716.875
2205.67545	17698.575
2208.60037	17675.575
2211.52341	17679.875
2214.44458	17600.975
2217.36388	17552.775
2220.28132	17512.675
2223.1969	17430.975
2226.11061	17443.075
2229.02246	17411.475
2231.93245	17386.575
2234.84058	17368.975
2237.74686	17325.475
2240.65128	17285.875
2243.55385	17270.175
2246.45456	17241.375
2249.35343	17245.175
2252.25044	17207.675
2255.14561	17170.575
2258.03893	17126.175
2260.93041	17143.275
2263.82004	17079.275
2266.70783	17055.575
2269.59378	16996.475
2272.4779	16973.275
2275.36017	16966.875
2278.24061	16912.375
2281.11922	16865.175
2283.996	16837.075
2286.87094	16821.575
2289.74405	16776.775
2292.61534	16779.575
2295.4848	16754.775
2298.35243	16722.275
2301.21824	16729.575
2304.08223	16714.575
2306.94439	16684.475
2309.80474	16664.475
2312.66327	16678.475
2315.51999	16631.775
2318.37489	16650.875
2321.22797	16621.975
2324.07925	16550.875
2326.92871	16512.375
2329.77637	16482.875
2332.62222	16459.775
2335.46626	16424.975
2338.3085	16381.175
2341.14893	16349.375
2343.98756	16352.175
2346.8244	16304.175
2349.65943	16294.375
2352.49267	16282.175
2355.32411	16224.375
2358.15376	16205.875
2360.98161	16225.775
2363.80768	16178.775
2366.63195	16184.075
2369.45444	16175.575
2372.27514	16172.475
2375.09405	16156.475
2377.91118	16124.575
2380.72652	16080.275
2383.54009	16056.275
2386.35187	16017.375
2389.16188	15955.275
2391.97011	15972.775
2394.77657	15929.275
2397.58125	15867.075
2400.38416	15852.875
2403.18529	15825.875
2405.98466	15843.475
2408.78226	15797.275
2411.57809	15776.475
2414.37216	15738.775
2417.16446	15782.575
2419.955	15705.675
2422.74378	15702.275
2425.5308	15672.375
2428.31606	15642.175
2431.09956	15652.075
2433.88131	15628.975
2436.6613	15608.275
2439.43954	15595.475
2442.21603	15590.275
2444.99077	15600.775
2447.76377	15566.275
2450.53501	15513.675
2453.30451	15494.875
2456.07226	15428.975
2458.83827	15434.075
2461.60254	15406.075
2464.36507	15361.075
2467.12586	15355.875
2469.88492	15358.075
2472.64224	15361.375
2475.39782	15312.175
2478.15167	15305.875
2480.90379	15286.375
2483.65417	15270.875
2486.40283	15227.675
2489.14976	15251.075
2491.89497	15223.475
2494.63845	15191.875
2497.3802	15144.075
2500.12024	15160.475
2502.85855	15157.775
2505.59514	15126.475
2508.33002	15082.975
2511.06318	15082.575
2513.79462	15079.575
2516.52435	15011.875
2519.25237	15037.675
2521.97867	14978.775
2524.70327	14965.675
2527.42616	14956.775
2530.14734	14938.975
2532.86681	14927.375
2535.58458	14908.575
2538.30065	14859.675
2541.01501	14850.575
2543.72768	14772.075
2546.43864	14771.175
2549.14791	14744.475
2551.85548	14722.075
2554.56136	14688.275
2557.26554	14657.975
2559.96803	14637.575
2562.66883	14607.175
2565.36794	14542.775
2568.06536	14498.375
2570.7611	14493.475
2573.45514	14472.775
2576.14751	14447.275
2578.83819	14449.275
2581.52719	14416.075
2584.21451	14374.375
2586.90015	14368.675
2589.58411	14339.275
2592.2664	14314.175
2594.94701	14252.875
2597.62594	14250.075
2600.30321	14216.575
2602.9788	14190.575
2605.65273	14134.675
2608.32498	14147.875
2610.99557	14107.675
2613.66449	14081.375
2616.33175	14070.375
2618.99734	14052.475
2621.66128	13987.575
2624.32355	13965.975
2626.98416	13945.775
2629.64311	13941.675
2632.30041	13927.675
2634.95605	13906.175
2637.61004	13852.175
2640.26238	13834.175
2642.91306	13823.775
2645.56209	13819.075
2648.20948	13774.575
2650.85521	13781.575
2653.4993	13774.875
2656.14175	13735.775
2658.78255	13735.775
2661.42171	13714.875
2664.05923	13723.475
2666.6951	13729.175
2669.32934	13749.375
2671.96194	13721.375
2674.59291	13688.075
2677.22224	13676.075
2679.84993	13692.575
2682.476	13676.875
2685.10043	13664.475
2687.72324	13637.075
2690.34441	13636.775
2692.96396	13645.975
2695.58188	13631.075
2698.19818	13622.875
2700.81285	13613.475
2703.4259	13606.375
2706.03733	13593.875
2708.64714	13604.875
2711.25533	13576.675
2713.86191	13596.075
2716.46687	13588.775
2719.07021	13585.975
2721.67194	13615.075
2724.27206	13546.875
2726.87057	13564.275
2729.46747	13510.275
2732.06276	13549.875
2734.65644	13544.975
2737.24852	13558.975
2739.83899	13507.175
2742.42786	13494.375
2745.01513	13485.275
2747.60079	13440.575
2750.18486	13419.375
2752.76733	13395.075
2755.3482	13386.775
2757.92747	13374.775
2760.50515	13345.775
2763.08123	13334.375
2765.65573	13264.475
2768.22863	13286.975
2770.79994	13264.475
2773.36967	13230.675
2775.9378	13209.175
2778.50435	13167.075
2781.06932	13166.875
2783.6327	13142.975
2786.1945	13135.975
2788.75471	13092.975
2791.31335	13066.775
2793.87041	13081.175
2796.42589	12998.975
2798.97979	12968.275
2801.53212	12951.375
2804.08288	12938.675
2806.63206	12886.575
2809.17967	12842.275
2811.72571	12814.375
2814.27018	12773.275
2816.81308	12748.275
2819.35442	12687.375
2821.89419	12678.975
2824.43239	12647.775
2826.96904	12630.675
2829.50412	12608.975
2832.03763	12554.975
2834.56959	12549.975
2837.1	12526.975
2839.62884	12559.075
2842.15613	12513.775
2844.68186	12497.475
2847.20604	12485.575
2849.72867	12479.575
2852.24974	12419.275
2854.76927	12385.275
2857.28724	12384.775
2859.80367	12395.975
2862.31855	12365.475
2864.83189	12326.075
2867.34368	12319.275
2869.85393	12266.575
2872.36264	12262.275
2874.8698	12235.175
2877.37543	12225.175
2879.87952	12209.275
2882.38207	12205.275
2884.88308	12209.175
2887.38256	12202.575
2889.88051	12191.375
2892.37692	12205.475
2894.8718	12199.075
2897.36515	12198.275
2899.85698	12180.075
2902.34727	12212.175
2904.83604	12218.975
2907.32328	12224.475
2909.809	12189.575
2912.29319	12195.975
2914.77587	12198.075
2917.25702	12175.475
2919.73665	12145.175
2922.21476	12128.475
2924.69136	12125.475
2927.16644	12123.775
2929.64	12114.375
2932.11205	12104.775
2934.58258	12030.775
2937.05161	12062.375
2939.51912	12072.075
2941.98513	12080.575
2944.44962	12062.975
2946.91261	12017.375
2949.37409	12037.775
2951.83407	12034.075
2954.29254	12021.675
2956.74951	12006.075
2959.20498	11981.275
2961.65895	11988.475
2964.11142	12012.075
2966.56239	12012.975
2969.01186	11985.475
2971.45984	11987.575
2973.90632	11984.475
2976.35131	11954.775
2978.7948	11930.775
2981.23681	11924.875
2983.67732	11890.875
2986.11635	11890.775
2988.55388	11863.275
2990.98993	11827.375
2993.4245	11814.175
2995.85758	11796.675
2998.28917	11753.875
3000.71928	11701.575
3003.14791	11724.675
3005.57506	11698.675
3008.00073	11638.775
3010.42493	11649.275
3012.84764	11640.775
3015.26888	11617.375
3017.68865	11605.075
3020.10694	11579.675
3022.52376	11546.775
3024.9391	11545.975
3027.35298	11509.075
3029.76539	11512.375
3032.17632	11489.075
3034.5858	11494.675
3036.9938	11472.975
3039.40034	11450.275
3041.80542	11439.375
3044.20903	11440.075
3046.61118	11407.375
3049.01187	11384.375
3051.4111	11359.675
3053.80888	11346.775
3056.20519	11312.775
3058.60005	11277.275
3060.99345	11268.175
3063.3854	11265.875
3065.7759	11239.175
3068.16494	11197.175
3070.55254	11147.975
3072.93868	11189.775
3075.32338	11114.775
3077.70662	11119.375
3080.08842	11050.775
3082.46878	11082.475
3084.84769	11059.475
3087.22515	11045.775
3089.60118	11056.275
3091.97576	11044.275
3094.3489	11051.475
3096.72061	11039.075
3099.09087	11058.675
3101.4597	11037.875
3103.82709	11056.675
3106.19305	11052.775
3108.55757	11097.975
3110.92066	11028.375
3113.28232	11025.675
3115.64255	10996.275
3118.00134	10980.875
3120.35871	10952.575
3122.71466	10961.875
3125.06917	10916.675
3127.42226	10874.075
3129.77393	10895.575
3132.12417	10856.575
