Data from AgNPs_UA_5uM_CRN_0uM_R6G_10uM_Q_RamanShift__20__11-12-35-314.txt Node

Date: Mon Jul 18 11:12:35 BST 2022
User: TCL
Spectrometer: QEP01345
Trigger mode: 4
Integration Time (sec): 7.000000E0
Scans to average: 10
Electric dark correction enabled: true
Nonlinearity correction enabled: false
Boxcar width: 0
XAxis mode: Raman Shifts
Number of Pixels in Spectrum: 1044
>>>>>Begin Spectral Data<<<<<
46.04893	-1.225
50.45542	-1.825
54.85868	-1.925
59.25871	-1.825
63.6555	154.175
68.04907	159.675
72.43941	159.675
76.82654	170.075
81.21044	171.975
85.59113	173.675
89.96862	187.675
94.34289	190.975
98.71396	202.775
103.08183	205.275
107.4465	209.775
111.80798	216.475
116.16626	224.575
120.52136	237.075
124.87327	243.075
129.222	258.175
133.56755	276.375
137.90993	304.175
142.24913	332.275
146.58517	377.275
150.91804	446.475
155.24774	536.775
159.57429	674.575
163.89768	872.875
168.21792	1174.775
172.53501	1608.775
176.84895	2247.675
181.15975	3172.075
185.46741	4432.975
189.77193	6121.775
194.07331	8157.275
198.37157	10488.475
202.6667	12878.575
206.9587	15272.975
211.24758	17610.875
215.53334	19972.075
219.81599	22528.175
224.09553	25367.875
228.37195	28591.875
232.64527	32094.775
236.91549	35715.875
241.18261	39218.875
245.44663	42391.275
249.70755	45140.675
253.96539	47465.875
258.22014	49482.475
262.4718	51186.075
266.72039	52270.575
270.96589	52830.675
275.20832	52763.775
279.44768	52305.475
283.68397	51688.075
287.91719	51183.675
292.14735	50878.675
296.37445	50926.875
300.59849	51462.975
304.81948	52082.075
309.03742	52473.775
313.25231	52394.475
317.46415	51533.275
321.67296	50303.075
325.87872	49233.775
330.08145	48919.475
334.28114	49045.175
338.47781	49581.975
342.67145	50377.075
346.86207	51372.175
351.04966	52579.975
355.23424	53896.875
359.4158	55157.375
363.59435	56144.175
367.76989	56808.875
371.94243	57211.775
376.11196	57528.275
380.27849	57828.475
384.44203	58277.075
388.60257	58622.375
392.76012	58992.275
396.91468	59713.975
401.06626	60545.975
405.21485	61244.775
409.36047	60974.675
413.50311	59829.075
417.64277	59006.475
421.77947	58695.075
425.9132	58812.775
430.04396	59195.475
434.17176	59656.675
438.2966	60616.475
442.41849	62097.475
446.53742	64198.375
450.6534	66458.375
454.76644	68049.475
458.87653	68390.875
462.98368	67675.675
467.08789	66499.875
471.18916	65113.875
475.2875	63572.875
479.38291	62159.075
483.4754	61119.775
487.56496	60190.775
491.6516	59467.575
495.73531	59046.775
499.81612	59035.075
503.89401	59480.975
507.96899	59605.875
512.04106	59705.475
516.11023	59725.775
520.1765	59796.275
524.23987	59966.175
528.30034	59870.575
532.35792	59625.975
536.41261	58903.975
540.46441	58153.975
544.51333	57922.775
548.55936	58489.975
552.60252	59596.275
556.64279	60724.775
560.6802	61657.475
564.71473	62072.175
568.7464	62924.875
572.7752	63939.975
576.80114	64464.975
580.82422	65286.975
584.84444	66642.575
588.86181	68642.375
592.87633	70812.375
596.888	71820.175
600.89682	71871.375
604.9028	75044.475
608.90594	84095.875
612.90624	91482.575
616.90371	84044.875
620.89834	69874.575
624.89015	64644.975
628.87913	64245.675
632.86528	63850.475
636.84862	62811.375
640.82913	61283.475
644.80683	59379.675
648.78172	58190.075
652.75379	58174.475
656.72306	59408.075
660.68952	60802.675
664.65319	60428.375
668.61405	59477.275
672.57211	59356.375
676.52738	59464.775
680.47986	58980.975
684.42955	58400.675
688.37646	58424.675
692.32058	58974.475
696.26192	59734.575
700.20048	60569.375
704.13626	60685.175
708.06928	60182.175
711.99952	59531.975
715.927	59456.775
719.85171	59744.275
723.77365	59551.175
727.69284	58898.975
731.60928	58495.275
735.52295	58564.275
739.43388	58887.775
743.34206	59212.475
747.24749	59463.875
751.15017	59879.275
755.05012	60775.475
758.94733	62610.675
762.8418	66147.875
766.73354	71735.875
770.62254	76952.675
774.50882	78218.575
778.39237	74909.475
782.27321	69522.675
786.15132	64638.975
790.02671	61695.075
793.89938	60223.175
797.76935	59714.875
801.6366	59534.975
805.50115	59227.175
809.36299	58902.475
813.22213	58403.575
817.07857	58148.475
820.93231	57965.575
824.78336	57899.675
828.63172	58033.475
832.47738	58028.175
836.32036	58150.375
840.16066	58533.275
843.99827	58835.875
847.8332	58604.075
851.66546	58310.875
855.49504	58272.475
859.32195	58270.775
863.1462	58094.275
866.96777	57898.575
870.78668	57728.275
874.60293	57806.975
878.41652	57920.975
882.22745	58260.875
886.03573	58550.975
889.84136	58481.575
893.64433	58191.875
897.44466	57897.675
901.24235	57669.275
905.0374	57468.175
908.8298	57251.575
912.61957	57420.875
916.40671	57836.775
920.19121	58561.775
923.97308	59619.375
927.75233	60389.775
931.52895	60614.975
935.30295	59923.675
939.07433	58654.575
942.84309	57824.075
946.60924	57588.275
950.37278	57408.975
954.13371	57140.975
957.89203	56817.975
961.64774	56609.075
965.40086	56509.475
969.15137	56384.775
972.89929	56316.775
976.64461	56380.675
980.38733	56631.675
984.12747	57170.575
987.86502	57845.375
991.59999	58957.475
995.33237	60681.075
999.06217	63422.575
1002.78939	66167.275
1006.51404	67368.875
1010.23611	67887.175
1013.95561	68613.275
1017.67255	68899.175
1021.38692	68418.275
1025.09872	68007.275
1028.80796	68968.575
1032.51465	71509.775
1036.21877	73587.775
1039.92035	73275.275
1043.61937	71445.575
1047.31584	68577.775
1051.00976	66006.075
1054.70114	64692.975
1058.38998	64635.075
1062.07627	64930.475
1065.76003	65077.575
1069.44126	65503.875
1073.11995	66427.375
1076.79611	67476.675
1080.46974	68124.375
1084.14085	69006.075
1087.80943	69844.975
1091.47549	70204.875
1095.13903	69614.675
1098.80005	68387.675
1102.45857	67347.775
1106.11456	66801.375
1109.76805	66858.075
1113.41903	67328.475
1117.06751	67959.475
1120.71348	68788.075
1124.35696	69626.475
1127.99793	70272.575
1131.63641	70410.475
1135.2724	69602.875
1138.90589	68834.075
1142.5369	68336.175
1146.16542	68093.275
1149.79145	68116.375
1153.415	68512.475
1157.03607	69131.775
1160.65467	70525.575
1164.27079	73038.775
1167.88443	76853.375
1171.49561	81987.675
1175.10432	88771.275
1178.71056	97300.675
1182.31434	105187.875
1185.91565	109104.675
1189.51451	108398.175
1193.11091	103866.875
1196.70485	98306.575
1200.29634	93460.875
1203.88538	89901.875
1207.47197	87043.575
1211.05612	84881.075
1214.63782	83631.775
1218.21708	83609.275
1221.79391	84422.375
1225.36829	85187.775
1228.94024	84322.175
1232.50976	82038.275
1236.07685	80101.675
1239.6415	79269.675
1243.20374	79339.675
1246.76355	80115.275
1250.32093	81660.075
1253.8759	83897.075
1257.42845	86694.475
1260.97859	89230.075
1264.52631	91894.775
1268.07163	94656.575
1271.61453	97619.275
1275.15503	100675.275
1278.69312	103753.275
1282.22882	106070.875
1285.76211	107808.075
1289.29301	109386.375
1292.82151	111438.975
1296.34761	114810.475
1299.87133	120197.375
1303.39266	128036.375
1306.9116	138521.775
1310.42815	149629.875
1313.94233	157033.875
1317.45412	157595.175
1320.96354	152872.275
1324.47058	146459.075
1327.97525	140304.975
1331.47754	135873.175
1334.97747	133513.475
1338.47502	132668.675
1341.97022	132845.275
1345.46305	133196.775
1348.95352	133328.875
1352.44163	134762.575
1355.92738	139349.375
1359.41078	147411.175
1362.89183	153958.575
1366.37053	150142.575
1369.84688	135857.175
1373.32088	120318.675
1376.79254	110153.775
1380.26186	105444.275
1383.72883	103953.175
1387.19347	102932.575
1390.65578	100899.675
1394.11575	99722.575
1397.57339	100053.775
1401.0287	101670.975
1404.48168	103341.475
1407.93234	104392.775
1411.38068	104428.275
1414.82669	103066.675
1418.27039	100457.175
1421.71177	97445.275
1425.15083	95376.075
1428.58758	94764.275
1432.02203	95901.375
1435.45416	98074.575
1438.88399	100127.475
1442.31151	101172.375
1445.73673	101738.975
1449.15965	102061.475
1452.58027	101824.575
1455.9986	101340.275
1459.41463	101783.875
1462.82837	103373.375
1466.23982	105983.175
1469.64898	108236.175
1473.05586	109463.675
1476.46045	110044.375
1479.86276	109840.075
1483.26279	109227.875
1486.66054	108742.975
1490.05602	108853.175
1493.44922	109325.475
1496.84016	110474.375
1500.22882	112881.375
1503.61521	117005.275
1506.99934	121996.275
1510.38121	125806.675
1513.76081	126175.575
1517.13816	122507.775
1520.51324	116426.575
1523.88607	111194.675
1527.25665	107887.575
1530.62498	106214.175
1533.99105	105340.575
1537.35488	104698.975
1540.71647	104022.575
1544.07581	102928.675
1547.4329	101536.575
1550.78776	99965.375
1554.14038	98498.775
1557.49077	97468.075
1560.83892	97056.575
1564.18484	97271.075
1567.52853	97821.575
1570.86999	98597.675
1574.20922	99338.075
1577.54624	99397.675
1580.88103	98255.575
1584.2136	97689.575
1587.54395	99642.575
1590.87208	105097.775
1594.19801	113931.475
1597.52172	123437.575
1600.84321	127544.275
1604.16251	123034.675
1607.47959	113433.475
1610.79447	102721.075
1614.10715	93157.975
1617.41763	85885.575
1620.7259	81080.975
1624.03199	78765.875
1627.33587	79029.575
1630.63757	81899.975
1633.93707	87563.875
1637.23439	95912.275
1640.52951	106831.475
1643.82246	118103.975
1647.11321	125605.175
1650.40179	124915.175
1653.68819	115023.775
1656.97241	99964.175
1660.25446	86208.575
1663.53433	76415.175
1666.81203	70180.275
1670.08756	66218.875
1673.36092	63740.175
1676.63211	61994.975
1679.90115	60713.475
1683.16801	59692.675
1686.43272	59014.675
1689.69527	58423.775
1692.95567	58033.075
1696.2139	57793.275
1699.46999	57519.575
1702.72392	57387.675
1705.97571	57390.175
1709.22535	57255.075
1712.47284	57295.775
1715.71819	57320.075
1718.96139	57126.975
1722.20246	56890.275
1725.44139	56563.275
1728.67818	56198.275
1731.91284	55892.175
1735.14537	55692.675
1738.37576	55464.675
1741.60403	55310.575
1744.83017	55111.775
1748.05418	55029.375
1751.27607	54908.275
1754.49584	54769.575
1757.71349	54730.875
1760.92903	54601.475
1764.14244	54600.175
1767.35375	54528.675
1770.56294	54361.575
1773.77002	54305.075
1776.97499	54347.075
1780.17785	54276.675
1783.37861	54098.575
1786.57727	54062.575
1789.77382	54055.875
1792.96828	53950.775
1796.16064	53867.575
1799.3509	53868.575
1802.53907	53754.675
1805.72514	53660.875
1808.90913	53530.475
1812.09102	53494.675
1815.27083	53301.075
1818.44856	53273.475
1821.6242	53237.875
1824.79776	53127.075
1827.96924	53054.575
1831.13864	52938.175
1834.30597	52927.675
1837.47122	52924.575
1840.6344	52862.175
1843.7955	53017.375
1846.95454	52995.875
1850.11151	52878.575
1853.26642	52840.375
1856.41926	52745.075
1859.57004	52770.975
1862.71876	52775.675
1865.86542	52761.575
1869.01003	52826.575
1872.15258	52930.875
1875.29308	52910.575
1878.43152	52721.575
1881.56792	52782.175
1884.70227	52697.775
1887.83457	52609.575
1890.96482	52633.375
1894.09304	52736.675
1897.21921	52629.775
1900.34335	52670.875
1903.46544	52579.875
1906.58551	52563.975
1909.70353	52538.475
1912.81953	52471.675
1915.93349	52359.675
1919.04543	52286.675
1922.15534	52309.975
1925.26322	52211.975
1928.36908	52134.175
1931.47292	52120.175
1934.57473	51910.875
1937.67453	51841.975
1940.77232	51725.675
1943.86808	51557.575
1946.96184	51443.675
1950.05358	51305.675
1953.14331	51145.875
1956.23103	51034.075
1959.31675	50830.375
1962.40046	50754.875
1965.48217	50608.975
1968.56188	50498.875
1971.63959	50392.175
1974.7153	50242.175
1977.78901	50166.875
1980.86073	49971.775
1983.93046	49806.075
1986.99819	49657.775
1990.06394	49549.975
1993.1277	49452.475
1996.18947	49312.375
1999.24925	49248.075
2002.30706	49117.775
2005.36288	49083.875
2008.41672	48990.075
2011.46859	48818.175
2014.51848	48715.575
2017.56639	48692.475
2020.61233	48634.475
2023.6563	48564.575
2026.6983	48376.275
2029.73833	48269.475
2032.7764	48149.775
2035.8125	48146.675
2038.84664	48088.475
2041.87881	48038.075
2044.90903	47920.775
2047.93729	47878.975
2050.96359	47888.775
2053.98794	47929.475
2057.01034	47914.275
2060.03078	47843.875
2063.04927	47793.875
2066.06582	47777.475
2069.08042	47716.875
2072.09307	47703.775
2075.10378	47636.075
2078.11255	47580.075
2081.11938	47611.775
2084.12426	47550.375
2087.12722	47468.775
2090.12824	47413.975
2093.12732	47496.875
2096.12447	47555.175
2099.11969	47483.875
2102.11299	47590.775
2105.10435	47619.575
2108.09379	47658.475
2111.08131	47677.275
2114.0669	47634.775
2117.05057	47667.575
2120.03233	47745.875
2123.01216	47782.275
2125.99008	47839.875
2128.96609	47930.075
2131.94018	48017.975
2134.91236	48013.975
2137.88263	48049.575
2140.851	48070.475
2143.81746	48134.075
2146.78201	48177.975
2149.74466	48287.875
2152.7054	48295.175
2155.66425	48227.975
2158.6212	48255.575
2161.57625	48270.075
2164.52941	48215.975
2167.48067	48248.375
2170.43004	48305.075
2173.37752	48273.575
2176.32311	48256.275
2179.26681	48226.975
2182.20863	48264.575
2185.14856	48408.375
2188.08661	48422.475
2191.02278	48482.975
2193.95707	48456.175
2196.88948	48502.475
2199.82001	48493.675
2202.74867	48489.175
2205.67545	48520.975
2208.60037	48509.075
2211.52341	48400.975
2214.44458	48373.575
2217.36388	48326.075
2220.28132	48348.575
2223.1969	48264.275
2226.11061	48172.675
2229.02246	48114.175
2231.93245	48108.275
2234.84058	47998.475
2237.74686	47878.075
2240.65128	47747.775
2243.55385	47698.375
2246.45456	47673.975
2249.35343	47620.975
2252.25044	47598.275
2255.14561	47537.075
2258.03893	47519.775
2260.93041	47420.075
2263.82004	47323.275
2266.70783	47312.075
2269.59378	47177.175
2272.4779	47189.275
2275.36017	47019.575
2278.24061	46899.875
2281.11922	46821.875
2283.996	46817.375
2286.87094	46797.375
2289.74405	46727.575
2292.61534	46736.875
2295.4848	46693.775
2298.35243	46797.375
2301.21824	46767.175
2304.08223	46772.175
2306.94439	46871.975
2309.80474	46952.175
2312.66327	47076.075
2315.51999	47089.075
2318.37489	47160.275
2321.22797	47188.975
2324.07925	47104.375
2326.92871	47035.675
2329.77637	47065.375
2332.62222	47035.975
2335.46626	47124.875
2338.3085	47143.175
2341.14893	47209.275
2343.98756	47292.875
2346.8244	47304.475
2349.65943	47469.475
2352.49267	47433.775
2355.32411	47405.775
2358.15376	47344.275
2360.98161	47344.575
2363.80768	47292.275
2366.63195	47215.375
2369.45444	47062.475
2372.27514	46973.275
2375.09405	46857.275
2377.91118	46817.975
2380.72652	46623.575
2383.54009	46485.275
2386.35187	46578.575
2389.16188	46523.175
2391.97011	46443.675
2394.77657	46451.875
2397.58125	46393.675
2400.38416	46291.175
2403.18529	46175.875
2405.98466	46198.875
2408.78226	46125.775
2411.57809	45988.175
2414.37216	45883.675
2417.16446	45888.175
2419.955	45768.075
2422.74378	45814.575
2425.5308	45751.475
2428.31606	45708.375
2431.09956	45749.075
2433.88131	45709.775
2436.6613	45730.875
2439.43954	45778.675
2442.21603	45800.475
2444.99077	45787.075
2447.76377	45772.575
2450.53501	45671.675
2453.30451	45764.875
2456.07226	45712.975
2458.83827	45686.975
2461.60254	45710.675
2464.36507	45747.375
2467.12586	45777.375
2469.88492	45778.575
2472.64224	45727.975
2475.39782	45716.775
2478.15167	45790.775
2480.90379	45943.875
2483.65417	46086.975
2486.40283	46115.075
2489.14976	46215.975
2491.89497	46234.075
2494.63845	46268.175
2497.3802	46162.775
2500.12024	46185.075
2502.85855	46180.275
2505.59514	46172.475
2508.33002	46097.975
2511.06318	46046.775
2513.79462	46058.075
2516.52435	46022.375
2519.25237	46022.575
2521.97867	46035.375
2524.70327	46000.475
2527.42616	46011.075
2530.14734	45991.575
2532.86681	46002.975
2535.58458	45977.275
2538.30065	46071.775
2541.01501	46167.875
2543.72768	46117.375
2546.43864	46103.075
2549.14791	46012.175
2551.85548	46053.775
2554.56136	46022.175
2557.26554	45948.975
2559.96803	45865.075
2562.66883	45888.875
2565.36794	45846.875
2568.06536	45782.675
2570.7611	45720.675
2573.45514	45713.375
2576.14751	45713.575
2578.83819	45661.775
2581.52719	45722.375
2584.21451	45784.775
2586.90015	45736.575
2589.58411	45812.275
2592.2664	45840.275
2594.94701	45756.075
2597.62594	45860.675
2600.30321	45867.775
2602.9788	45833.575
2605.65273	45751.675
2608.32498	45774.375
2610.99557	45807.875
2613.66449	45896.275
2616.33175	45925.975
2618.99734	45934.875
2621.66128	45884.075
2624.32355	45962.075
2626.98416	46066.875
2629.64311	46142.975
2632.30041	46167.275
2634.95605	46141.475
2637.61004	46070.275
2640.26238	46071.575
2642.91306	45992.975
2645.56209	45922.575
2648.20948	45823.975
2650.85521	45777.675
2653.4993	45767.875
2656.14175	45718.875
2658.78255	45798.675
2661.42171	45921.675
2664.05923	46049.975
2666.6951	46086.475
2669.32934	46155.675
2671.96194	46052.775
2674.59291	46152.875
2677.22224	46044.975
2679.84993	46047.375
2682.476	45937.375
2685.10043	45932.975
2687.72324	45826.475
2690.34441	45812.275
2692.96396	45724.175
2695.58188	45746.275
2698.19818	45644.275
2700.81285	45715.875
2703.4259	45696.775
2706.03733	45819.175
2708.64714	45812.075
2711.25533	45805.875
2713.86191	45883.275
2716.46687	46029.975
2719.07021	46064.375
2721.67194	46011.375
2724.27206	46008.475
2726.87057	45988.275
2729.46747	46030.875
2732.06276	46065.775
2734.65644	46056.175
2737.24852	46078.475
2739.83899	46067.075
2742.42786	46051.675
2745.01513	45924.075
2747.60079	45894.575
2750.18486	45962.675
2752.76733	45989.175
2755.3482	45965.775
2757.92747	46018.375
2760.50515	46046.175
2763.08123	45948.875
2765.65573	45885.175
2768.22863	45916.275
2770.79994	45938.475
2773.36967	46014.375
2775.9378	45949.075
2778.50435	45951.875
2781.06932	46008.175
2783.6327	46073.875
2786.1945	46008.675
2788.75471	45937.175
2791.31335	45856.675
2793.87041	45769.075
2796.42589	45590.275
2798.97979	45647.975
2801.53212	45554.675
2804.08288	45539.075
2806.63206	45474.575
2809.17967	45419.075
2811.72571	45388.875
2814.27018	45308.975
2816.81308	45188.575
2819.35442	45065.575
2821.89419	45012.275
2824.43239	45023.375
2826.96904	44910.375
2829.50412	44991.075
2832.03763	44996.575
2834.56959	44994.875
2837.1	44925.875
2839.62884	44958.975
2842.15613	44845.275
2844.68186	44804.675
2847.20604	44713.775
2849.72867	44725.675
2852.24974	44616.775
2854.76927	44607.375
2857.28724	44559.175
2859.80367	44562.975
2862.31855	44612.875
2864.83189	44716.575
2867.34368	44586.475
2869.85393	44616.175
2872.36264	44524.075
2874.8698	44485.375
2877.37543	44552.275
2879.87952	44542.675
2882.38207	44487.875
2884.88308	44510.375
2887.38256	44526.075
2889.88051	44518.275
2892.37692	44558.175
2894.8718	44575.475
2897.36515	44715.975
2899.85698	44750.475
2902.34727	44835.975
2904.83604	44872.075
2907.32328	45108.875
2909.809	45135.875
2912.29319	45289.075
2914.77587	45247.675
2917.25702	45291.575
2919.73665	45157.775
2922.21476	45209.975
2924.69136	45086.675
2927.16644	45069.375
2929.64	44941.575
2932.11205	44842.475
2934.58258	44697.775
2937.05161	44715.575
2939.51912	44677.375
2941.98513	44672.975
2944.44962	44687.575
2946.91261	44546.475
2949.37409	44643.275
2951.83407	44579.575
2954.29254	44664.475
2956.74951	44700.375
2959.20498	44668.075
2961.65895	44561.875
2964.11142	44603.175
2966.56239	44560.875
2969.01186	44571.275
2971.45984	44487.975
2973.90632	44455.375
2976.35131	44343.075
2978.7948	44244.475
2981.23681	44139.775
2983.67732	44056.375
2986.11635	43959.475
2988.55388	43930.875
2990.98993	43825.675
2993.4245	43658.475
2995.85758	43581.475
2998.28917	43533.175
3000.71928	43489.775
3003.14791	43381.875
3005.57506	43323.075
3008.00073	43094.575
3010.42493	43016.975
3012.84764	42996.675
3015.26888	42984.175
3017.68865	42879.475
3020.10694	42857.675
3022.52376	42801.275
3024.9391	42766.175
3027.35298	42696.675
3029.76539	42741.475
3032.17632	42686.175
3034.5858	42674.075
3036.9938	42688.175
3039.40034	42626.175
3041.80542	42522.375
3044.20903	42510.575
3046.61118	42507.175
3049.01187	42388.275
3051.4111	42422.975
3053.80888	42293.475
3056.20519	42221.675
3058.60005	42049.175
3060.99345	42002.875
3063.3854	41919.275
3065.7759	41843.275
3068.16494	41717.975
3070.55254	41553.175
3072.93868	41502.475
3075.32338	41353.475
3077.70662	41426.175
3080.08842	41271.575
3082.46878	41234.275
3084.84769	41203.975
3087.22515	41208.275
3089.60118	41204.475
3091.97576	41190.475
3094.3489	41181.775
3096.72061	41170.175
3099.09087	41194.875
3101.4597	41068.675
3103.82709	41043.175
3106.19305	41042.975
3108.55757	41072.975
3110.92066	40980.375
3113.28232	40960.875
3115.64255	40920.775
3118.00134	40872.575
