Data from AgNPs_UA_1uM_CRN_0uM_R6G_10uM_Q_RamanShift__21__12-35-15-889.txt Node

Date: Wed Jul 13 12:35:15 BST 2022
User: TCL
Spectrometer: QEP01345
Trigger mode: 4
Integration Time (sec): 7.000000E0
Scans to average: 10
Electric dark correction enabled: true
Nonlinearity correction enabled: false
Boxcar width: 0
XAxis mode: Raman Shifts
Number of Pixels in Spectrum: 1044
>>>>>Begin Spectral Data<<<<<
46.04893	-0.45
50.45542	-1.25
54.85868	-2.15
59.25871	-0.75
63.6555	80.55
68.04907	84.95
72.43941	92.95
76.82654	91.45
81.21044	96.95
85.59113	100.65
89.96862	106.25
94.34289	107.55
98.71396	109.65
103.08183	111.55
107.4465	117.35
111.80798	116.15
116.16626	124.45
120.52136	132.85
124.87327	129.35
129.222	137.35
133.56755	147.75
137.90993	158.55
142.24913	172.05
146.58517	194.55
150.91804	219.25
155.24774	257.85
159.57429	322.55
163.89768	402.35
168.21792	536.55
172.53501	721.55
176.84895	1009.15
181.15975	1401.25
185.46741	1957.95
189.77193	2692.45
194.07331	3577.35
198.37157	4590.75
202.6667	5635.55
206.9587	6665.55
211.24758	7697.45
215.53334	8738.95
219.81599	9873.75
224.09553	11149.85
228.37195	12561.15
232.64527	14069.05
236.91549	15671.45
241.18261	17223.65
245.44663	18602.95
249.70755	19800.55
253.96539	20854.05
258.22014	21738.85
262.4718	22494.15
266.72039	22944.95
270.96589	23161.05
275.20832	23073.65
279.44768	22866.45
283.68397	22633.55
287.91719	22450.95
292.14735	22329.45
296.37445	22355.55
300.59849	22517.55
304.81948	22740.55
309.03742	22850.45
313.25231	22804.95
317.46415	22447.75
321.67296	21991.15
325.87872	21580.75
330.08145	21424.55
334.28114	21512.65
338.47781	21724.45
342.67145	22026.05
346.86207	22468.45
351.04966	22945.25
355.23424	23474.05
359.4158	23871.75
363.59435	24143.65
367.76989	24360.05
371.94243	24434.95
376.11196	24575.25
380.27849	24652.15
384.44203	24785.95
388.60257	24902.75
392.76012	25059.35
396.91468	25370.95
401.06626	25779.35
405.21485	26038.75
409.36047	25899.25
413.50311	25589.15
417.64277	25487.65
421.77947	25495.55
425.9132	25424.15
430.04396	25529.35
434.17176	25717.35
438.2966	26133.85
442.41849	26780.45
446.53742	27588.85
450.6534	28479.85
454.76644	29011.75
458.87653	29001.45
462.98368	28517.75
467.08789	27928.35
471.18916	27316.35
475.2875	26822.85
479.38291	26480.35
483.4754	26184.95
487.56496	25939.55
491.6516	25672.85
495.73531	25468.95
499.81612	25420.75
503.89401	25589.85
507.96899	25750.35
512.04106	25767.75
516.11023	25735.45
520.1765	25652.35
524.23987	25653.85
528.30034	25555.05
532.35792	25379.75
536.41261	25040.15
540.46441	24704.75
544.51333	24643.55
548.55936	24900.55
552.60252	25395.85
556.64279	25989.35
560.6802	26366.15
564.71473	26596.05
568.7464	27051.05
572.7752	27590.15
576.80114	28093.55
580.82422	28649.45
584.84444	29521.75
588.86181	30630.25
592.87633	31915.05
596.888	32479.35
600.89682	32172.65
604.9028	32708.75
608.90594	35180.25
612.90624	37063.65
616.90371	33976.25
620.89834	28809.15
624.89015	27026.65
628.87913	26959.65
632.86528	26868.35
636.84862	26501.45
640.82913	25984.55
644.80683	25272.65
648.78172	24862.05
652.75379	24925.85
656.72306	25304.45
660.68952	25670.95
664.65319	25464.25
668.61405	25025.55
672.57211	24942.05
676.52738	24944.15
680.47986	24791.45
684.42955	24618.95
688.37646	24575.95
692.32058	24766.85
696.26192	25071.85
700.20048	25416.95
704.13626	25537.25
708.06928	25441.15
711.99952	25262.45
715.927	25262.65
719.85171	25285.55
723.77365	25213.25
727.69284	24896.55
731.60928	24771.05
735.52295	24793.85
739.43388	24878.45
743.34206	25013.55
747.24749	25132.05
751.15017	25382.15
755.05012	25753.65
758.94733	26543.65
762.8418	28033.15
766.73354	30305.35
770.62254	32152.85
774.50882	32227.45
778.39237	30629.55
782.27321	28539.15
786.15132	26784.15
790.02671	25784.85
793.89938	25320.65
797.76935	25127.65
801.6366	25053.25
805.50115	24978.55
809.36299	24817.85
813.22213	24666.35
817.07857	24546.85
820.93231	24463.25
824.78336	24423.05
828.63172	24390.35
832.47738	24445.75
836.32036	24516.85
840.16066	24708.55
843.99827	24816.15
847.8332	24732.95
851.66546	24619.75
855.49504	24612.25
859.32195	24609.85
863.1462	24454.75
866.96777	24400.35
870.78668	24356.95
874.60293	24374.15
878.41652	24417.65
882.22745	24529.55
886.03573	24625.15
889.84136	24581.25
893.64433	24478.85
897.44466	24375.15
901.24235	24300.55
905.0374	24217.85
908.8298	24138.65
912.61957	24206.85
916.40671	24435.25
920.19121	24800.05
923.97308	25228.65
927.75233	25400.55
931.52895	25361.85
935.30295	24984.15
939.07433	24402.15
942.84309	24064.55
946.60924	23964.55
950.37278	23943.45
954.13371	23833.05
957.89203	23678.95
961.64774	23558.95
965.40086	23506.45
969.15137	23444.25
972.89929	23362.45
976.64461	23342.95
980.38733	23382.15
984.12747	23522.75
987.86502	23771.65
991.59999	24174.75
995.33237	24790.55
999.06217	25759.05
1002.78939	26727.85
1006.51404	27144.05
1010.23611	27282.95
1013.95561	27507.35
1017.67255	27493.25
1021.38692	27106.65
1025.09872	26871.65
1028.80796	27179.65
1032.51465	28110.75
1036.21877	28856.15
1039.92035	28682.85
1043.61937	28087.65
1047.31584	27182.15
1051.00976	26344.55
1054.70114	25927.95
1058.38998	25952.05
1062.07627	25985.95
1065.76003	26028.55
1069.44126	26109.15
1073.11995	26485.75
1076.79611	26818.95
1080.46974	27142.15
1084.14085	27496.25
1087.80943	27896.35
1091.47549	27973.55
1095.13903	27724.55
1098.80005	27195.95
1102.45857	26682.85
1106.11456	26407.15
1109.76805	26435.45
1113.41903	26612.25
1117.06751	26906.35
1120.71348	27308.65
1124.35696	27580.65
1127.99793	27866.65
1131.63641	27828.25
1135.2724	27577.25
1138.90589	27297.75
1142.5369	27174.55
1146.16542	27136.65
1149.79145	27220.05
1153.415	27440.75
1157.03607	27790.55
1160.65467	28423.65
1164.27079	29517.85
1167.88443	31074.85
1171.49561	33233.05
1175.10432	36162.85
1178.71056	39718.05
1182.31434	42573.55
1185.91565	43655.25
1189.51451	42548.35
1193.11091	40398.85
1196.70485	38214.55
1200.29634	36438.95
1203.88538	35139.35
1207.47197	34236.95
1211.05612	33664.45
1214.63782	33291.35
1218.21708	33263.45
1221.79391	33601.05
1225.36829	33870.55
1228.94024	33501.65
1232.50976	32430.25
1236.07685	31549.25
1239.6415	30960.15
1243.20374	30818.75
1246.76355	31031.85
1250.32093	31476.45
1253.8759	32172.45
1257.42845	33097.05
1260.97859	34087.45
1264.52631	35103.85
1268.07163	36177.65
1271.61453	37351.15
1275.15503	38604.65
1278.69312	39830.65
1282.22882	40941.75
1285.76211	41912.35
1289.29301	42948.35
1292.82151	44295.65
1296.34761	46136.05
1299.87133	48819.45
1303.39266	52192.75
1306.9116	56400.05
1310.42815	60734.05
1313.94233	63480.95
1317.45412	63394.85
1320.96354	61246.85
1324.47058	58602.65
1327.97525	56156.35
1331.47754	54262.45
1334.97747	52988.55
1338.47502	52254.95
1341.97022	51660.75
1345.46305	51162.75
1348.95352	50980.75
1352.44163	51301.35
1355.92738	53150.35
1359.41078	56477.65
1362.89183	59283.05
1366.37053	58049.15
1369.84688	52713.75
1373.32088	46489.85
1376.79254	42493.75
1380.26186	40814.85
1383.72883	40564.65
1387.19347	40436.55
1390.65578	40002.75
1394.11575	39872.25
1397.57339	40577.15
1401.0287	41580.45
1404.48168	42392.25
1407.93234	42509.65
1411.38068	41835.55
1414.82669	40536.35
1418.27039	38978.25
1421.71177	37547.95
1425.15083	36429.85
1428.58758	35930.95
1432.02203	36427.85
1435.45416	37351.85
1438.88399	38458.05
1442.31151	39183.35
1445.73673	39715.35
1449.15965	39951.95
1452.58027	39987.55
1455.9986	39840.55
1459.41463	39987.85
1462.82837	40644.75
1466.23982	41619.95
1469.64898	42450.95
1473.05586	42967.55
1476.46045	43024.55
1479.86276	42693.75
1483.26279	42203.15
1486.66054	41940.35
1490.05602	41851.35
1493.44922	41997.25
1496.84016	42224.15
1500.22882	42941.35
1503.61521	44212.15
1506.99934	45934.75
1510.38121	47436.25
1513.76081	47794.05
1517.13816	46569.45
1520.51324	44402.75
1523.88607	42435.05
1527.25665	41385.85
1530.62498	40912.15
1533.99105	40782.65
1537.35488	40525.65
1540.71647	40035.95
1544.07581	39398.75
1547.4329	38813.55
1550.78776	38100.15
1554.14038	37520.95
1557.49077	37116.05
1560.83892	36972.05
1564.18484	37010.35
1567.52853	37174.45
1570.86999	37452.85
1574.20922	37901.65
1577.54624	38039.15
1580.88103	37791.15
1584.2136	37732.25
1587.54395	38806.35
1590.87208	41221.55
1594.19801	44699.25
1597.52172	48263.35
1600.84321	49427.35
1604.16251	47203.15
1607.47959	43179.55
1610.79447	38922.05
1614.10715	35350.55
1617.41763	32578.05
1620.7259	30821.65
1624.03199	30010.45
1627.33587	30182.45
1630.63757	31286.85
1633.93707	33470.65
1637.23439	37114.35
1640.52951	42088.85
1643.82246	47598.95
1647.11321	51342.85
1650.40179	51059.05
1653.68819	46574.05
1656.97241	39986.95
1660.25446	34109.85
1663.53433	30007.85
1666.81203	27484.05
1670.08756	25955.35
1673.36092	24989.35
1676.63211	24278.75
1679.90115	23829.65
1683.16801	23444.65
1686.43272	23236.65
1689.69527	23039.15
1692.95567	22868.25
1696.2139	22798.35
1699.46999	22717.65
1702.72392	22664.55
1705.97571	22640.85
1709.22535	22623.35
1712.47284	22633.45
1715.71819	22588.85
1718.96139	22555.85
1722.20246	22427.25
1725.44139	22360.65
1728.67818	22248.65
1731.91284	22182.95
1735.14537	22057.55
1738.37576	21976.25
1741.60403	21847.05
1744.83017	21839.45
1748.05418	21762.85
1751.27607	21740.65
1754.49584	21681.15
1757.71349	21684.55
1760.92903	21639.05
1764.14244	21639.15
1767.35375	21580.65
1770.56294	21564.55
1773.77002	21556.75
1776.97499	21547.35
1780.17785	21534.35
1783.37861	21494.95
1786.57727	21447.15
1789.77382	21405.15
1792.96828	21384.05
1796.16064	21356.75
1799.3509	21360.25
1802.53907	21311.25
1805.72514	21290.65
1808.90913	21213.25
1812.09102	21163.95
1815.27083	21089.45
1818.44856	21056.85
1821.6242	21056.55
1824.79776	21017.85
1827.96924	20995.25
1831.13864	20971.85
1834.30597	20968.35
1837.47122	20974.75
1840.6344	20930.75
1843.7955	20950.25
1846.95454	20945.35
1850.11151	20919.05
1853.26642	20914.55
1856.41926	20891.75
1859.57004	20904.15
1862.71876	20876.85
1865.86542	20943.25
1869.01003	20928.95
1872.15258	20884.45
1875.29308	20881.05
1878.43152	20861.35
1881.56792	20842.35
1884.70227	20847.15
1887.83457	20871.25
1890.96482	20844.55
1894.09304	20821.05
1897.21921	20793.05
1900.34335	20812.25
1903.46544	20791.95
1906.58551	20779.85
1909.70353	20822.15
1912.81953	20811.25
1915.93349	20745.15
1919.04543	20722.15
1922.15534	20712.35
1925.26322	20667.55
1928.36908	20633.95
1931.47292	20564.95
1934.57473	20527.15
1937.67453	20441.75
1940.77232	20406.95
1943.86808	20362.75
1946.96184	20344.95
1950.05358	20295.35
1953.14331	20206.75
1956.23103	20140.95
1959.31675	20058.65
1962.40046	20027.45
1965.48217	19993.45
1968.56188	19906.45
1971.63959	19905.85
1974.7153	19842.55
1977.78901	19815.55
1980.86073	19731.25
1983.93046	19721.75
1986.99819	19602.25
1990.06394	19548.85
1993.1277	19522.25
1996.18947	19439.85
1999.24925	19419.65
2002.30706	19359.25
2005.36288	19300.35
2008.41672	19256.75
2011.46859	19217.55
2014.51848	19171.25
2017.56639	19141.35
2020.61233	19083.95
2023.6563	19014.25
2026.6983	19007.35
2029.73833	19021.45
2032.7764	18983.15
2035.8125	18936.35
2038.84664	18943.75
2041.87881	18894.45
2044.90903	18882.65
2047.93729	18854.95
2050.96359	18822.45
2053.98794	18809.65
2057.01034	18813.85
2060.03078	18794.95
2063.04927	18800.15
2066.06582	18788.55
2069.08042	18814.15
2072.09307	18749.05
2075.10378	18701.05
2078.11255	18718.65
2081.11938	18701.55
2084.12426	18679.25
2087.12722	18675.95
2090.12824	18667.55
2093.12732	18631.95
2096.12447	18707.25
2099.11969	18672.25
2102.11299	18673.25
2105.10435	18712.85
2108.09379	18698.55
2111.08131	18717.15
2114.0669	18735.15
2117.05057	18739.45
2120.03233	18768.95
2123.01216	18794.05
2125.99008	18800.05
2128.96609	18819.15
2131.94018	18863.25
2134.91236	18862.45
2137.88263	18865.05
2140.851	18905.85
2143.81746	18924.45
2146.78201	18954.55
2149.74466	18957.85
2152.7054	18982.25
2155.66425	18927.35
2158.6212	18969.75
2161.57625	18904.75
2164.52941	18923.05
2167.48067	18933.25
2170.43004	18948.05
2173.37752	18946.55
2176.32311	18992.25
2179.26681	19005.85
2182.20863	18985.95
2185.14856	19022.65
2188.08661	19008.75
2191.02278	19033.25
2193.95707	19014.55
2196.88948	19043.05
2199.82001	19037.15
2202.74867	19028.35
2205.67545	19049.65
2208.60037	19005.05
2211.52341	19007.25
2214.44458	18976.65
2217.36388	18968.75
2220.28132	18944.35
2223.1969	18969.75
2226.11061	18978.85
2229.02246	18920.45
2231.93245	18857.55
2234.84058	18804.25
2237.74686	18799.65
2240.65128	18806.85
2243.55385	18778.95
2246.45456	18731.95
2249.35343	18752.45
2252.25044	18695.35
2255.14561	18696.45
2258.03893	18664.95
2260.93041	18620.25
2263.82004	18526.85
2266.70783	18540.65
2269.59378	18487.15
2272.4779	18430.95
2275.36017	18397.65
2278.24061	18381.35
2281.11922	18356.05
2283.996	18334.75
2286.87094	18333.95
2289.74405	18332.05
2292.61534	18315.35
2295.4848	18288.55
2298.35243	18327.45
2301.21824	18326.55
2304.08223	18319.65
2306.94439	18376.35
2309.80474	18388.85
2312.66327	18438.25
2315.51999	18424.25
2318.37489	18426.95
2321.22797	18385.85
2324.07925	18413.65
2326.92871	18351.05
2329.77637	18371.45
2332.62222	18364.85
2335.46626	18370.85
2338.3085	18379.75
2341.14893	18358.75
2343.98756	18367.65
2346.8244	18413.95
2349.65943	18410.15
2352.49267	18441.05
2355.32411	18466.75
2358.15376	18442.35
2360.98161	18440.85
2363.80768	18389.85
2366.63195	18377.45
2369.45444	18357.45
2372.27514	18315.45
2375.09405	18300.15
2377.91118	18251.45
2380.72652	18232.05
2383.54009	18184.05
2386.35187	18126.55
2389.16188	18086.55
2391.97011	18072.75
2394.77657	18087.25
2397.58125	18034.55
2400.38416	18018.75
2403.18529	17973.65
2405.98466	18003.15
2408.78226	17953.35
2411.57809	17916.55
2414.37216	17882.05
2417.16446	17867.25
2419.955	17833.95
2422.74378	17852.25
2425.5308	17804.55
2428.31606	17828.15
2431.09956	17841.65
2433.88131	17823.55
2436.6613	17832.95
2439.43954	17818.95
2442.21603	17856.95
2444.99077	17841.55
2447.76377	17829.45
2450.53501	17836.35
2453.30451	17849.55
2456.07226	17830.75
2458.83827	17794.95
2461.60254	17783.05
2464.36507	17789.35
2467.12586	17815.55
2469.88492	17827.85
2472.64224	17845.85
2475.39782	17866.65
2478.15167	17828.55
2480.90379	17874.95
2483.65417	17897.65
2486.40283	17943.45
2489.14976	17918.85
2491.89497	17930.05
2494.63845	17933.35
2497.3802	17961.65
2500.12024	17968.15
2502.85855	17950.25
2505.59514	17936.35
2508.33002	17903.55
2511.06318	17911.75
2513.79462	17870.95
2516.52435	17862.15
2519.25237	17871.35
2521.97867	17865.05
2524.70327	17880.65
2527.42616	17821.95
2530.14734	17850.25
2532.86681	17835.65
2535.58458	17830.95
2538.30065	17843.65
2541.01501	17858.85
2543.72768	17835.85
2546.43864	17843.65
2549.14791	17797.55
2551.85548	17792.15
2554.56136	17771.15
2557.26554	17748.45
2559.96803	17761.55
2562.66883	17746.65
2565.36794	17686.55
2568.06536	17714.95
2570.7611	17704.55
2573.45514	17739.25
2576.14751	17725.35
2578.83819	17729.25
2581.52719	17731.65
2584.21451	17735.95
2586.90015	17743.85
2589.58411	17707.45
2592.2664	17723.65
2594.94701	17707.25
2597.62594	17733.75
2600.30321	17704.65
2602.9788	17710.25
2605.65273	17668.45
2608.32498	17721.25
2610.99557	17671.35
2613.66449	17717.55
2616.33175	17719.25
2618.99734	17738.35
2621.66128	17729.65
2624.32355	17762.85
2626.98416	17790.75
2629.64311	17781.85
2632.30041	17812.05
2634.95605	17808.75
2637.61004	17773.15
2640.26238	17729.65
2642.91306	17678.25
2645.56209	17657.05
2648.20948	17662.85
2650.85521	17621.65
2653.4993	17651.05
2656.14175	17613.35
2658.78255	17643.75
2661.42171	17707.25
2664.05923	17699.15
2666.6951	17718.25
2669.32934	17730.85
2671.96194	17692.95
2674.59291	17724.85
2677.22224	17705.85
2679.84993	17737.85
2682.476	17698.85
2685.10043	17757.05
2687.72324	17660.25
2690.34441	17667.45
2692.96396	17642.25
2695.58188	17659.55
2698.19818	17632.25
2700.81285	17643.05
2703.4259	17645.15
2706.03733	17698.45
2708.64714	17655.55
2711.25533	17710.05
2713.86191	17685.35
2716.46687	17746.75
2719.07021	17727.75
2721.67194	17791.35
2724.27206	17770.25
2726.87057	17783.55
2729.46747	17822.45
2732.06276	17830.85
2734.65644	17830.95
2737.24852	17849.65
2739.83899	17827.45
2742.42786	17808.95
2745.01513	17774.75
2747.60079	17761.95
2750.18486	17760.05
2752.76733	17714.45
2755.3482	17734.05
2757.92747	17774.55
2760.50515	17724.15
2763.08123	17822.65
2765.65573	17771.95
2768.22863	17763.65
2770.79994	17720.95
2773.36967	17763.25
2775.9378	17754.45
2778.50435	17776.25
2781.06932	17747.65
2783.6327	17768.75
2786.1945	17704.45
2788.75471	17731.95
2791.31335	17690.65
2793.87041	17717.95
2796.42589	17674.15
2798.97979	17671.35
2801.53212	17618.85
2804.08288	17601.95
2806.63206	17534.05
2809.17967	17523.75
2811.72571	17490.25
2814.27018	17460.45
2816.81308	17461.55
2819.35442	17441.25
2821.89419	17416.05
2824.43239	17400.95
2826.96904	17371.35
2829.50412	17412.55
2832.03763	17361.45
2834.56959	17385.85
2837.1	17343.15
2839.62884	17337.35
2842.15613	17330.05
2844.68186	17362.15
2847.20604	17314.05
2849.72867	17326.45
2852.24974	17301.45
2854.76927	17290.65
2857.28724	17294.45
2859.80367	17293.15
2862.31855	17300.15
2864.83189	17269.25
2867.34368	17241.35
2869.85393	17248.15
2872.36264	17209.85
2874.8698	17231.65
2877.37543	17225.15
2879.87952	17219.95
2882.38207	17228.95
2884.88308	17195.65
2887.38256	17249.15
2889.88051	17222.55
2892.37692	17232.55
2894.8718	17251.85
2897.36515	17300.35
2899.85698	17311.75
2902.34727	17324.55
2904.83604	17352.35
2907.32328	17388.55
2909.809	17438.45
2912.29319	17486.55
2914.77587	17470.05
2917.25702	17486.55
2919.73665	17445.35
2922.21476	17460.75
2924.69136	17387.45
2927.16644	17428.65
2929.64	17378.05
2932.11205	17370.65
2934.58258	17313.15
2937.05161	17330.45
2939.51912	17325.15
2941.98513	17323.25
2944.44962	17310.15
2946.91261	17259.55
2949.37409	17290.85
2951.83407	17289.75
2954.29254	17327.45
2956.74951	17300.15
2959.20498	17294.15
2961.65895	17272.65
2964.11142	17304.35
2966.56239	17303.15
2969.01186	17322.35
2971.45984	17285.55
2973.90632	17253.45
2976.35131	17202.45
2978.7948	17167.05
2981.23681	17104.75
2983.67732	17087.15
2986.11635	17052.55
2988.55388	17045.85
2990.98993	16989.55
2993.4245	16944.75
2995.85758	16922.75
2998.28917	16904.55
3000.71928	16882.25
3003.14791	16857.15
3005.57506	16830.25
3008.00073	16781.05
3010.42493	16754.85
3012.84764	16751.55
3015.26888	16748.25
3017.68865	16689.05
3020.10694	16706.65
3022.52376	16669.95
3024.9391	16665.55
3027.35298	16649.05
3029.76539	16616.55
3032.17632	16653.75
3034.5858	16608.15
3036.9938	16618.65
3039.40034	16587.55
3041.80542	16600.25
3044.20903	16551.15
3046.61118	16577.25
3049.01187	16517.85
3051.4111	16575.35
3053.80888	16524.65
3056.20519	16514.75
3058.60005	16481.25
3060.99345	16435.45
3063.3854	16408.65
3065.7759	16347.55
3068.16494	16324.15
3070.55254	16253.35
3072.93868	16225.15
3075.32338	16193.15
3077.70662	16178.45
3080.08842	16146.25
3082.46878	16166.95
3084.84769	16100.85
3087.22515	16117.65
3089.60118	16133.85
3091.97576	16116.75
3094.3489	16109.05
3096.72061	16084.55
3099.09087	16146.05
3101.4597	16132.45
3103.82709	16132.35
3106.19305	16130.55
3108.55757	16128.15
3110.92066	16084.85
3113.28232	16066.65
3115.64255	16031.75
3118.00134	16071.15
3120.35871	16027.65
3122.71466	15998.75
3125.06917	15983.05
3127.42226	15947.85
3129.77393	15967.25
3132.12417	15902.65
3134.47299	15877.65
3136.82039	15879.15
3139.16636	15890.65
3141.51092	15915.05
3143.85406	15899.35
3146.19579	15887.25
3148.53609	15891.55
3150.87499	15905.65
3153.21246	15878.15
3155.54853	15925.75
3157.88318	15895.85
3160.21642	15923.95
3162.54826	15973.45
3164.87868	15954.95
3167.2077	15956.75
3169.5353	15947.55
3171.86151	15933.85
3174.18631	15915.55
3176.5097	15954.95
3178.83169	15919.15
3181.15228	15927.25
3183.47147	15865.15
3185.78926	15896.85
3188.10565	15863.55
3190.42065	15862.25
3192.73424	15856.65
3195.04645	15879.65
3197.35725	15854.75
3199.66667	15835.05
3201.97469	15875.75
3204.28132	15856.35
3206.58656	15837.15
3208.8904	15835.65
3211.19287	15852.45
3213.49394	15859.45
3215.79363	15857.45
3218.09193	15909.05
3220.38884	15916.25
3222.68438	15952.35
3224.97853	15895.65
3227.2713	15895.15
3229.56269	15888.25
3231.8527	15906.45
3234.14133	15893.35
3236.42858	15839.05
3238.71446	15833.15
3240.99896	15826.95
