Data from AgNPs_UA_50uM_CRN_0uM_R6G_10uM_Q_RamanShift__34__12-50-51-797.txt Node

Date: Tue Jul 26 12:50:51 BST 2022
User: TCL
Spectrometer: QEP01345
Trigger mode: 4
Integration Time (sec): 7.000000E0
Scans to average: 10
Electric dark correction enabled: true
Nonlinearity correction enabled: false
Boxcar width: 0
XAxis mode: Raman Shifts
Number of Pixels in Spectrum: 1044
>>>>>Begin Spectral Data<<<<<
46.04893	-0.425
50.45542	0.075
54.85868	1.675
59.25871	0.175
63.6555	59.275
68.04907	64.475
72.43941	66.775
76.82654	76.775
81.21044	78.575
85.59113	81.375
89.96862	86.275
94.34289	86.075
98.71396	92.475
103.08183	96.875
107.4465	96.275
111.80798	100.475
116.16626	96.775
120.52136	103.275
124.87327	102.475
129.222	105.075
133.56755	113.575
137.90993	113.975
142.24913	121.975
146.58517	132.875
150.91804	146.075
155.24774	168.475
159.57429	204.175
163.89768	251.375
168.21792	323.575
172.53501	433.375
176.84895	590.175
181.15975	814.475
185.46741	1129.975
189.77193	1547.475
194.07331	2077.575
198.37157	2672.375
202.6667	3302.675
206.9587	3963.875
211.24758	4629.475
215.53334	5347.675
219.81599	6174.875
224.09553	7130.375
228.37195	8183.675
232.64527	9295.475
236.91549	10360.875
241.18261	11198.375
245.44663	11825.575
249.70755	12270.875
253.96539	12596.875
258.22014	12852.575
262.4718	13031.875
266.72039	13081.575
270.96589	12969.575
275.20832	12707.575
279.44768	12329.875
283.68397	12012.175
287.91719	11856.775
292.14735	12051.075
296.37445	12649.375
300.59849	13618.175
304.81948	14811.575
309.03742	15762.275
313.25231	15905.675
317.46415	14940.375
321.67296	13327.375
325.87872	11951.575
330.08145	11349.575
334.28114	11378.575
338.47781	11732.975
342.67145	12282.375
346.86207	13157.475
351.04966	14451.675
355.23424	15861.175
359.4158	16854.575
363.59435	17159.575
367.76989	17081.275
371.94243	16754.275
376.11196	16455.375
380.27849	16083.575
384.44203	15699.475
388.60257	15299.675
392.76012	15049.775
396.91468	15140.175
401.06626	15628.075
405.21485	15857.775
409.36047	15299.975
413.50311	14000.575
417.64277	12761.375
421.77947	12031.775
425.9132	11706.275
430.04396	11653.975
434.17176	11777.175
438.2966	12098.275
442.41849	12624.775
446.53742	13262.375
450.6534	13728.675
454.76644	13895.175
458.87653	13791.975
462.98368	13455.975
467.08789	13030.875
471.18916	12482.675
475.2875	11889.875
479.38291	11439.875
483.4754	11131.775
487.56496	10920.775
491.6516	10817.375
495.73531	10782.975
499.81612	10857.875
503.89401	11073.875
507.96899	11408.675
512.04106	11733.475
516.11023	12235.075
520.1765	12546.475
524.23987	12569.175
528.30034	12339.775
532.35792	12073.675
536.41261	11763.175
540.46441	11331.475
544.51333	11106.575
548.55936	11121.075
552.60252	11418.775
556.64279	11797.575
560.6802	11998.575
564.71473	12513.175
568.7464	13478.375
572.7752	13692.175
576.80114	12653.475
580.82422	11650.775
584.84444	11289.075
588.86181	11343.475
592.87633	11602.675
596.888	12029.375
600.89682	13044.675
604.9028	16235.975
608.90594	24088.275
612.90624	32876.575
616.90371	29847.575
620.89834	18209.475
624.89015	13087.275
628.87913	12249.875
632.86528	12543.175
636.84862	12868.875
640.82913	12362.975
644.80683	11329.375
648.78172	10635.375
652.75379	10785.275
656.72306	11665.175
660.68952	12543.075
664.65319	12071.575
668.61405	11001.975
672.57211	10559.875
676.52738	10523.075
680.47986	10421.175
684.42955	10222.175
688.37646	10140.975
692.32058	10207.875
696.26192	10342.275
700.20048	10606.375
704.13626	10687.275
708.06928	10581.375
711.99952	10425.875
715.927	10464.375
719.85171	10632.075
723.77365	10696.875
727.69284	10569.375
731.60928	10471.275
735.52295	10476.375
739.43388	10525.475
743.34206	10611.775
747.24749	10652.275
751.15017	10694.175
755.05012	11074.075
758.94733	12274.475
762.8418	15085.075
766.73354	19196.175
770.62254	22728.475
774.50882	24560.475
778.39237	23429.275
782.27321	19136.975
786.15132	14783.575
790.02671	12299.275
793.89938	11267.675
797.76935	10834.075
801.6366	10641.975
805.50115	10564.375
809.36299	10493.775
813.22213	10415.475
817.07857	10359.575
820.93231	10360.275
824.78336	10430.175
828.63172	10533.775
832.47738	10550.275
836.32036	10472.975
840.16066	10308.875
843.99827	10204.875
847.8332	10151.775
851.66546	10119.975
855.49504	10127.175
859.32195	10106.475
863.1462	10025.475
866.96777	9965.375
870.78668	10011.975
874.60293	10100.675
878.41652	10224.675
882.22745	10385.975
886.03573	10477.175
889.84136	10433.575
893.64433	10364.575
897.44466	10378.275
901.24235	10331.275
905.0374	10225.675
908.8298	10075.375
912.61957	9943.375
916.40671	9936.475
920.19121	10034.775
923.97308	10237.475
927.75233	10553.275
931.52895	10860.575
935.30295	10629.675
939.07433	10090.175
942.84309	9647.375
946.60924	9444.075
950.37278	9366.675
954.13371	9295.775
957.89203	9270.375
961.64774	9231.175
965.40086	9185.975
969.15137	9154.075
972.89929	9141.275
976.64461	9167.675
980.38733	9159.575
984.12747	9182.175
987.86502	9268.775
991.59999	9388.275
995.33237	9636.275
999.06217	9978.975
1002.78939	10401.675
1006.51404	10745.275
1010.23611	11041.975
1013.95561	11213.775
1017.67255	11208.375
1021.38692	10958.575
1025.09872	10750.075
1028.80796	10703.975
1032.51465	10815.375
1036.21877	11043.575
1039.92035	11118.675
1043.61937	11118.475
1047.31584	10958.375
1051.00976	10771.175
1054.70114	10605.875
1058.38998	10553.075
1062.07627	10575.675
1065.76003	10592.575
1069.44126	10658.775
1073.11995	10819.775
1076.79611	11192.275
1080.46974	11694.175
1084.14085	12377.475
1087.80943	12873.875
1091.47549	12889.175
1095.13903	12390.175
1098.80005	11638.575
1102.45857	11239.975
1106.11456	11186.175
1109.76805	11472.475
1113.41903	12095.575
1117.06751	13081.375
1120.71348	14412.975
1124.35696	15907.075
1127.99793	16631.275
1131.63641	15764.375
1135.2724	14201.075
1138.90589	13006.475
1142.5369	12264.275
1146.16542	11756.175
1149.79145	11460.675
1153.415	11381.075
1157.03607	11528.975
1160.65467	11883.275
1164.27079	12531.175
1167.88443	13580.875
1171.49561	15272.975
1175.10432	18115.775
1178.71056	21830.775
1182.31434	24589.175
1185.91565	25216.875
1189.51451	24136.775
1193.11091	22003.475
1196.70485	19658.475
1200.29634	17981.675
1203.88538	16573.475
1207.47197	14967.075
1211.05612	13641.475
1214.63782	12907.975
1218.21708	12605.375
1221.79391	12591.675
1225.36829	12635.575
1228.94024	12695.475
1232.50976	12690.175
1236.07685	12827.975
1239.6415	13030.875
1243.20374	13218.075
1246.76355	13308.875
1250.32093	13496.675
1253.8759	13874.575
1257.42845	14535.075
1260.97859	15274.475
1264.52631	16036.675
1268.07163	16712.875
1271.61453	17189.175
1275.15503	17358.875
1278.69312	17432.975
1282.22882	17726.275
1285.76211	18507.075
1289.29301	19483.775
1292.82151	20345.275
1296.34761	21319.375
1299.87133	22995.175
1303.39266	25960.475
1306.9116	30586.775
1310.42815	35221.875
1313.94233	36370.975
1317.45412	33497.075
1320.96354	29149.875
1324.47058	25249.975
1327.97525	22473.975
1331.47754	21183.175
1334.97747	21101.775
1338.47502	21791.775
1341.97022	23073.975
1345.46305	25091.575
1348.95352	27827.775
1352.44163	31367.875
1355.92738	36591.575
1359.41078	44028.175
1362.89183	49046.375
1366.37053	44698.475
1369.84688	35205.375
1373.32088	27454.875
1376.79254	23042.275
1380.26186	20672.675
1383.72883	19184.775
1387.19347	17825.375
1390.65578	16499.175
1394.11575	15501.375
1397.57339	14965.775
1401.0287	14873.975
1404.48168	15068.175
1407.93234	15461.775
1411.38068	15940.975
1414.82669	16282.075
1418.27039	16229.075
1421.71177	15919.375
1425.15083	15667.575
1428.58758	15838.475
1432.02203	16284.475
1435.45416	16561.475
1438.88399	16552.675
1442.31151	16412.875
1445.73673	16430.675
1449.15965	16417.475
1452.58027	16179.275
1455.9986	15746.275
1459.41463	15613.775
1462.82837	15863.475
1466.23982	16398.275
1469.64898	16945.275
1473.05586	17282.775
1476.46045	17610.075
1479.86276	18038.375
1483.26279	18699.175
1486.66054	19509.475
1490.05602	20695.975
1493.44922	22457.775
1496.84016	25182.175
1500.22882	29454.075
1503.61521	35257.175
1506.99934	41591.575
1510.38121	46000.075
1513.76081	45734.675
1517.13816	40339.975
1520.51324	32690.775
1523.88607	26399.075
1527.25665	22653.775
1530.62498	20684.675
1533.99105	19573.375
1537.35488	18913.775
1540.71647	18619.875
1544.07581	18552.675
1547.4329	18605.275
1550.78776	18561.775
1554.14038	18524.975
1557.49077	18553.675
1560.83892	18877.875
1564.18484	19707.875
1567.52853	20824.975
1570.86999	21672.775
1574.20922	22085.175
1577.54624	21555.375
1580.88103	19774.075
1584.2136	17628.575
1587.54395	16493.275
1590.87208	16770.175
1594.19801	18256.575
1597.52172	20313.075
1600.84321	21443.875
1604.16251	20847.875
1607.47959	19206.975
1610.79447	17212.275
1614.10715	15302.875
1617.41763	13897.975
1620.7259	13113.775
1624.03199	12814.675
1627.33587	12943.975
1630.63757	13487.175
1633.93707	14588.475
1637.23439	16364.275
1640.52951	19140.375
1643.82246	23063.375
1647.11321	27348.275
1650.40179	29452.275
1653.68819	27401.975
1656.97241	22324.975
1660.25446	17434.475
1663.53433	14186.275
1666.81203	12302.475
1670.08756	11241.075
1673.36092	10580.175
1676.63211	10139.275
1679.90115	9840.175
1683.16801	9605.675
1686.43272	9441.375
1689.69527	9299.875
1692.95567	9268.875
1696.2139	9206.775
1699.46999	9179.875
1702.72392	9137.675
1705.97571	9144.875
1709.22535	9131.675
1712.47284	9150.075
1715.71819	9150.775
1718.96139	9126.575
1722.20246	9071.575
1725.44139	8981.975
1728.67818	8888.875
1731.91284	8786.675
1735.14537	8688.975
1738.37576	8624.375
1741.60403	8590.075
1744.83017	8555.275
1748.05418	8511.875
1751.27607	8490.875
1754.49584	8469.475
1757.71349	8441.175
1760.92903	8395.175
1764.14244	8363.475
1767.35375	8346.375
1770.56294	8307.875
1773.77002	8255.075
1776.97499	8217.875
1780.17785	8205.775
1783.37861	8185.475
1786.57727	8164.575
1789.77382	8129.575
1792.96828	8111.275
1796.16064	8101.875
1799.3509	8114.675
1802.53907	8078.675
1805.72514	8065.375
1808.90913	8004.075
1812.09102	8001.975
1815.27083	7941.075
1818.44856	7934.875
1821.6242	7927.075
1824.79776	7897.275
1827.96924	7878.475
1831.13864	7844.575
1834.30597	7853.675
1837.47122	7844.875
1840.6344	7800.775
1843.7955	7807.475
1846.95454	7774.675
1850.11151	7796.075
1853.26642	7787.875
1856.41926	7784.375
1859.57004	7780.075
1862.71876	7778.575
1865.86542	7794.675
1869.01003	7779.975
1872.15258	7801.275
1875.29308	7811.675
1878.43152	7803.075
1881.56792	7795.575
1884.70227	7770.475
1887.83457	7768.075
1890.96482	7765.775
1894.09304	7739.475
1897.21921	7739.175
1900.34335	7725.575
1903.46544	7708.575
1906.58551	7719.875
1909.70353	7727.475
1912.81953	7723.275
1915.93349	7705.775
1919.04543	7675.475
1922.15534	7662.775
1925.26322	7642.275
1928.36908	7627.575
1931.47292	7620.275
1934.57473	7590.375
1937.67453	7519.075
1940.77232	7529.775
1943.86808	7510.875
1946.96184	7492.175
1950.05358	7462.875
1953.14331	7447.575
1956.23103	7437.075
1959.31675	7406.575
1962.40046	7409.675
1965.48217	7361.975
1968.56188	7360.375
1971.63959	7359.175
1974.7153	7316.475
1977.78901	7328.675
1980.86073	7287.675
1983.93046	7259.175
1986.99819	7217.275
1990.06394	7180.075
1993.1277	7166.575
1996.18947	7113.975
1999.24925	7099.475
2002.30706	7069.375
2005.36288	7051.975
2008.41672	7035.075
2011.46859	7016.775
2014.51848	6968.075
2017.56639	6956.875
2020.61233	6939.275
2023.6563	6931.475
2026.6983	6898.275
2029.73833	6875.575
2032.7764	6860.375
2035.8125	6858.475
2038.84664	6862.675
2041.87881	6844.175
2044.90903	6823.675
2047.93729	6823.775
2050.96359	6808.475
2053.98794	6798.275
2057.01034	6787.375
2060.03078	6783.775
2063.04927	6776.975
2066.06582	6771.575
2069.08042	6748.275
2072.09307	6730.375
2075.10378	6726.575
2078.11255	6711.375
2081.11938	6701.075
2084.12426	6702.775
2087.12722	6702.575
2090.12824	6678.275
2093.12732	6698.975
2096.12447	6693.075
2099.11969	6672.375
2102.11299	6675.675
2105.10435	6689.775
2108.09379	6709.975
2111.08131	6706.375
2114.0669	6694.075
2117.05057	6715.175
2120.03233	6712.375
2123.01216	6725.675
2125.99008	6724.875
2128.96609	6742.475
2131.94018	6743.975
2134.91236	6724.375
2137.88263	6716.575
2140.851	6721.075
2143.81746	6717.075
2146.78201	6698.675
2149.74466	6672.875
2152.7054	6683.075
2155.66425	6675.175
2158.6212	6671.775
2161.57625	6642.375
2164.52941	6626.675
2167.48067	6632.375
2170.43004	6638.375
2173.37752	6626.675
2176.32311	6640.975
2179.26681	6640.575
2182.20863	6636.475
2185.14856	6649.575
2188.08661	6653.375
2191.02278	6617.175
2193.95707	6633.575
2196.88948	6612.875
2199.82001	6629.575
2202.74867	6607.375
2205.67545	6624.775
2208.60037	6621.875
2211.52341	6597.375
2214.44458	6596.275
2217.36388	6580.575
2220.28132	6563.875
2223.1969	6529.375
2226.11061	6527.775
2229.02246	6510.675
2231.93245	6509.075
2234.84058	6475.275
2237.74686	6480.375
2240.65128	6455.875
2243.55385	6449.675
2246.45456	6442.475
2249.35343	6449.775
2252.25044	6478.675
2255.14561	6461.275
2258.03893	6494.075
2260.93041	6466.175
2263.82004	6466.475
2266.70783	6448.675
2269.59378	6426.275
2272.4779	6410.775
2275.36017	6389.775
2278.24061	6381.575
2281.11922	6359.675
2283.996	6347.275
2286.87094	6311.875
2289.74405	6296.775
2292.61534	6275.175
2295.4848	6267.975
2298.35243	6253.775
2301.21824	6234.675
2304.08223	6271.775
2306.94439	6258.075
2309.80474	6279.275
2312.66327	6252.475
2315.51999	6254.475
2318.37489	6265.275
2321.22797	6256.975
2324.07925	6251.675
2326.92871	6217.975
2329.77637	6236.675
2332.62222	6228.375
2335.46626	6234.975
2338.3085	6216.675
2341.14893	6234.575
2343.98756	6245.175
2346.8244	6266.775
2349.65943	6276.675
2352.49267	6274.375
2355.32411	6275.775
2358.15376	6263.175
2360.98161	6295.375
2363.80768	6297.675
2366.63195	6319.775
2369.45444	6307.575
2372.27514	6307.875
2375.09405	6291.775
2377.91118	6290.975
2380.72652	6250.175
2383.54009	6220.975
2386.35187	6201.375
2389.16188	6156.975
2391.97011	6128.675
2394.77657	6112.275
2397.58125	6088.975
2400.38416	6069.475
2403.18529	6059.775
2405.98466	6041.375
2408.78226	5999.875
2411.57809	6007.975
2414.37216	5977.875
2417.16446	5999.875
2419.955	5977.575
2422.74378	5970.275
2425.5308	5973.375
2428.31606	5965.675
2431.09956	5969.675
2433.88131	5976.675
2436.6613	5989.775
2439.43954	5986.575
2442.21603	5981.675
2444.99077	5968.975
2447.76377	5985.675
2450.53501	5980.575
2453.30451	5965.675
2456.07226	5979.075
2458.83827	5984.475
2461.60254	5971.175
2464.36507	5938.175
2467.12586	5949.175
2469.88492	5955.675
2472.64224	5964.175
2475.39782	5967.075
2478.15167	5981.275
2480.90379	5991.975
2483.65417	6029.575
2486.40283	6053.675
2489.14976	6077.175
2491.89497	6085.575
2494.63845	6083.575
2497.3802	6087.975
2500.12024	6061.775
2502.85855	6052.875
2505.59514	6025.475
2508.33002	5986.275
2511.06318	5952.075
2513.79462	5926.175
2516.52435	5902.875
2519.25237	5874.675
2521.97867	5838.675
2524.70327	5842.375
2527.42616	5836.275
2530.14734	5842.875
2532.86681	5808.875
2535.58458	5824.075
2538.30065	5827.175
2541.01501	5839.175
2543.72768	5815.175
2546.43864	5823.275
2549.14791	5830.775
2551.85548	5817.375
2554.56136	5814.575
2557.26554	5808.175
2559.96803	5815.975
2562.66883	5800.875
2565.36794	5804.075
2568.06536	5801.475
2570.7611	5788.775
2573.45514	5773.375
2576.14751	5778.375
2578.83819	5759.075
2581.52719	5753.775
2584.21451	5743.675
2586.90015	5730.775
2589.58411	5732.875
2592.2664	5725.575
2594.94701	5712.775
2597.62594	5723.775
2600.30321	5709.675
2602.9788	5713.675
2605.65273	5721.175
2608.32498	5713.275
2610.99557	5722.075
2613.66449	5719.975
2616.33175	5731.975
2618.99734	5738.675
2621.66128	5749.575
2624.32355	5735.675
2626.98416	5747.075
2629.64311	5728.075
2632.30041	5720.075
2634.95605	5711.875
2637.61004	5701.475
2640.26238	5697.875
2642.91306	5692.375
2645.56209	5685.875
2648.20948	5666.875
2650.85521	5646.175
2653.4993	5652.075
2656.14175	5652.675
2658.78255	5663.675
2661.42171	5662.575
2664.05923	5688.475
2666.6951	5703.675
2669.32934	5724.675
2671.96194	5727.275
2674.59291	5732.375
2677.22224	5727.675
2679.84993	5726.075
2682.476	5731.675
2685.10043	5713.175
2687.72324	5716.875
2690.34441	5714.075
2692.96396	5703.875
2695.58188	5689.775
2698.19818	5675.375
2700.81285	5699.875
2703.4259	5691.875
2706.03733	5699.775
2708.64714	5683.475
2711.25533	5695.975
2713.86191	5690.375
2716.46687	5709.275
2719.07021	5716.775
2721.67194	5724.575
2724.27206	5714.775
2726.87057	5714.175
2729.46747	5698.775
2732.06276	5704.975
2734.65644	5706.175
2737.24852	5688.275
2739.83899	5685.275
2742.42786	5692.675
2745.01513	5676.775
2747.60079	5676.675
2750.18486	5624.175
2752.76733	5628.475
2755.3482	5629.575
2757.92747	5612.675
2760.50515	5616.875
2763.08123	5618.075
2765.65573	5613.275
2768.22863	5612.875
2770.79994	5618.975
2773.36967	5601.275
2775.9378	5627.075
2778.50435	5617.075
2781.06932	5626.875
2783.6327	5627.975
2786.1945	5605.875
2788.75471	5630.075
2791.31335	5617.175
2793.87041	5611.375
2796.42589	5595.075
2798.97979	5605.475
2801.53212	5596.975
2804.08288	5611.775
2806.63206	5588.675
2809.17967	5583.075
2811.72571	5604.975
2814.27018	5605.475
2816.81308	5602.075
2819.35442	5616.775
2821.89419	5635.675
2824.43239	5626.675
2826.96904	5636.775
2829.50412	5631.275
2832.03763	5612.175
2834.56959	5635.675
2837.1	5612.475
2839.62884	5606.975
2842.15613	5622.175
2844.68186	5623.575
2847.20604	5622.975
2849.72867	5642.575
2852.24974	5655.675
2854.76927	5650.875
2857.28724	5639.675
2859.80367	5668.075
2862.31855	5676.875
2864.83189	5661.975
2867.34368	5659.275
2869.85393	5663.275
2872.36264	5676.275
2874.8698	5674.375
2877.37543	5644.075
2879.87952	5639.375
2882.38207	5620.975
2884.88308	5616.375
2887.38256	5611.975
2889.88051	5603.875
2892.37692	5597.475
2894.8718	5596.275
2897.36515	5592.175
2899.85698	5586.375
2902.34727	5599.475
2904.83604	5592.675
2907.32328	5627.475
2909.809	5637.175
2912.29319	5608.375
2914.77587	5599.975
2917.25702	5589.775
2919.73665	5582.775
2922.21476	5578.075
2924.69136	5550.675
2927.16644	5551.875
2929.64	5537.175
2932.11205	5544.675
2934.58258	5484.175
2937.05161	5516.075
2939.51912	5481.775
2941.98513	5494.875
2944.44962	5476.075
2946.91261	5447.675
2949.37409	5459.075
2951.83407	5466.875
2954.29254	5428.175
2956.74951	5440.275
2959.20498	5420.675
2961.65895	5416.075
2964.11142	5406.975
2966.56239	5385.075
2969.01186	5386.875
2971.45984	5361.475
2973.90632	5386.575
2976.35131	5334.775
2978.7948	5336.475
2981.23681	5316.175
2983.67732	5301.675
2986.11635	5299.875
2988.55388	5267.875
2990.98993	5256.675
2993.4245	5235.275
2995.85758	5235.775
2998.28917	5246.475
3000.71928	5221.675
3003.14791	5212.175
3005.57506	5202.275
3008.00073	5202.775
3010.42493	5187.775
3012.84764	5169.875
3015.26888	5179.375
3017.68865	5163.975
3020.10694	5133.075
3022.52376	5112.375
3024.9391	5113.575
3027.35298	5107.475
3029.76539	5086.875
3032.17632	5079.075
3034.5858	5068.575
3036.9938	5063.575
3039.40034	5045.675
3041.80542	5039.275
3044.20903	5040.875
3046.61118	5027.875
3049.01187	5014.475
3051.4111	5004.975
3053.80888	4998.075
3056.20519	4986.175
3058.60005	4954.175
3060.99345	4939.175
3063.3854	4944.275
3065.7759	4914.475
3068.16494	4909.775
3070.55254	4896.775
3072.93868	4883.975
3075.32338	4860.375
3077.70662	4850.775
3080.08842	4822.975
3082.46878	4830.775
3084.84769	4815.975
3087.22515	4810.275
3089.60118	4793.575
3091.97576	4807.875
3094.3489	4800.275
3096.72061	4795.875
3099.09087	4788.075
3101.4597	4766.675
3103.82709	4771.675
3106.19305	4781.675
3108.55757	4776.375
3110.92066	4761.075
3113.28232	4768.575
3115.64255	4745.075
3118.00134	4745.075
3120.35871	4738.775
3122.71466	4737.475
3125.06917	4713.775
3127.42226	4705.975
3129.77393	4738.275
3132.12417	4719.875
3134.47299	4715.675
3136.82039	4719.275
3139.16636	4720.575
3141.51092	4719.975
3143.85406	4725.475
3146.19579	4711.575
3148.53609	4728.175
3150.87499	4750.675
3153.21246	4759.375
3155.54853	4745.475
3157.88318	4741.575
3160.21642	4750.775
3162.54826	4756.275
3164.87868	4748.575
3167.2077	4748.675
3169.5353	4743.575
3171.86151	4758.475
3174.18631	4748.175
3176.5097	4759.875
3178.83169	4749.475
3181.15228	4737.375
3183.47147	4740.375
3185.78926	4714.075
3188.10565	4730.475
3190.42065	4741.475
3192.73424	4733.775
3195.04645	4735.275
