Data from AgNPs_UA_10uM_CRN_0uM_R6G_10uM_Q_RamanShift__12__12-02-42-637.txt Node

Date: Mon Jul 18 12:02:42 BST 2022
User: TCL
Spectrometer: QEP01345
Trigger mode: 4
Integration Time (sec): 7.000000E0
Scans to average: 10
Electric dark correction enabled: true
Nonlinearity correction enabled: false
Boxcar width: 0
XAxis mode: Raman Shifts
Number of Pixels in Spectrum: 1044
>>>>>Begin Spectral Data<<<<<
46.04893	-0.4875
50.45542	-3.0875
54.85868	-2.4875
59.25871	-0.2875
63.6555	139.6125
68.04907	142.5125
72.43941	156.1125
76.82654	160.3125
81.21044	158.5125
85.59113	163.6125
89.96862	171.3125
94.34289	178.3125
98.71396	181.7125
103.08183	191.1125
107.4465	191.2125
111.80798	195.7125
116.16626	206.1125
120.52136	212.5125
124.87327	228.3125
129.222	239.3125
133.56755	255.6125
137.90993	274.7125
142.24913	304.4125
146.58517	340.4125
150.91804	397.2125
155.24774	474.9125
159.57429	598.1125
163.89768	766.6125
168.21792	1010.9125
172.53501	1401.6125
176.84895	1951.4125
181.15975	2746.6125
185.46741	3877.4125
189.77193	5375.6125
194.07331	7187.7125
198.37157	9258.5125
202.6667	11436.2125
206.9587	13624.9125
211.24758	15757.4125
215.53334	17870.7125
219.81599	20073.6125
224.09553	22553.3125
228.37195	25264.9125
232.64527	28228.2125
236.91549	31322.3125
241.18261	34469.7125
245.44663	37425.8125
249.70755	40206.4125
253.96539	42613.5125
258.22014	44652.4125
262.4718	46212.3125
266.72039	47284.9125
270.96589	47842.5125
275.20832	47954.3125
279.44768	47671.3125
283.68397	47086.9125
287.91719	46747.3125
292.14735	46462.0125
296.37445	46453.2125
300.59849	46517.2125
304.81948	46687.0125
309.03742	46763.0125
313.25231	46558.3125
317.46415	46069.0125
321.67296	45234.0125
325.87872	44521.3125
330.08145	44269.7125
334.28114	44436.3125
338.47781	44877.5125
342.67145	45435.5125
346.86207	46074.8125
351.04966	46899.6125
355.23424	47715.5125
359.4158	48429.4125
363.59435	48983.9125
367.76989	49377.3125
371.94243	49647.4125
376.11196	49774.9125
380.27849	50057.4125
384.44203	50380.4125
388.60257	50603.7125
392.76012	51006.4125
396.91468	51616.2125
401.06626	52334.8125
405.21485	52730.9125
409.36047	52510.6125
413.50311	52092.8125
417.64277	51677.9125
421.77947	51642.6125
425.9132	51853.6125
430.04396	52029.6125
434.17176	52298.2125
438.2966	52710.5125
442.41849	53154.4125
446.53742	53723.1125
450.6534	54471.8125
454.76644	55115.8125
458.87653	55485.3125
462.98368	55587.1125
467.08789	55626.8125
471.18916	55463.2125
475.2875	55223.3125
479.38291	55019.9125
483.4754	54784.7125
487.56496	54663.8125
491.6516	54522.4125
495.73531	54399.1125
499.81612	54419.6125
503.89401	54701.6125
507.96899	54938.9125
512.04106	54966.9125
516.11023	55091.8125
520.1765	55033.1125
524.23987	54830.0125
528.30034	54636.6125
532.35792	54542.6125
536.41261	54348.5125
540.46441	54114.4125
544.51333	54241.6125
548.55936	54645.3125
552.60252	55219.8125
556.64279	55941.9125
560.6802	56387.6125
564.71473	56732.6125
568.7464	57273.5125
572.7752	58003.3125
576.80114	58559.6125
580.82422	59241.0125
584.84444	59782.3125
588.86181	60024.5125
592.87633	60112.7125
596.888	60263.5125
600.89682	60704.0125
604.9028	62537.6125
608.90594	66632.0125
612.90624	70175.5125
616.90371	66506.6125
620.89834	59661.8125
624.89015	56967.3125
628.87913	56772.9125
632.86528	57345.4125
636.84862	57637.1125
640.82913	57335.2125
644.80683	56581.1125
648.78172	55955.2125
652.75379	56087.4125
656.72306	56643.4125
660.68952	57376.2125
664.65319	57209.2125
668.61405	56899.6125
672.57211	56960.9125
676.52738	57100.4125
680.47986	57084.5125
684.42955	56813.8125
688.37646	56750.6125
692.32058	56953.5125
696.26192	57373.3125
700.20048	57863.1125
704.13626	58116.4125
708.06928	58157.4125
711.99952	58054.5125
715.927	57861.8125
719.85171	57892.3125
723.77365	57807.3125
727.69284	57522.8125
731.60928	57184.5125
735.52295	57202.9125
739.43388	57182.8125
743.34206	57409.6125
747.24749	57583.1125
751.15017	57707.9125
755.05012	58185.7125
758.94733	59336.3125
762.8418	61402.2125
766.73354	64449.6125
770.62254	66934.1125
774.50882	67246.9125
778.39237	65689.2125
782.27321	63152.4125
786.15132	60840.6125
790.02671	59194.8125
793.89938	58233.7125
797.76935	57791.1125
801.6366	57611.0125
805.50115	57553.4125
809.36299	57350.1125
813.22213	57283.5125
817.07857	57288.4125
820.93231	57415.6125
824.78336	57499.6125
828.63172	57519.8125
832.47738	57454.0125
836.32036	57470.0125
840.16066	57557.4125
843.99827	57603.5125
847.8332	57633.8125
851.66546	57603.7125
855.49504	57622.4125
859.32195	57729.4125
863.1462	57724.0125
866.96777	57880.0125
870.78668	57852.7125
874.60293	57963.7125
878.41652	58040.3125
882.22745	58264.6125
886.03573	58329.1125
889.84136	58340.8125
893.64433	58267.1125
897.44466	58157.6125
901.24235	58152.3125
905.0374	58069.1125
908.8298	58009.8125
912.61957	58014.3125
916.40671	58146.9125
920.19121	58477.7125
923.97308	58723.1125
927.75233	58761.1125
931.52895	58749.0125
935.30295	58396.3125
939.07433	57901.9125
942.84309	57392.3125
946.60924	57155.6125
950.37278	57043.4125
954.13371	57002.0125
957.89203	56999.7125
961.64774	57017.5125
965.40086	57061.9125
969.15137	56956.8125
972.89929	56846.9125
976.64461	56764.1125
980.38733	56781.2125
984.12747	56968.0125
987.86502	57042.9125
991.59999	57126.0125
995.33237	57277.4125
999.06217	57587.1125
1002.78939	58031.5125
1006.51404	58460.4125
1010.23611	58810.8125
1013.95561	59034.5125
1017.67255	59121.6125
1021.38692	58924.4125
1025.09872	58615.5125
1028.80796	58334.4125
1032.51465	58236.5125
1036.21877	58301.2125
1039.92035	58460.4125
1043.61937	58613.6125
1047.31584	58677.0125
1051.00976	58914.7125
1054.70114	59181.0125
1058.38998	59326.1125
1062.07627	59620.0125
1065.76003	60035.9125
1069.44126	60633.7125
1073.11995	61276.0125
1076.79611	61906.2125
1080.46974	62241.0125
1084.14085	62328.0125
1087.80943	62567.1125
1091.47549	62855.6125
1095.13903	62835.3125
1098.80005	62601.0125
1102.45857	62197.7125
1106.11456	61594.8125
1109.76805	61071.1125
1113.41903	60935.4125
1117.06751	60987.2125
1120.71348	61478.1125
1124.35696	61950.7125
1127.99793	62351.4125
1131.63641	62356.6125
1135.2724	61756.4125
1138.90589	61374.3125
1142.5369	61147.2125
1146.16542	61045.7125
1149.79145	61080.0125
1153.415	61177.5125
1157.03607	61393.8125
1160.65467	61897.2125
1164.27079	62812.7125
1167.88443	64018.3125
1171.49561	65901.9125
1175.10432	68223.0125
1178.71056	71196.3125
1182.31434	73634.6125
1185.91565	75016.4125
1189.51451	75198.8125
1193.11091	74510.5125
1196.70485	73239.5125
1200.29634	71763.1125
1203.88538	70202.8125
1207.47197	68666.8125
1211.05612	67456.1125
1214.63782	66484.3125
1218.21708	65705.2125
1221.79391	64891.6125
1225.36829	64419.0125
1228.94024	64143.7125
1232.50976	64094.0125
1236.07685	64155.1125
1239.6415	64284.8125
1243.20374	64244.5125
1246.76355	64426.5125
1250.32093	64856.2125
1253.8759	65363.0125
1257.42845	66243.8125
1260.97859	67260.5125
1264.52631	68155.5125
1268.07163	69047.5125
1271.61453	69834.3125
1275.15503	70514.1125
1278.69312	71179.8125
1282.22882	71736.5125
1285.76211	72564.8125
1289.29301	73525.9125
1292.82151	74630.6125
1296.34761	75849.2125
1299.87133	77438.8125
1303.39266	79510.6125
1306.9116	82117.0125
1310.42815	84761.0125
1313.94233	85981.5125
1317.45412	85494.5125
1320.96354	84337.3125
1324.47058	83286.8125
1327.97525	82492.8125
1331.47754	81883.0125
1334.97747	81744.0125
1338.47502	81898.9125
1341.97022	82884.1125
1345.46305	84110.3125
1348.95352	85369.8125
1352.44163	86398.4125
1355.92738	87048.4125
1359.41078	88409.2125
1362.89183	89929.5125
1366.37053	88151.0125
1369.84688	82858.5125
1373.32088	77416.2125
1376.79254	73616.1125
1380.26186	71604.5125
1383.72883	70423.0125
1387.19347	69539.4125
1390.65578	68606.5125
1394.11575	67824.5125
1397.57339	67433.9125
1401.0287	66970.2125
1404.48168	66662.5125
1407.93234	66259.9125
1411.38068	65955.3125
1414.82669	65451.3125
1418.27039	64736.7125
1421.71177	63967.4125
1425.15083	63267.0125
1428.58758	62906.1125
1432.02203	63072.9125
1435.45416	63432.7125
1438.88399	63867.3125
1442.31151	64097.7125
1445.73673	64383.6125
1449.15965	64639.7125
1452.58027	65019.6125
1455.9986	65205.4125
1459.41463	65529.4125
1462.82837	65962.5125
1466.23982	66802.3125
1469.64898	67452.7125
1473.05586	67949.7125
1476.46045	68296.3125
1479.86276	68607.9125
1483.26279	68984.4125
1486.66054	69478.4125
1490.05602	70304.1125
1493.44922	71794.2125
1496.84016	73950.7125
1500.22882	76789.3125
1503.61521	80483.1125
1506.99934	84071.9125
1510.38121	86288.5125
1513.76081	86153.6125
1517.13816	83488.1125
1520.51324	79824.7125
1523.88607	76707.0125
1527.25665	74693.4125
1530.62498	73479.7125
1533.99105	72667.9125
1537.35488	71763.7125
1540.71647	70864.3125
1544.07581	69988.0125
1547.4329	69304.2125
1550.78776	68682.8125
1554.14038	68359.5125
1557.49077	68258.4125
1560.83892	68426.5125
1564.18484	68955.4125
1567.52853	69630.7125
1570.86999	70015.4125
1574.20922	70566.1125
1577.54624	70505.1125
1580.88103	69651.0125
1584.2136	68612.3125
1587.54395	68116.4125
1590.87208	68656.1125
1594.19801	69829.0125
1597.52172	71098.0125
1600.84321	71250.8125
1604.16251	70256.5125
1607.47959	68819.5125
1610.79447	66949.0125
1614.10715	64772.2125
1617.41763	62729.4125
1620.7259	61266.6125
1624.03199	60393.6125
1627.33587	60098.0125
1630.63757	60613.3125
1633.93707	61794.7125
1637.23439	64111.4125
1640.52951	67451.6125
1643.82246	71700.0125
1647.11321	75703.2125
1650.40179	77512.6125
1653.68819	75737.6125
1656.97241	70761.9125
1660.25446	65490.5125
1663.53433	61291.7125
1666.81203	58542.6125
1670.08756	56747.9125
1673.36092	55629.8125
1676.63211	54914.8125
1679.90115	54326.2125
1683.16801	53882.6125
1686.43272	53561.3125
1689.69527	53311.6125
1692.95567	53010.7125
1696.2139	52875.9125
1699.46999	52759.6125
1702.72392	52691.4125
1705.97571	52622.9125
1709.22535	52603.9125
1712.47284	52624.2125
1715.71819	52607.1125
1718.96139	52507.2125
1722.20246	52399.2125
1725.44139	52278.1125
1728.67818	52072.9125
1731.91284	51877.5125
1735.14537	51633.0125
1738.37576	51608.7125
1741.60403	51589.8125
1744.83017	51483.7125
1748.05418	51328.1125
1751.27607	51290.5125
1754.49584	51192.3125
1757.71349	51115.6125
1760.92903	51134.3125
1764.14244	51050.0125
1767.35375	51057.3125
1770.56294	50892.0125
1773.77002	50831.8125
1776.97499	50858.9125
1780.17785	50802.0125
1783.37861	50677.0125
1786.57727	50601.0125
1789.77382	50564.4125
1792.96828	50451.4125
1796.16064	50415.7125
1799.3509	50312.5125
1802.53907	50186.0125
1805.72514	50040.2125
1808.90913	49869.4125
1812.09102	49831.3125
1815.27083	49747.5125
1818.44856	49714.1125
1821.6242	49692.0125
1824.79776	49577.9125
1827.96924	49582.1125
1831.13864	49479.0125
1834.30597	49395.4125
1837.47122	49393.8125
1840.6344	49371.0125
1843.7955	49351.0125
1846.95454	49270.8125
1850.11151	49266.7125
1853.26642	49166.3125
1856.41926	49196.2125
1859.57004	49133.1125
1862.71876	49095.7125
1865.86542	49062.9125
1869.01003	49060.4125
1872.15258	48977.0125
1875.29308	48912.9125
1878.43152	48788.4125
1881.56792	48678.2125
1884.70227	48642.9125
1887.83457	48599.2125
1890.96482	48576.8125
1894.09304	48451.7125
1897.21921	48377.1125
1900.34335	48415.1125
1903.46544	48157.7125
1906.58551	48142.9125
1909.70353	48113.9125
1912.81953	48056.8125
1915.93349	48007.1125
1919.04543	47937.5125
1922.15534	47847.7125
1925.26322	47723.3125
1928.36908	47683.7125
1931.47292	47555.1125
1934.57473	47368.3125
1937.67453	47283.2125
1940.77232	47170.2125
1943.86808	47071.9125
1946.96184	47005.8125
1950.05358	46858.8125
1953.14331	46639.2125
1956.23103	46531.0125
1959.31675	46425.5125
1962.40046	46315.5125
1965.48217	46212.5125
1968.56188	46033.7125
1971.63959	45937.7125
1974.7153	45816.1125
1977.78901	45677.1125
1980.86073	45473.6125
1983.93046	45386.5125
1986.99819	45259.8125
1990.06394	45121.9125
1993.1277	44956.6125
1996.18947	44822.5125
1999.24925	44800.8125
2002.30706	44709.9125
2005.36288	44578.3125
2008.41672	44471.9125
2011.46859	44232.5125
2014.51848	44212.7125
2017.56639	44117.5125
2020.61233	44011.1125
2023.6563	43853.5125
2026.6983	43574.1125
2029.73833	43440.9125
2032.7764	43319.4125
2035.8125	43288.7125
2038.84664	43201.8125
2041.87881	43075.4125
2044.90903	43001.3125
2047.93729	42850.2125
2050.96359	42781.3125
2053.98794	42678.2125
2057.01034	42653.1125
2060.03078	42697.9125
2063.04927	42647.6125
2066.06582	42627.9125
2069.08042	42594.3125
2072.09307	42530.6125
2075.10378	42498.1125
2078.11255	42477.6125
2081.11938	42456.2125
2084.12426	42419.4125
2087.12722	42489.0125
2090.12824	42388.3125
2093.12732	42339.4125
2096.12447	42424.1125
2099.11969	42411.8125
2102.11299	42451.9125
2105.10435	42464.5125
2108.09379	42393.0125
2111.08131	42448.3125
2114.0669	42433.5125
2117.05057	42408.6125
2120.03233	42476.3125
2123.01216	42542.3125
2125.99008	42563.8125
2128.96609	42600.6125
2131.94018	42730.6125
2134.91236	42762.6125
2137.88263	42791.3125
2140.851	42727.0125
2143.81746	42694.9125
2146.78201	42753.0125
2149.74466	42859.1125
2152.7054	42773.3125
2155.66425	42734.6125
2158.6212	42743.3125
2161.57625	42676.8125
2164.52941	42616.3125
2167.48067	42559.7125
2170.43004	42635.0125
2173.37752	42544.5125
2176.32311	42532.5125
2179.26681	42539.3125
2182.20863	42542.6125
2185.14856	42562.9125
2188.08661	42510.4125
2191.02278	42509.4125
2193.95707	42472.8125
2196.88948	42421.3125
2199.82001	42423.4125
2202.74867	42288.9125
2205.67545	42191.2125
2208.60037	42084.7125
2211.52341	41980.7125
2214.44458	42003.7125
2217.36388	41921.1125
2220.28132	41897.5125
2223.1969	41700.0125
2226.11061	41618.6125
2229.02246	41503.9125
2231.93245	41516.7125
2234.84058	41415.3125
2237.74686	41303.0125
2240.65128	41281.0125
2243.55385	41202.2125
2246.45456	41182.3125
2249.35343	41099.3125
2252.25044	41041.8125
2255.14561	40993.6125
2258.03893	40920.2125
2260.93041	40871.7125
2263.82004	40824.2125
2266.70783	40733.0125
2269.59378	40574.2125
2272.4779	40527.7125
2275.36017	40434.3125
2278.24061	40323.4125
2281.11922	40279.1125
2283.996	40174.9125
2286.87094	40079.3125
2289.74405	39943.4125
2292.61534	39912.4125
2295.4848	39895.8125
2298.35243	39875.1125
2301.21824	39882.3125
2304.08223	39789.4125
2306.94439	39741.9125
2309.80474	39760.1125
2312.66327	39624.0125
2315.51999	39573.2125
2318.37489	39584.5125
2321.22797	39548.1125
2324.07925	39398.2125
2326.92871	39296.7125
2329.77637	39303.5125
2332.62222	39195.5125
2335.46626	39142.2125
2338.3085	39163.1125
2341.14893	39076.4125
2343.98756	38962.6125
2346.8244	38991.3125
2349.65943	39037.7125
2352.49267	38957.9125
2355.32411	38914.6125
2358.15376	38878.2125
2360.98161	38862.1125
2363.80768	38873.1125
2366.63195	38867.2125
2369.45444	38799.2125
2372.27514	38692.2125
2375.09405	38748.5125
2377.91118	38563.7125
2380.72652	38525.6125
2383.54009	38378.1125
2386.35187	38359.6125
2389.16188	38298.6125
2391.97011	38229.3125
2394.77657	38093.8125
2397.58125	37999.3125
2400.38416	37952.9125
2403.18529	37908.2125
2405.98466	37943.8125
2408.78226	37824.0125
2411.57809	37824.9125
2414.37216	37780.8125
2417.16446	37779.3125
2419.955	37667.4125
2422.74378	37650.1125
2425.5308	37538.9125
2428.31606	37476.1125
2431.09956	37467.7125
2433.88131	37379.8125
2436.6613	37403.2125
2439.43954	37340.3125
2442.21603	37282.0125
2444.99077	37224.0125
2447.76377	37264.4125
2450.53501	37094.9125
2453.30451	37079.4125
2456.07226	36997.5125
2458.83827	36923.7125
2461.60254	36976.2125
2464.36507	36888.0125
2467.12586	36817.4125
2469.88492	36813.2125
2472.64224	36762.0125
2475.39782	36695.1125
2478.15167	36688.1125
2480.90379	36685.3125
2483.65417	36762.2125
2486.40283	36733.3125
2489.14976	36753.7125
2491.89497	36728.3125
2494.63845	36687.3125
2497.3802	36592.3125
2500.12024	36537.1125
2502.85855	36457.5125
2505.59514	36402.3125
2508.33002	36363.7125
2511.06318	36249.4125
2513.79462	36188.0125
2516.52435	36149.0125
2519.25237	36125.9125
2521.97867	36100.1125
2524.70327	36046.9125
2527.42616	35961.5125
2530.14734	35919.5125
2532.86681	35916.2125
2535.58458	35892.3125
2538.30065	35777.2125
2541.01501	35766.7125
2543.72768	35678.8125
2546.43864	35647.2125
2549.14791	35500.4125
2551.85548	35435.3125
2554.56136	35322.5125
2557.26554	35293.4125
2559.96803	35277.3125
2562.66883	35248.3125
2565.36794	35134.6125
2568.06536	35185.3125
2570.7611	35080.1125
2573.45514	35020.3125
2576.14751	34963.4125
2578.83819	34855.8125
2581.52719	34769.2125
2584.21451	34672.8125
2586.90015	34668.0125
2589.58411	34613.8125
2592.2664	34593.1125
2594.94701	34550.6125
2597.62594	34541.9125
2600.30321	34420.1125
2602.9788	34323.1125
2605.65273	34209.4125
2608.32498	34163.6125
2610.99557	34119.9125
2613.66449	34162.2125
2616.33175	34019.9125
2618.99734	33981.2125
2621.66128	33885.1125
2624.32355	33925.3125
2626.98416	33840.8125
2629.64311	33765.0125
2632.30041	33687.6125
2634.95605	33607.2125
2637.61004	33563.8125
2640.26238	33605.0125
2642.91306	33623.8125
2645.56209	33550.8125
2648.20948	33471.9125
2650.85521	33434.2125
2653.4993	33354.7125
2656.14175	33365.4125
2658.78255	33458.4125
2661.42171	33412.7125
2664.05923	33482.5125
2666.6951	33401.3125
2669.32934	33391.5125
2671.96194	33381.0125
2674.59291	33384.4125
2677.22224	33307.0125
2679.84993	33326.4125
2682.476	33262.2125
2685.10043	33268.0125
2687.72324	33217.5125
2690.34441	33187.3125
2692.96396	33220.2125
2695.58188	33190.9125
2698.19818	33116.3125
2700.81285	33075.6125
2703.4259	33118.4125
2706.03733	33163.2125
2708.64714	33192.5125
2711.25533	33216.2125
2713.86191	33143.7125
2716.46687	33143.5125
2719.07021	33083.5125
2721.67194	33139.2125
2724.27206	33122.6125
2726.87057	33121.2125
2729.46747	33102.3125
2732.06276	33121.8125
2734.65644	33085.8125
2737.24852	33022.3125
2739.83899	32940.2125
2742.42786	32936.2125
2745.01513	32838.5125
2747.60079	32829.0125
2750.18486	32819.2125
2752.76733	32790.0125
2755.3482	32721.8125
2757.92747	32711.1125
2760.50515	32607.9125
2763.08123	32540.2125
2765.65573	32493.4125
2768.22863	32455.3125
2770.79994	32418.4125
2773.36967	32383.2125
2775.9378	32318.3125
2778.50435	32226.3125
2781.06932	32180.2125
2783.6327	32140.3125
2786.1945	32160.7125
2788.75471	32111.8125
2791.31335	31953.0125
2793.87041	31870.8125
2796.42589	31794.4125
2798.97979	31770.3125
2801.53212	31733.8125
2804.08288	31713.9125
2806.63206	31580.3125
2809.17967	31528.3125
2811.72571	31456.8125
2814.27018	31367.2125
2816.81308	31250.1125
2819.35442	31217.9125
2821.89419	31154.1125
2824.43239	31106.7125
2826.96904	31009.4125
2829.50412	30988.8125
2832.03763	30933.6125
2834.56959	30890.0125
2837.1	30862.5125
2839.62884	30884.9125
2842.15613	30795.5125
2844.68186	30734.8125
2847.20604	30644.2125
2849.72867	30622.0125
2852.24974	30613.6125
2854.76927	30542.1125
2857.28724	30504.3125
2859.80367	30465.7125
2862.31855	30468.5125
2864.83189	30430.0125
2867.34368	30373.3125
2869.85393	30358.0125
2872.36264	30216.0125
2874.8698	30215.6125
2877.37543	30158.2125
2879.87952	30199.5125
2882.38207	30140.2125
2884.88308	30129.8125
2887.38256	30143.4125
2889.88051	30050.2125
2892.37692	30127.0125
2894.8718	30083.6125
2897.36515	30116.9125
2899.85698	30038.8125
2902.34727	30031.7125
2904.83604	30040.2125
2907.32328	30107.6125
2909.809	30065.7125
2912.29319	30080.2125
2914.77587	30031.0125
2917.25702	30022.3125
2919.73665	30014.2125
2922.21476	30007.8125
2924.69136	30008.5125
2927.16644	29979.1125
2929.64	29925.1125
2932.11205	29895.2125
2934.58258	29793.8125
2937.05161	29728.3125
2939.51912	29756.0125
2941.98513	29742.8125
2944.44962	29706.4125
2946.91261	29662.2125
2949.37409	29708.1125
2951.83407	29672.9125
2954.29254	29653.5125
2956.74951	29654.5125
2959.20498	29621.6125
2961.65895	29619.9125
2964.11142	29676.5125
2966.56239	29573.5125
2969.01186	29575.7125
2971.45984	29497.0125
2973.90632	29519.9125
2976.35131	29412.5125
2978.7948	29353.9125
2981.23681	29316.2125
2983.67732	29308.3125
2986.11635	29331.2125
2988.55388	29246.3125
2990.98993	29190.7125
2993.4245	29087.4125
2995.85758	29002.8125
2998.28917	28969.8125
3000.71928	28913.0125
3003.14791	28795.7125
3005.57506	28784.0125
3008.00073	28622.1125
3010.42493	28674.4125
3012.84764	28598.5125
3015.26888	28598.5125
3017.68865	28511.1125
3020.10694	28447.6125
3022.52376	28427.5125
3024.9391	28382.2125
