Data from AgNPs_UA_0uM_CRN_0uM_R6G_10uM_Q_RamanShift__23__11-45-18-773.txt Node

Date: Wed Jul 13 11:45:18 BST 2022
User: TCL
Spectrometer: QEP01345
Trigger mode: 4
Integration Time (sec): 7.000000E0
Scans to average: 10
Electric dark correction enabled: true
Nonlinearity correction enabled: false
Boxcar width: 0
XAxis mode: Raman Shifts
Number of Pixels in Spectrum: 1044
>>>>>Begin Spectral Data<<<<<
46.04893	-0.275
50.45542	-0.175
54.85868	-0.775
59.25871	0.125
63.6555	56.525
68.04907	60.925
72.43941	63.425
76.82654	69.825
81.21044	73.325
85.59113	77.825
89.96862	80.925
94.34289	85.125
98.71396	80.825
103.08183	87.625
107.4465	92.525
111.80798	90.525
116.16626	95.925
120.52136	93.925
124.87327	95.025
129.222	99.025
133.56755	100.425
137.90993	108.925
142.24913	118.125
146.58517	129.025
150.91804	140.825
155.24774	159.925
159.57429	195.425
163.89768	243.325
168.21792	319.925
172.53501	431.525
176.84895	591.325
181.15975	815.325
185.46741	1134.825
189.77193	1561.125
194.07331	2078.825
198.37157	2649.925
202.6667	3266.225
206.9587	3879.525
211.24758	4498.925
215.53334	5133.725
219.81599	5837.325
224.09553	6648.525
228.37195	7502.125
232.64527	8438.225
236.91549	9359.525
241.18261	10248.625
245.44663	10943.725
249.70755	11592.925
253.96539	12152.925
258.22014	12626.525
262.4718	13026.125
266.72039	13223.425
270.96589	13306.225
275.20832	13174.225
279.44768	12962.325
283.68397	12722.425
287.91719	12532.825
292.14735	12510.425
296.37445	12697.025
300.59849	13033.225
304.81948	13488.325
309.03742	13856.525
313.25231	13904.725
317.46415	13423.625
321.67296	12723.125
325.87872	12108.225
330.08145	11841.525
334.28114	11843.725
338.47781	12033.325
342.67145	12309.525
346.86207	12770.725
351.04966	13393.525
355.23424	14064.025
359.4158	14496.225
363.59435	14666.525
367.76989	14627.625
371.94243	14561.825
376.11196	14485.325
380.27849	14433.425
384.44203	14364.125
388.60257	14217.225
392.76012	14250.225
396.91468	14411.625
401.06626	14717.825
405.21485	14930.225
409.36047	14616.425
413.50311	14012.425
417.64277	13447.125
421.77947	13174.025
425.9132	13125.125
430.04396	13099.825
434.17176	13233.925
438.2966	13446.725
442.41849	13776.425
446.53742	14219.225
450.6534	14560.425
454.76644	14729.525
458.87653	14668.225
462.98368	14409.325
467.08789	14134.025
471.18916	13827.825
475.2875	13517.425
479.38291	13241.525
483.4754	13055.925
487.56496	12915.025
491.6516	12798.425
495.73531	12752.525
499.81612	12779.125
503.89401	12916.925
507.96899	13074.725
512.04106	13266.825
516.11023	13396.925
520.1765	13516.125
524.23987	13489.025
528.30034	13432.025
532.35792	13262.825
536.41261	13041.925
540.46441	12783.325
544.51333	12686.925
548.55936	12747.225
552.60252	12978.625
556.64279	13329.925
560.6802	13480.825
564.71473	13721.325
568.7464	14136.725
572.7752	14313.025
576.80114	14011.125
580.82422	13765.425
584.84444	13780.425
588.86181	14022.525
592.87633	14474.325
596.888	14884.125
600.89682	15275.725
604.9028	16596.425
608.90594	20209.325
612.90624	24138.425
616.90371	22048.225
620.89834	16185.825
624.89015	13751.225
628.87913	13341.425
632.86528	13456.225
636.84862	13551.225
640.82913	13245.325
644.80683	12724.825
648.78172	12417.325
652.75379	12451.825
656.72306	12858.325
660.68952	13294.425
664.65319	13095.025
668.61405	12612.525
672.57211	12412.425
676.52738	12400.525
680.47986	12333.225
684.42955	12198.525
688.37646	12104.125
692.32058	12163.225
696.26192	12273.925
700.20048	12424.825
704.13626	12501.825
708.06928	12427.025
711.99952	12346.525
715.927	12293.125
719.85171	12365.325
723.77365	12338.725
727.69284	12220.325
731.60928	12171.025
735.52295	12164.825
739.43388	12250.825
743.34206	12271.625
747.24749	12292.425
751.15017	12334.825
755.05012	12552.625
758.94733	13133.025
762.8418	14485.825
766.73354	16681.825
770.62254	18670.625
774.50882	19307.925
778.39237	18244.325
782.27321	16064.725
786.15132	14103.725
790.02671	12968.925
793.89938	12408.625
797.76935	12193.725
801.6366	12037.425
805.50115	11970.425
809.36299	11868.225
813.22213	11813.125
817.07857	11793.625
820.93231	11773.425
824.78336	11798.925
828.63172	11864.325
832.47738	11870.725
836.32036	11822.725
840.16066	11807.325
843.99827	11786.125
847.8332	11753.825
851.66546	11734.725
855.49504	11719.025
859.32195	11659.825
863.1462	11620.625
866.96777	11564.825
870.78668	11538.925
874.60293	11560.225
878.41652	11606.725
882.22745	11673.825
886.03573	11710.425
889.84136	11655.325
893.64433	11619.725
897.44466	11608.525
901.24235	11562.925
905.0374	11506.925
908.8298	11466.325
912.61957	11421.225
916.40671	11447.525
920.19121	11523.225
923.97308	11685.625
927.75233	11868.625
931.52895	11967.825
935.30295	11790.725
939.07433	11441.925
942.84309	11152.225
946.60924	11039.625
950.37278	10966.025
954.13371	10918.625
957.89203	10845.025
961.64774	10776.025
965.40086	10748.425
969.15137	10718.325
972.89929	10656.825
976.64461	10660.825
980.38733	10659.225
984.12747	10669.825
987.86502	10726.225
991.59999	10824.525
995.33237	11016.425
999.06217	11333.325
1002.78939	11661.325
1006.51404	11869.525
1010.23611	12035.525
1013.95561	12094.625
1017.67255	12089.025
1021.38692	11889.325
1025.09872	11704.925
1028.80796	11669.725
1032.51465	11838.125
1036.21877	11994.325
1039.92035	11989.225
1043.61937	11887.225
1047.31584	11688.525
1051.00976	11531.925
1054.70114	11434.425
1058.38998	11419.725
1062.07627	11447.425
1065.76003	11428.625
1069.44126	11458.925
1073.11995	11567.325
1076.79611	11750.825
1080.46974	11987.325
1084.14085	12305.225
1087.80943	12602.425
1091.47549	12659.025
1095.13903	12367.225
1098.80005	11973.425
1102.45857	11676.025
1106.11456	11634.825
1109.76805	11695.525
1113.41903	11917.825
1117.06751	12269.625
1120.71348	12775.025
1124.35696	13302.525
1127.99793	13671.325
1131.63641	13470.625
1135.2724	12880.425
1138.90589	12326.725
1142.5369	11983.925
1146.16542	11807.825
1149.79145	11677.225
1153.415	11702.425
1157.03607	11813.625
1160.65467	12039.225
1164.27079	12490.125
1167.88443	13241.625
1171.49561	14457.725
1175.10432	16254.825
1178.71056	18552.925
1182.31434	20150.725
1185.91565	20487.625
1189.51451	19798.825
1193.11091	18535.925
1196.70485	17249.125
1200.29634	16160.725
1203.88538	15211.925
1207.47197	14295.225
1211.05612	13593.025
1214.63782	13264.725
1218.21708	13231.825
1221.79391	13425.825
1225.36829	13559.325
1228.94024	13514.425
1232.50976	13260.425
1236.07685	13098.525
1239.6415	13046.925
1243.20374	13056.125
1246.76355	13085.825
1250.32093	13146.025
1253.8759	13418.425
1257.42845	13826.025
1260.97859	14296.125
1264.52631	14815.425
1268.07163	15296.125
1271.61453	15793.825
1275.15503	16160.425
1278.69312	16410.525
1282.22882	16615.225
1285.76211	17005.925
1289.29301	17500.125
1292.82151	18125.625
1296.34761	18835.725
1299.87133	19953.525
1303.39266	21676.825
1306.9116	24169.025
1310.42815	26966.425
1313.94233	28607.925
1317.45412	27818.525
1320.96354	25652.325
1324.47058	23337.625
1327.97525	21528.625
1331.47754	20355.825
1334.97747	19870.925
1338.47502	19931.425
1341.97022	20368.225
1345.46305	21161.025
1348.95352	22293.825
1352.44163	23783.125
1355.92738	26000.325
1359.41078	29437.625
1362.89183	32357.325
1366.37053	31005.425
1369.84688	26195.925
1373.32088	21522.725
1376.79254	18726.825
1380.26186	17331.125
1383.72883	16652.725
1387.19347	16101.125
1390.65578	15554.325
1394.11575	15288.725
1397.57339	15321.125
1401.0287	15526.925
1404.48168	15739.825
1407.93234	15798.925
1411.38068	15791.925
1414.82669	15648.325
1418.27039	15371.125
1421.71177	14940.925
1425.15083	14640.025
1428.58758	14542.225
1432.02203	14713.225
1435.45416	14981.725
1438.88399	15148.225
1442.31151	15231.025
1445.73673	15305.125
1449.15965	15363.125
1452.58027	15277.425
1455.9986	15170.225
1459.41463	15199.725
1462.82837	15442.625
1466.23982	15810.925
1469.64898	16115.925
1473.05586	16283.625
1476.46045	16401.325
1479.86276	16483.525
1483.26279	16610.325
1486.66054	16893.325
1490.05602	17333.925
1493.44922	18044.325
1496.84016	19061.225
1500.22882	20662.025
1503.61521	22940.025
1506.99934	25595.625
1510.38121	28002.625
1513.76081	28741.625
1517.13816	26928.925
1520.51324	23568.825
1523.88607	20402.825
1527.25665	18370.425
1530.62498	17242.225
1533.99105	16581.425
1537.35488	16112.425
1540.71647	15807.225
1544.07581	15584.225
1547.4329	15442.225
1550.78776	15404.725
1554.14038	15388.925
1557.49077	15504.725
1560.83892	15749.225
1564.18484	16132.125
1567.52853	16544.325
1570.86999	16840.225
1574.20922	17042.925
1577.54624	16905.725
1580.88103	16164.025
1584.2136	15230.425
1587.54395	14877.725
1590.87208	15294.225
1594.19801	16364.725
1597.52172	17802.025
1600.84321	18426.225
1604.16251	17794.225
1607.47959	16480.825
1610.79447	15052.125
1614.10715	13716.225
1617.41763	12676.725
1620.7259	11982.125
1624.03199	11686.925
1627.33587	11735.625
1630.63757	12140.625
1633.93707	12922.325
1637.23439	14321.625
1640.52951	16369.925
1643.82246	18971.325
1647.11321	21357.225
1650.40179	22331.825
1653.68819	20943.125
1656.97241	17765.025
1660.25446	14571.225
1663.53433	12388.225
1666.81203	11068.625
1670.08756	10286.225
1673.36092	9815.525
1676.63211	9506.225
1679.90115	9278.225
1683.16801	9131.825
1686.43272	9016.225
1689.69527	8922.825
1692.95567	8885.425
1696.2139	8832.025
1699.46999	8818.725
1702.72392	8791.525
1705.97571	8762.425
1709.22535	8758.125
1712.47284	8734.525
1715.71819	8726.725
1718.96139	8711.125
1722.20246	8678.125
1725.44139	8641.525
1728.67818	8600.625
1731.91284	8519.425
1735.14537	8501.425
1738.37576	8449.825
1741.60403	8394.325
1744.83017	8359.525
1748.05418	8349.325
1751.27607	8302.525
1754.49584	8307.025
1757.71349	8290.525
1760.92903	8249.425
1764.14244	8248.525
1767.35375	8227.125
1770.56294	8200.225
1773.77002	8198.625
1776.97499	8188.825
1780.17785	8160.125
1783.37861	8141.525
1786.57727	8095.425
1789.77382	8099.925
1792.96828	8074.325
1796.16064	8065.625
1799.3509	8053.625
1802.53907	8035.025
1805.72514	8003.925
1808.90913	7997.125
1812.09102	7952.625
1815.27083	7914.625
1818.44856	7915.025
1821.6242	7881.525
1824.79776	7876.425
1827.96924	7858.825
1831.13864	7855.625
1834.30597	7844.525
1837.47122	7841.425
1840.6344	7829.225
1843.7955	7819.725
1846.95454	7823.625
1850.11151	7805.725
1853.26642	7789.725
1856.41926	7793.225
1859.57004	7786.425
1862.71876	7802.725
1865.86542	7776.325
1869.01003	7801.325
1872.15258	7780.425
1875.29308	7790.225
1878.43152	7753.625
1881.56792	7749.625
1884.70227	7769.625
1887.83457	7748.925
1890.96482	7756.325
1894.09304	7728.325
1897.21921	7730.925
1900.34335	7723.325
1903.46544	7741.925
1906.58551	7744.625
1909.70353	7718.925
1912.81953	7727.725
1915.93349	7716.825
1919.04543	7714.725
1922.15534	7667.925
1925.26322	7650.325
1928.36908	7605.325
1931.47292	7598.925
1934.57473	7565.825
1937.67453	7526.825
1940.77232	7475.625
1943.86808	7491.725
1946.96184	7481.625
1950.05358	7455.325
1953.14331	7422.425
1956.23103	7404.925
1959.31675	7377.625
1962.40046	7362.925
1965.48217	7346.125
1968.56188	7316.125
1971.63959	7294.725
1974.7153	7307.625
1977.78901	7259.525
1980.86073	7238.925
1983.93046	7196.925
1986.99819	7163.625
1990.06394	7151.325
1993.1277	7121.225
1996.18947	7076.725
1999.24925	7086.025
2002.30706	7070.525
2005.36288	7033.625
2008.41672	7023.525
2011.46859	6991.425
2014.51848	6970.625
2017.56639	6958.825
2020.61233	6950.125
2023.6563	6934.825
2026.6983	6885.825
2029.73833	6879.025
2032.7764	6875.925
2035.8125	6855.225
2038.84664	6856.025
2041.87881	6825.625
2044.90903	6835.925
2047.93729	6841.825
2050.96359	6809.625
2053.98794	6795.425
2057.01034	6821.025
2060.03078	6793.225
2063.04927	6782.325
2066.06582	6767.225
2069.08042	6752.025
2072.09307	6748.425
2075.10378	6731.925
2078.11255	6737.425
2081.11938	6719.925
2084.12426	6719.525
2087.12722	6733.925
2090.12824	6726.425
2093.12732	6728.325
2096.12447	6721.625
2099.11969	6734.925
2102.11299	6721.425
2105.10435	6722.125
2108.09379	6731.825
2111.08131	6719.925
2114.0669	6739.925
2117.05057	6745.525
2120.03233	6735.625
2123.01216	6761.825
2125.99008	6757.925
2128.96609	6762.525
2131.94018	6775.525
2134.91236	6768.625
2137.88263	6785.225
2140.851	6772.225
2143.81746	6753.125
2146.78201	6748.025
2149.74466	6774.525
2152.7054	6767.925
2155.66425	6755.925
2158.6212	6761.825
2161.57625	6745.825
2164.52941	6753.125
2167.48067	6748.725
2170.43004	6743.825
2173.37752	6714.125
2176.32311	6729.025
2179.26681	6772.225
2182.20863	6745.525
2185.14856	6755.625
2188.08661	6744.525
2191.02278	6745.625
2193.95707	6737.025
2196.88948	6752.725
2199.82001	6748.625
2202.74867	6731.425
2205.67545	6723.225
2208.60037	6721.225
2211.52341	6692.725
2214.44458	6728.025
2217.36388	6683.725
2220.28132	6675.825
2223.1969	6669.125
2226.11061	6656.225
2229.02246	6655.125
2231.93245	6646.225
2234.84058	6631.825
2237.74686	6614.725
2240.65128	6615.625
2243.55385	6603.425
2246.45456	6606.725
2249.35343	6599.725
2252.25044	6596.825
2255.14561	6569.625
2258.03893	6571.925
2260.93041	6577.325
2263.82004	6561.825
2266.70783	6557.225
2269.59378	6508.625
2272.4779	6534.125
2275.36017	6500.425
2278.24061	6480.425
2281.11922	6468.225
2283.996	6452.825
2286.87094	6451.625
2289.74405	6449.325
2292.61534	6430.125
2295.4848	6415.225
2298.35243	6437.325
2301.21824	6405.925
2304.08223	6411.925
2306.94439	6423.925
2309.80474	6419.725
2312.66327	6438.825
2315.51999	6431.125
2318.37489	6444.025
2321.22797	6427.425
2324.07925	6415.725
2326.92871	6408.825
2329.77637	6390.125
2332.62222	6399.025
2335.46626	6388.125
2338.3085	6386.325
2341.14893	6389.125
2343.98756	6368.025
2346.8244	6381.625
2349.65943	6400.425
2352.49267	6431.725
2355.32411	6434.725
2358.15376	6422.225
2360.98161	6447.325
2363.80768	6428.525
2366.63195	6412.925
2369.45444	6399.925
2372.27514	6427.925
2375.09405	6415.925
2377.91118	6395.425
2380.72652	6376.025
2383.54009	6346.925
2386.35187	6318.025
2389.16188	6323.325
2391.97011	6288.425
2394.77657	6286.025
2397.58125	6261.825
2400.38416	6251.125
2403.18529	6245.425
2405.98466	6227.625
2408.78226	6234.825
2411.57809	6223.125
2414.37216	6212.425
2417.16446	6215.725
2419.955	6184.225
2422.74378	6194.625
2425.5308	6178.525
2428.31606	6199.225
2431.09956	6198.325
2433.88131	6189.425
2436.6613	6174.625
2439.43954	6196.425
2442.21603	6189.525
2444.99077	6195.225
2447.76377	6206.325
2450.53501	6199.925
2453.30451	6198.725
2456.07226	6188.825
2458.83827	6187.825
2461.60254	6198.425
2464.36507	6194.025
2467.12586	6191.225
2469.88492	6190.425
2472.64224	6193.925
2475.39782	6194.425
2478.15167	6199.525
2480.90379	6217.725
2483.65417	6197.825
2486.40283	6217.925
2489.14976	6222.525
2491.89497	6240.325
2494.63845	6241.725
2497.3802	6257.625
2500.12024	6261.025
2502.85855	6246.825
2505.59514	6218.325
2508.33002	6209.325
2511.06318	6215.925
2513.79462	6167.425
2516.52435	6153.025
2519.25237	6134.425
2521.97867	6135.725
2524.70327	6127.725
2527.42616	6119.025
2530.14734	6111.625
2532.86681	6105.725
2535.58458	6099.225
2538.30065	6082.325
2541.01501	6106.425
2543.72768	6101.425
2546.43864	6091.425
2549.14791	6101.325
2551.85548	6089.725
2554.56136	6096.125
2557.26554	6112.125
2559.96803	6101.925
2562.66883	6083.025
2565.36794	6078.925
2568.06536	6061.625
2570.7611	6057.025
2573.45514	6062.025
2576.14751	6060.325
2578.83819	6050.625
2581.52719	6044.925
2584.21451	6036.525
2586.90015	6020.525
2589.58411	6039.425
2592.2664	6030.225
2594.94701	6025.325
2597.62594	6019.525
2600.30321	6015.225
2602.9788	6026.325
2605.65273	6010.125
2608.32498	6009.325
2610.99557	6001.625
2613.66449	6028.625
2616.33175	6010.125
2618.99734	6025.925
2621.66128	6007.525
2624.32355	6026.825
2626.98416	6025.125
2629.64311	6000.325
2632.30041	6030.425
2634.95605	6017.425
2637.61004	6011.825
2640.26238	5957.325
2642.91306	5980.925
2645.56209	5960.725
2648.20948	5954.525
2650.85521	5939.125
2653.4993	5940.325
2656.14175	5943.025
2658.78255	5967.825
2661.42171	5962.625
2664.05923	5976.125
2666.6951	5983.625
2669.32934	6003.125
2671.96194	5975.925
2674.59291	5999.525
2677.22224	5989.925
2679.84993	6003.625
2682.476	5995.925
2685.10043	6002.225
2687.72324	5975.325
2690.34441	5962.025
2692.96396	5983.825
2695.58188	5973.925
2698.19818	5962.425
2700.81285	5987.025
2703.4259	5981.525
2706.03733	5984.725
2708.64714	5974.225
2711.25533	5986.025
2713.86191	5973.325
2716.46687	6015.125
2719.07021	6010.225
2721.67194	6037.525
2724.27206	6010.925
2726.87057	6036.625
2729.46747	6018.525
2732.06276	6014.925
2734.65644	6001.925
2737.24852	6009.825
2739.83899	6015.325
2742.42786	6015.925
2745.01513	5995.225
2747.60079	5995.525
2750.18486	5980.025
2752.76733	5974.525
2755.3482	5974.925
2757.92747	5966.925
2760.50515	5963.425
2763.08123	5959.125
2765.65573	5935.225
2768.22863	5941.125
2770.79994	5948.825
2773.36967	5971.525
2775.9378	5957.825
2778.50435	5978.225
2781.06932	5971.725
2783.6327	5984.425
2786.1945	5935.325
2788.75471	5935.025
2791.31335	5947.925
2793.87041	5939.325
2796.42589	5932.025
2798.97979	5935.525
2801.53212	5916.325
2804.08288	5906.825
2806.63206	5911.225
2809.17967	5885.225
2811.72571	5876.925
2814.27018	5870.225
2816.81308	5875.425
2819.35442	5871.225
2821.89419	5867.625
2824.43239	5885.725
2826.96904	5882.225
2829.50412	5874.225
2832.03763	5862.625
2834.56959	5877.525
2837.1	5853.425
2839.62884	5884.525
2842.15613	5886.325
2844.68186	5903.225
2847.20604	5908.025
2849.72867	5912.325
2852.24974	5912.725
2854.76927	5910.125
2857.28724	5924.325
2859.80367	5920.425
2862.31855	5914.325
2864.83189	5894.025
2867.34368	5914.125
2869.85393	5924.525
2872.36264	5902.125
2874.8698	5904.125
2877.37543	5888.425
2879.87952	5888.325
2882.38207	5881.125
2884.88308	5870.125
2887.38256	5865.325
2889.88051	5849.625
2892.37692	5880.025
2894.8718	5862.325
2897.36515	5889.225
2899.85698	5893.525
2902.34727	5918.625
2904.83604	5918.125
2907.32328	5942.825
2909.809	5932.825
2912.29319	5919.925
2914.77587	5921.925
2917.25702	5937.525
2919.73665	5933.025
2922.21476	5935.325
2924.69136	5895.425
2927.16644	5898.725
2929.64	5884.725
2932.11205	5876.725
2934.58258	5870.025
2937.05161	5858.125
2939.51912	5859.425
2941.98513	5849.125
2944.44962	5830.525
2946.91261	5801.525
2949.37409	5810.825
2951.83407	5818.425
2954.29254	5835.025
2956.74951	5812.525
2959.20498	5804.425
2961.65895	5797.025
2964.11142	5809.725
2966.56239	5795.125
2969.01186	5790.925
2971.45984	5767.125
2973.90632	5776.725
2976.35131	5756.125
2978.7948	5746.525
2981.23681	5723.225
2983.67732	5723.925
2986.11635	5705.125
2988.55388	5698.125
2990.98993	5677.725
2993.4245	5678.925
2995.85758	5656.725
2998.28917	5643.425
3000.71928	5633.025
3003.14791	5614.725
3005.57506	5647.025
3008.00073	5610.525
3010.42493	5627.325
3012.84764	5610.025
3015.26888	5592.425
3017.68865	5579.025
3020.10694	5580.225
3022.52376	5560.525
3024.9391	5577.125
3027.35298	5536.125
3029.76539	5546.225
3032.17632	5559.825
3034.5858	5548.025
3036.9938	5523.325
3039.40034	5535.725
3041.80542	5503.125
3044.20903	5499.225
3046.61118	5512.125
3049.01187	5480.825
3051.4111	5492.225
3053.80888	5487.925
3056.20519	5487.925
3058.60005	5476.725
3060.99345	5455.525
3063.3854	5431.025
3065.7759	5425.725
3068.16494	5423.125
3070.55254	5394.825
3072.93868	5399.425
3075.32338	5366.625
3077.70662	5371.225
3080.08842	5363.525
3082.46878	5379.925
3084.84769	5358.525
3087.22515	5342.425
3089.60118	5353.025
3091.97576	5340.225
3094.3489	5347.225
3096.72061	5351.125
3099.09087	5361.125
3101.4597	5348.425
3103.82709	5366.325
3106.19305	5350.525
3108.55757	5353.225
3110.92066	5341.125
3113.28232	5341.625
3115.64255	5323.725
3118.00134	5332.825
3120.35871	5327.025
3122.71466	5314.625
3125.06917	5320.125
3127.42226	5296.925
3129.77393	5306.125
3132.12417	5287.025
3134.47299	5295.625
3136.82039	5283.925
3139.16636	5304.825
3141.51092	5302.025
3143.85406	5298.725
3146.19579	5291.325
3148.53609	5332.125
3150.87499	5330.025
3153.21246	5324.525
3155.54853	5312.925
3157.88318	5329.525
3160.21642	5345.025
3162.54826	5364.125
3164.87868	5359.525
3167.2077	5337.725
3169.5353	5349.225
3171.86151	5360.625
3174.18631	5343.125
3176.5097	5370.725
3178.83169	5361.125
3181.15228	5354.525
3183.47147	5337.425
3185.78926	5344.125
3188.10565	5332.525
3190.42065	5335.225
3192.73424	5333.825
