Data from AgNPs_UA_5uM_CRN_0uM_R6G_10uM_Q_RamanShift__19__11-11-25-313.txt Node

Date: Mon Jul 18 11:11:25 BST 2022
User: TCL
Spectrometer: QEP01345
Trigger mode: 4
Integration Time (sec): 7.000000E0
Scans to average: 10
Electric dark correction enabled: true
Nonlinearity correction enabled: false
Boxcar width: 0
XAxis mode: Raman Shifts
Number of Pixels in Spectrum: 1044
>>>>>Begin Spectral Data<<<<<
46.04893	-1.225
50.45542	-1.425
54.85868	-2.825
59.25871	-2.325
63.6555	151.475
68.04907	159.275
72.43941	157.975
76.82654	168.375
81.21044	173.875
85.59113	180.475
89.96862	191.175
94.34289	192.275
98.71396	197.075
103.08183	200.375
107.4465	209.375
111.80798	217.475
116.16626	226.775
120.52136	237.775
124.87327	241.075
129.222	258.375
133.56755	279.475
137.90993	302.575
142.24913	343.075
146.58517	390.975
150.91804	449.675
155.24774	541.675
159.57429	687.875
163.89768	887.775
168.21792	1190.375
172.53501	1638.775
176.84895	2288.475
181.15975	3215.975
185.46741	4520.875
189.77193	6227.575
194.07331	8330.575
198.37157	10676.375
202.6667	13149.475
206.9587	15572.475
211.24758	17952.175
215.53334	20385.575
219.81599	22962.975
224.09553	25910.875
228.37195	29168.375
232.64527	32744.475
236.91549	36400.775
241.18261	39917.475
245.44663	43192.275
249.70755	45985.775
253.96539	48352.275
258.22014	50368.975
262.4718	52092.975
266.72039	53317.975
270.96589	53768.375
275.20832	53725.375
279.44768	53264.775
283.68397	52550.875
287.91719	52046.575
292.14735	51786.475
296.37445	51907.575
300.59849	52436.175
304.81948	53047.575
309.03742	53485.275
313.25231	53462.775
317.46415	52545.375
321.67296	51250.075
325.87872	50228.375
330.08145	49804.775
334.28114	49934.975
338.47781	50470.075
342.67145	51292.775
346.86207	52332.475
351.04966	53649.375
355.23424	54963.075
359.4158	56308.375
363.59435	57268.275
367.76989	57930.475
371.94243	58350.375
376.11196	58711.775
380.27849	58944.275
384.44203	59392.975
388.60257	59743.475
392.76012	60090.675
396.91468	60797.775
401.06626	61817.575
405.21485	62322.775
409.36047	62029.675
413.50311	60957.375
417.64277	59959.475
421.77947	59632.275
425.9132	59716.475
430.04396	60075.875
434.17176	60549.675
438.2966	61427.175
442.41849	62994.775
446.53742	64969.275
450.6534	67257.975
454.76644	68746.475
458.87653	69124.675
462.98368	68452.975
467.08789	67375.175
471.18916	66000.475
475.2875	64428.275
479.38291	63037.675
483.4754	62012.575
487.56496	61130.275
491.6516	60437.175
495.73531	60026.275
499.81612	60081.175
503.89401	60490.275
507.96899	60614.275
512.04106	60701.575
516.11023	60804.175
520.1765	60924.175
524.23987	61045.375
528.30034	60914.275
532.35792	60733.275
536.41261	60003.975
540.46441	59189.675
544.51333	59030.675
548.55936	59530.875
552.60252	60616.575
556.64279	61847.375
560.6802	62700.275
564.71473	63199.575
568.7464	64011.775
572.7752	64950.075
576.80114	65474.875
580.82422	66201.675
584.84444	67569.775
588.86181	69475.175
592.87633	71535.075
596.888	72518.075
600.89682	72558.975
604.9028	76031.275
608.90594	85417.575
612.90624	93127.275
616.90371	85752.475
620.89834	71112.775
624.89015	65603.875
628.87913	65294.975
632.86528	64948.375
636.84862	63982.475
640.82913	62452.175
644.80683	60536.175
648.78172	59309.975
652.75379	59342.775
656.72306	60566.475
660.68952	61957.975
664.65319	61679.675
668.61405	60687.975
672.57211	60663.275
676.52738	60659.175
680.47986	60193.075
684.42955	59542.675
688.37646	59531.275
692.32058	60159.675
696.26192	60912.375
700.20048	61781.675
704.13626	61929.075
708.06928	61334.175
711.99952	60775.975
715.927	60682.075
719.85171	60969.075
723.77365	60762.275
727.69284	60141.375
731.60928	59710.275
735.52295	59724.375
739.43388	60041.575
743.34206	60390.275
747.24749	60600.475
751.15017	61050.175
755.05012	61940.275
758.94733	63722.975
762.8418	67361.075
766.73354	73103.175
770.62254	78374.075
774.50882	79737.075
778.39237	76427.975
782.27321	71010.475
786.15132	66038.775
790.02671	62957.875
793.89938	61476.575
797.76935	60970.075
801.6366	60691.475
805.50115	60472.775
809.36299	60114.975
813.22213	59676.575
817.07857	59366.575
820.93231	59175.875
824.78336	59140.775
828.63172	59227.475
832.47738	59261.275
836.32036	59389.875
840.16066	59671.975
843.99827	59975.575
847.8332	59714.175
851.66546	59486.775
855.49504	59500.075
859.32195	59485.875
863.1462	59373.175
866.96777	59101.275
870.78668	59026.675
874.60293	59049.875
878.41652	59188.475
882.22745	59477.075
886.03573	59799.175
889.84136	59737.275
893.64433	59496.675
897.44466	59073.875
901.24235	58918.875
905.0374	58753.075
908.8298	58502.575
912.61957	58633.875
916.40671	58991.475
920.19121	59762.075
923.97308	60864.775
927.75233	61616.975
931.52895	61785.375
935.30295	61106.375
939.07433	59895.175
942.84309	59053.075
946.60924	58775.275
950.37278	58578.775
954.13371	58397.575
957.89203	58061.075
961.64774	57880.175
965.40086	57772.575
969.15137	57626.175
972.89929	57537.875
976.64461	57622.075
980.38733	57959.875
984.12747	58368.675
987.86502	59100.275
991.59999	60169.775
995.33237	61879.175
999.06217	64494.775
1002.78939	67170.775
1006.51404	68320.275
1010.23611	68929.575
1013.95561	69558.175
1017.67255	69919.275
1021.38692	69372.375
1025.09872	69024.475
1028.80796	69848.175
1032.51465	72178.675
1036.21877	74210.975
1039.92035	74037.575
1043.61937	72176.375
1047.31584	69551.275
1051.00976	67096.775
1054.70114	65841.075
1058.38998	65831.275
1062.07627	66169.775
1065.76003	66382.075
1069.44126	66849.875
1073.11995	67802.675
1076.79611	68846.775
1080.46974	69639.775
1084.14085	70426.275
1087.80943	71327.075
1091.47549	71681.975
1095.13903	71090.875
1098.80005	69905.775
1102.45857	68907.075
1106.11456	68406.875
1109.76805	68323.275
1113.41903	68732.575
1117.06751	69463.375
1120.71348	70230.975
1124.35696	71050.275
1127.99793	71841.775
1131.63641	71839.075
1135.2724	71025.575
1138.90589	70230.975
1142.5369	69638.475
1146.16542	69350.475
1149.79145	69415.275
1153.415	69731.075
1157.03607	70333.675
1160.65467	71676.375
1164.27079	74172.275
1167.88443	77919.475
1171.49561	82919.775
1175.10432	89744.775
1178.71056	98179.575
1182.31434	105992.875
1185.91565	109864.375
1189.51451	109137.275
1193.11091	104808.075
1196.70485	99228.875
1200.29634	94480.375
1203.88538	90989.575
1207.47197	88115.375
1211.05612	85920.075
1214.63782	84575.975
1218.21708	84480.175
1221.79391	85228.075
1225.36829	85958.675
1228.94024	85150.675
1232.50976	83014.775
1236.07685	81036.475
1239.6415	80247.775
1243.20374	80325.075
1246.76355	81193.575
1250.32093	82691.575
1253.8759	84853.375
1257.42845	87558.775
1260.97859	90166.575
1264.52631	92799.575
1268.07163	95604.575
1271.61453	98482.875
1275.15503	101508.575
1278.69312	104430.775
1282.22882	106667.975
1285.76211	108268.575
1289.29301	109765.475
1292.82151	111711.675
1296.34761	115032.175
1299.87133	120304.075
1303.39266	128127.775
1306.9116	138501.875
1310.42815	149514.575
1313.94233	156947.575
1317.45412	157358.075
1320.96354	152513.175
1324.47058	146162.775
1327.97525	140040.275
1331.47754	135557.775
1334.97747	133143.275
1338.47502	132326.475
1341.97022	132683.675
1345.46305	133177.075
1348.95352	133657.075
1352.44163	135199.075
1355.92738	139871.975
1359.41078	148009.175
1362.89183	154588.775
1366.37053	150818.275
1369.84688	136424.875
1373.32088	120811.175
1376.79254	110628.975
1380.26186	105931.575
1383.72883	104347.375
1387.19347	103258.275
1390.65578	101297.775
1394.11575	99920.675
1397.57339	100088.275
1401.0287	101747.675
1404.48168	103242.775
1407.93234	104216.375
1411.38068	104278.175
1414.82669	102970.375
1418.27039	100385.675
1421.71177	97609.675
1425.15083	95705.675
1428.58758	95074.775
1432.02203	96267.375
1435.45416	98516.475
1438.88399	100333.175
1442.31151	101446.775
1445.73673	101968.075
1449.15965	102260.975
1452.58027	102067.975
1455.9986	101504.975
1459.41463	101898.975
1462.82837	103672.475
1466.23982	106239.475
1469.64898	108544.475
1473.05586	109614.775
1476.46045	110130.875
1479.86276	109981.975
1483.26279	109377.075
1486.66054	108974.175
1490.05602	109084.375
1493.44922	109825.675
1496.84016	111020.775
1500.22882	113897.575
1503.61521	118415.475
1506.99934	123616.175
1510.38121	127575.275
1513.76081	128017.975
1517.13816	123985.775
1520.51324	117584.875
1523.88607	111954.975
1527.25665	108303.375
1530.62498	106675.575
1533.99105	105663.175
1537.35488	104984.075
1540.71647	104286.675
1544.07581	103245.175
1547.4329	101958.075
1550.78776	100404.575
1554.14038	99019.275
1557.49077	98149.775
1560.83892	97727.975
1564.18484	98085.175
1567.52853	98795.175
1570.86999	99500.975
1574.20922	100292.375
1577.54624	100298.275
1580.88103	99057.275
1584.2136	98340.275
1587.54395	100033.275
1590.87208	105302.975
1594.19801	113797.975
1597.52172	123091.375
1600.84321	127041.975
1604.16251	122806.175
1607.47959	113496.675
1610.79447	103096.475
1614.10715	93764.575
1617.41763	86603.975
1620.7259	81776.775
1624.03199	79525.275
1627.33587	79734.175
1630.63757	82509.275
1633.93707	88026.375
1637.23439	96284.175
1640.52951	107140.375
1643.82246	118529.175
1647.11321	126122.375
1650.40179	125815.975
1653.68819	116147.975
1656.97241	101160.175
1660.25446	87326.075
1663.53433	77445.475
1666.81203	71272.375
1670.08756	67366.675
1673.36092	64850.775
1676.63211	63136.375
1679.90115	61895.475
1683.16801	60853.075
1686.43272	60084.575
1689.69527	59596.675
1692.95567	59199.075
1696.2139	58857.975
1699.46999	58679.775
1702.72392	58588.075
1705.97571	58483.275
1709.22535	58407.475
1712.47284	58445.975
1715.71819	58417.375
1718.96139	58284.275
1722.20246	57996.775
1725.44139	57749.075
1728.67818	57369.675
1731.91284	57091.375
1735.14537	56889.575
1738.37576	56652.875
1741.60403	56516.775
1744.83017	56247.575
1748.05418	56178.675
1751.27607	56062.675
1754.49584	55912.575
1757.71349	55848.175
1760.92903	55753.775
1764.14244	55733.675
1767.35375	55641.675
1770.56294	55501.775
1773.77002	55531.575
1776.97499	55484.275
1780.17785	55386.475
1783.37861	55281.275
1786.57727	55149.075
1789.77382	55134.175
1792.96828	55064.675
1796.16064	55015.975
1799.3509	54988.275
1802.53907	54910.875
1805.72514	54774.075
1808.90913	54676.575
1812.09102	54558.675
1815.27083	54449.075
1818.44856	54308.875
1821.6242	54334.975
1824.79776	54265.675
1827.96924	54111.675
1831.13864	54011.875
1834.30597	53998.475
1837.47122	53989.675
1840.6344	53960.375
1843.7955	54125.675
1846.95454	54045.975
1850.11151	53953.975
1853.26642	53905.075
1856.41926	53836.875
1859.57004	53848.675
1862.71876	53878.475
1865.86542	53880.075
1869.01003	53980.475
1872.15258	53952.875
1875.29308	53941.675
1878.43152	53770.575
1881.56792	53773.575
1884.70227	53735.775
1887.83457	53694.375
1890.96482	53668.275
1894.09304	53743.575
1897.21921	53683.375
1900.34335	53597.375
1903.46544	53599.875
1906.58551	53550.975
1909.70353	53494.275
1912.81953	53485.075
1915.93349	53355.675
1919.04543	53316.175
1922.15534	53313.575
1925.26322	53197.175
1928.36908	53137.675
1931.47292	53102.075
1934.57473	52894.175
1937.67453	52825.475
1940.77232	52748.675
1943.86808	52554.675
1946.96184	52442.475
1950.05358	52267.275
1953.14331	52112.475
1956.23103	51995.075
1959.31675	51863.975
1962.40046	51720.475
1965.48217	51586.275
1968.56188	51474.875
1971.63959	51349.775
1974.7153	51222.275
1977.78901	51110.775
1980.86073	50980.075
1983.93046	50804.075
1986.99819	50590.075
1990.06394	50534.775
1993.1277	50413.475
1996.18947	50256.675
1999.24925	50151.475
2002.30706	50068.175
2005.36288	50022.675
2008.41672	49917.075
2011.46859	49770.375
2014.51848	49661.975
2017.56639	49621.475
2020.61233	49598.275
2023.6563	49478.575
2026.6983	49310.675
2029.73833	49149.475
2032.7764	49074.975
2035.8125	49065.775
2038.84664	49006.175
2041.87881	48973.375
2044.90903	48866.775
2047.93729	48711.375
2050.96359	48811.675
2053.98794	48784.375
2057.01034	48799.175
2060.03078	48728.675
2063.04927	48671.575
2066.06582	48636.075
2069.08042	48585.675
2072.09307	48636.875
2075.10378	48575.275
2078.11255	48511.075
2081.11938	48485.775
2084.12426	48412.775
2087.12722	48353.875
2090.12824	48307.075
2093.12732	48344.075
2096.12447	48404.075
2099.11969	48460.175
2102.11299	48471.475
2105.10435	48465.375
2108.09379	48550.375
2111.08131	48550.775
2114.0669	48537.575
2117.05057	48652.175
2120.03233	48643.375
2123.01216	48744.375
2125.99008	48737.075
2128.96609	48835.375
2131.94018	48905.575
2134.91236	48894.175
2137.88263	48923.775
2140.851	49004.875
2143.81746	49053.475
2146.78201	49119.275
2149.74466	49165.575
2152.7054	49221.475
2155.66425	49226.375
2158.6212	49209.975
2161.57625	49187.075
2164.52941	49135.875
2167.48067	49112.275
2170.43004	49121.175
2173.37752	49213.675
2176.32311	49105.875
2179.26681	49104.775
2182.20863	49258.575
2185.14856	49312.875
2188.08661	49362.275
2191.02278	49342.475
2193.95707	49416.175
2196.88948	49404.575
2199.82001	49393.075
2202.74867	49424.275
2205.67545	49396.875
2208.60037	49282.975
2211.52341	49317.675
2214.44458	49299.175
2217.36388	49177.275
2220.28132	49241.675
2223.1969	49132.675
2226.11061	49066.575
2229.02246	49000.975
2231.93245	48950.575
2234.84058	48863.275
2237.74686	48685.075
2240.65128	48672.175
2243.55385	48526.275
2246.45456	48534.875
2249.35343	48492.075
2252.25044	48474.575
2255.14561	48408.075
2258.03893	48390.075
2260.93041	48378.475
2263.82004	48234.075
2266.70783	48116.675
2269.59378	48048.575
2272.4779	48049.675
2275.36017	47892.575
2278.24061	47726.475
2281.11922	47721.875
2283.996	47685.575
2286.87094	47637.175
2289.74405	47548.775
2292.61534	47574.475
2295.4848	47555.075
2298.35243	47592.675
2301.21824	47577.175
2304.08223	47642.075
2306.94439	47724.875
2309.80474	47779.575
2312.66327	47879.575
2315.51999	47925.575
2318.37489	47999.875
2321.22797	47999.175
2324.07925	47907.875
2326.92871	47839.375
2329.77637	47878.475
2332.62222	47867.175
2335.46626	47822.575
2338.3085	47916.475
2341.14893	48005.875
2343.98756	48048.375
2346.8244	48097.775
2349.65943	48246.975
2352.49267	48222.775
2355.32411	48183.475
2358.15376	48119.675
2360.98161	48060.475
2363.80768	48046.775
2366.63195	48031.575
2369.45444	47786.075
2372.27514	47731.475
2375.09405	47729.375
2377.91118	47580.175
2380.72652	47456.875
2383.54009	47312.475
2386.35187	47276.375
2389.16188	47284.375
2391.97011	47234.675
2394.77657	47215.875
2397.58125	47174.675
2400.38416	47041.175
2403.18529	46952.575
2405.98466	46948.775
2408.78226	46886.475
2411.57809	46791.375
2414.37216	46636.275
2417.16446	46694.375
2419.955	46530.275
2422.74378	46603.575
2425.5308	46503.675
2428.31606	46514.575
2431.09956	46517.675
2433.88131	46422.975
2436.6613	46457.775
2439.43954	46596.975
2442.21603	46626.775
2444.99077	46575.575
2447.76377	46538.875
2450.53501	46450.375
2453.30451	46543.575
2456.07226	46484.875
2458.83827	46435.275
2461.60254	46470.375
2464.36507	46496.075
2467.12586	46563.775
2469.88492	46579.175
2472.64224	46519.575
2475.39782	46418.775
2478.15167	46541.175
2480.90379	46681.875
2483.65417	46858.575
2486.40283	46863.175
2489.14976	46979.375
2491.89497	46984.675
2494.63845	46973.475
2497.3802	46917.175
2500.12024	46927.575
2502.85855	46931.575
2505.59514	46875.275
2508.33002	46818.175
2511.06318	46852.675
2513.79462	46815.375
2516.52435	46716.575
2519.25237	46734.475
2521.97867	46725.675
2524.70327	46753.075
2527.42616	46637.575
2530.14734	46752.575
2532.86681	46666.075
2535.58458	46739.175
2538.30065	46740.575
2541.01501	46869.875
2543.72768	46841.075
2546.43864	46848.675
2549.14791	46740.475
2551.85548	46803.375
2554.56136	46685.975
2557.26554	46697.075
2559.96803	46635.875
2562.66883	46524.375
2565.36794	46520.975
2568.06536	46462.875
2570.7611	46399.675
2573.45514	46444.175
2576.14751	46386.075
2578.83819	46391.875
2581.52719	46359.075
2584.21451	46393.775
2586.90015	46472.675
2589.58411	46483.775
2592.2664	46499.775
2594.94701	46374.775
2597.62594	46539.575
2600.30321	46452.875
2602.9788	46465.775
2605.65273	46369.375
2608.32498	46379.775
2610.99557	46374.075
2613.66449	46501.475
2616.33175	46509.375
2618.99734	46507.675
2621.66128	46497.975
2624.32355	46540.975
2626.98416	46678.475
2629.64311	46750.075
2632.30041	46732.075
2634.95605	46700.275
2637.61004	46636.675
2640.26238	46674.775
2642.91306	46604.675
2645.56209	46472.175
2648.20948	46450.775
2650.85521	46373.275
2653.4993	46417.575
2656.14175	46346.175
2658.78255	46405.875
2661.42171	46485.075
2664.05923	46685.375
2666.6951	46676.375
2669.32934	46714.175
2671.96194	46701.075
2674.59291	46745.675
2677.22224	46700.775
2679.84993	46619.475
2682.476	46562.475
2685.10043	46539.275
2687.72324	46411.775
2690.34441	46452.775
2692.96396	46337.475
2695.58188	46340.375
2698.19818	46270.975
2700.81285	46299.175
2703.4259	46284.975
2706.03733	46443.375
2708.64714	46367.875
2711.25533	46421.575
2713.86191	46461.875
2716.46687	46637.675
2719.07021	46638.675
2721.67194	46658.875
2724.27206	46660.775
2726.87057	46674.175
2729.46747	46609.175
2732.06276	46659.475
2734.65644	46672.875
2737.24852	46732.275
2739.83899	46625.975
2742.42786	46616.375
2745.01513	46435.875
2747.60079	46455.975
2750.18486	46524.275
2752.76733	46624.675
2755.3482	46614.075
2757.92747	46661.575
2760.50515	46589.775
2763.08123	46508.975
2765.65573	46412.175
2768.22863	46486.575
2770.79994	46510.775
2773.36967	46625.375
2775.9378	46533.775
2778.50435	46526.775
2781.06932	46594.975
2783.6327	46614.975
2786.1945	46567.975
2788.75471	46470.175
2791.31335	46378.575
2793.87041	46262.475
2796.42589	46181.075
2798.97979	46234.675
2801.53212	46078.375
2804.08288	46144.175
2806.63206	46051.975
2809.17967	45985.675
2811.72571	45918.475
2814.27018	45842.075
2816.81308	45713.175
2819.35442	45592.675
2821.89419	45534.475
2824.43239	45554.075
2826.96904	45495.675
2829.50412	45491.175
2832.03763	45481.375
2834.56959	45522.775
2837.1	45454.975
2839.62884	45486.175
2842.15613	45390.675
2844.68186	45293.775
2847.20604	45199.275
2849.72867	45257.575
2852.24974	45146.575
2854.76927	45148.075
2857.28724	45072.175
2859.80367	45090.475
2862.31855	45170.975
2864.83189	45279.175
2867.34368	45174.975
2869.85393	45113.475
2872.36264	45057.175
2874.8698	45004.275
2877.37543	45081.675
2879.87952	45036.475
2882.38207	45055.475
2884.88308	45024.775
2887.38256	45037.275
2889.88051	45033.975
2892.37692	45024.975
2894.8718	45072.575
2897.36515	45221.575
2899.85698	45215.375
2902.34727	45334.875
2904.83604	45401.275
2907.32328	45616.775
2909.809	45709.275
2912.29319	45817.675
2914.77587	45744.775
2917.25702	45751.475
2919.73665	45664.775
2922.21476	45728.075
2924.69136	45639.875
2927.16644	45556.175
2929.64	45430.875
2932.11205	45373.975
2934.58258	45182.675
2937.05161	45234.475
2939.51912	45207.175
2941.98513	45186.575
2944.44962	45187.675
2946.91261	45095.075
2949.37409	45211.075
2951.83407	45092.575
2954.29254	45213.875
2956.74951	45217.775
2959.20498	45168.375
2961.65895	45076.475
2964.11142	45154.275
2966.56239	45082.475
2969.01186	45072.275
2971.45984	45036.275
2973.90632	44947.775
2976.35131	44810.075
2978.7948	44803.375
2981.23681	44677.175
2983.67732	44576.875
2986.11635	44415.775
2988.55388	44438.175
2990.98993	44400.475
2993.4245	44190.775
2995.85758	44107.775
2998.28917	44029.775
3000.71928	44045.075
3003.14791	43959.175
3005.57506	43838.275
3008.00073	43637.075
3010.42493	43570.875
3012.84764	43545.875
3015.26888	43540.275
3017.68865	43470.275
3020.10694	43420.975
3022.52376	43250.075
3024.9391	43306.575
3027.35298	43270.875
3029.76539	43294.475
3032.17632	43265.675
3034.5858	43190.975
3036.9938	43223.775
3039.40034	43215.075
3041.80542	43154.675
3044.20903	43047.375
3046.61118	42996.775
3049.01187	42910.075
3051.4111	42941.175
3053.80888	42760.675
3056.20519	42767.675
3058.60005	42635.475
3060.99345	42541.575
3063.3854	42440.475
3065.7759	42401.875
3068.16494	42254.875
3070.55254	42130.575
3072.93868	42023.375
3075.32338	41906.675
3077.70662	41896.675
3080.08842	41761.475
3082.46878	41780.575
3084.84769	41755.475
3087.22515	41749.775
3089.60118	41707.775
3091.97576	41705.375
3094.3489	41703.975
3096.72061	41666.475
3099.09087	41696.675
3101.4597	41641.675
3103.82709	41564.675
3106.19305	41487.875
3108.55757	41553.675
3110.92066	41496.775
3113.28232	41489.575
3115.64255	41418.375
3118.00134	41435.675
