Data from AgNPs_UA_50uM_CRN_0uM_R6G_10uM_Q_RamanShift__8__12-20-31-761.txt Node

Date: Tue Jul 26 12:20:31 BST 2022
User: TCL
Spectrometer: QEP01345
Trigger mode: 4
Integration Time (sec): 7.000000E0
Scans to average: 10
Electric dark correction enabled: true
Nonlinearity correction enabled: false
Boxcar width: 0
XAxis mode: Raman Shifts
Number of Pixels in Spectrum: 1044
>>>>>Begin Spectral Data<<<<<
46.04893	-0.1875
50.45542	1.5125
54.85868	-1.6875
59.25871	-2.3875
63.6555	117.8125
68.04907	123.3125
72.43941	129.4125
76.82654	137.1125
81.21044	142.7125
85.59113	144.5125
89.96862	151.1125
94.34289	161.2125
98.71396	163.9125
103.08183	172.9125
107.4465	171.2125
111.80798	176.7125
116.16626	184.5125
120.52136	190.8125
124.87327	195.7125
129.222	209.2125
133.56755	224.5125
137.90993	233.6125
142.24913	257.9125
146.58517	286.4125
150.91804	329.3125
155.24774	394.0125
159.57429	482.0125
163.89768	620.2125
168.21792	814.0125
172.53501	1114.3125
176.84895	1538.6125
181.15975	2175.0125
185.46741	3048.2125
189.77193	4222.0125
194.07331	5637.1125
198.37157	7235.4125
202.6667	8956.0125
206.9587	10681.9125
211.24758	12390.2125
215.53334	14079.8125
219.81599	15902.9125
224.09553	17890.1125
228.37195	20108.9125
232.64527	22504.4125
236.91549	25009.9125
241.18261	27414.3125
245.44663	29549.6125
249.70755	31420.9125
253.96539	33013.9125
258.22014	34344.5125
262.4718	35448.9125
266.72039	36204.8125
270.96589	36643.7125
275.20832	36559.0125
279.44768	36217.6125
283.68397	35782.0125
287.91719	35405.4125
292.14735	35240.3125
296.37445	35350.7125
300.59849	35758.2125
304.81948	36351.8125
309.03742	36815.4125
313.25231	36876.1125
317.46415	36364.4125
321.67296	35404.6125
325.87872	34545.3125
330.08145	34097.5125
334.28114	34112.5125
338.47781	34426.2125
342.67145	35018.7125
346.86207	35768.1125
351.04966	36808.9125
355.23424	37759.5125
359.4158	38539.7125
363.59435	39119.1125
367.76989	39490.8125
371.94243	39638.1125
376.11196	39739.4125
380.27849	39874.2125
384.44203	40067.1125
388.60257	40315.7125
392.76012	40567.4125
396.91468	41067.6125
401.06626	41691.5125
405.21485	42094.4125
409.36047	41806.0125
413.50311	41012.7125
417.64277	40232.9125
421.77947	39785.4125
425.9132	39583.9125
430.04396	39533.3125
434.17176	39740.2125
438.2966	40077.2125
442.41849	40602.3125
446.53742	41351.5125
450.6534	42209.7125
454.76644	42822.7125
458.87653	43153.0125
462.98368	43187.2125
467.08789	43053.1125
471.18916	42583.3125
475.2875	41862.8125
479.38291	41222.8125
483.4754	40721.9125
487.56496	40488.7125
491.6516	40242.0125
495.73531	40173.8125
499.81612	40296.6125
503.89401	40644.8125
507.96899	40932.6125
512.04106	40970.1125
516.11023	41023.0125
520.1765	41075.3125
524.23987	41021.4125
528.30034	40880.6125
532.35792	40719.5125
536.41261	40510.1125
540.46441	40098.6125
544.51333	39986.3125
548.55936	40293.4125
552.60252	40857.0125
556.64279	41515.1125
560.6802	42075.2125
564.71473	42452.3125
568.7464	42794.9125
572.7752	43101.6125
576.80114	43044.4125
580.82422	43221.5125
584.84444	43707.3125
588.86181	44159.7125
592.87633	44578.5125
596.888	44921.6125
600.89682	45708.9125
604.9028	48235.8125
608.90594	54380.6125
612.90624	60812.7125
616.90371	57536.1125
620.89834	47486.6125
624.89015	42807.0125
628.87913	42229.8125
632.86528	42907.0125
636.84862	43499.9125
640.82913	42973.8125
644.80683	41741.7125
648.78172	40835.9125
652.75379	40781.4125
656.72306	41512.4125
660.68952	42475.9125
664.65319	42353.3125
668.61405	41774.5125
672.57211	41997.3125
676.52738	42221.6125
680.47986	41778.0125
684.42955	41169.0125
688.37646	40914.0125
692.32058	41233.0125
696.26192	41807.7125
700.20048	42536.6125
704.13626	42813.1125
708.06928	42573.1125
711.99952	42131.6125
715.927	41984.2125
719.85171	42148.5125
723.77365	42122.3125
727.69284	41721.4125
731.60928	41359.8125
735.52295	41191.0125
739.43388	41263.4125
743.34206	41406.5125
747.24749	41564.8125
751.15017	41665.3125
755.05012	42085.0125
758.94733	43212.7125
762.8418	45604.9125
766.73354	49522.1125
770.62254	53150.1125
774.50882	54344.7125
778.39237	52915.3125
782.27321	49978.0125
786.15132	46656.0125
790.02671	44090.6125
793.89938	42682.0125
797.76935	41973.6125
801.6366	41634.5125
805.50115	41368.7125
809.36299	41198.5125
813.22213	40984.9125
817.07857	40943.5125
820.93231	40991.0125
824.78336	40950.6125
828.63172	40962.8125
832.47738	40926.6125
836.32036	40889.4125
840.16066	40744.6125
843.99827	40716.6125
847.8332	40702.8125
851.66546	40826.3125
855.49504	40967.5125
859.32195	41011.3125
863.1462	41002.9125
866.96777	40950.6125
870.78668	40986.3125
874.60293	41120.7125
878.41652	41219.5125
882.22745	41424.5125
886.03573	41586.7125
889.84136	41584.0125
893.64433	41417.6125
897.44466	41350.4125
901.24235	41174.0125
905.0374	41083.4125
908.8298	40980.3125
912.61957	40923.3125
916.40671	40929.4125
920.19121	41171.1125
923.97308	41349.5125
927.75233	41557.2125
931.52895	41567.3125
935.30295	41336.2125
939.07433	40851.8125
942.84309	40394.0125
946.60924	40189.0125
950.37278	40096.1125
954.13371	40077.1125
957.89203	40142.8125
961.64774	40158.9125
965.40086	40097.0125
969.15137	40060.9125
972.89929	40024.2125
976.64461	40043.5125
980.38733	39980.3125
984.12747	40128.8125
987.86502	40246.5125
991.59999	40393.6125
995.33237	40677.3125
999.06217	41052.7125
1002.78939	41653.8125
1006.51404	42352.4125
1010.23611	43006.1125
1013.95561	43501.1125
1017.67255	43694.6125
1021.38692	43410.7125
1025.09872	42910.6125
1028.80796	42321.4125
1032.51465	42033.1125
1036.21877	41913.7125
1039.92035	42055.0125
1043.61937	42181.0125
1047.31584	42402.4125
1051.00976	42517.1125
1054.70114	42687.0125
1058.38998	42908.3125
1062.07627	43309.3125
1065.76003	43755.9125
1069.44126	44380.0125
1073.11995	45283.3125
1076.79611	46401.7125
1080.46974	47059.2125
1084.14085	47418.4125
1087.80943	47742.2125
1091.47549	47940.1125
1095.13903	48053.4125
1098.80005	47953.9125
1102.45857	47756.1125
1106.11456	47353.7125
1109.76805	46647.7125
1113.41903	46207.1125
1117.06751	46348.4125
1120.71348	46811.3125
1124.35696	47410.8125
1127.99793	47960.2125
1131.63641	47865.5125
1135.2724	47166.3125
1138.90589	46494.7125
1142.5369	46195.9125
1146.16542	45923.5125
1149.79145	45780.9125
1153.415	45539.0125
1157.03607	45428.1125
1160.65467	45762.1125
1164.27079	46653.3125
1167.88443	48059.4125
1171.49561	50071.1125
1175.10432	53016.8125
1178.71056	56875.1125
1182.31434	60414.1125
1185.91565	62288.9125
1189.51451	62682.1125
1193.11091	62010.9125
1196.70485	60657.0125
1200.29634	58888.8125
1203.88538	57013.3125
1207.47197	55060.8125
1211.05612	53412.3125
1214.63782	51960.4125
1218.21708	50734.2125
1221.79391	49833.0125
1225.36829	49340.5125
1228.94024	49105.8125
1232.50976	48975.8125
1236.07685	48887.2125
1239.6415	48888.0125
1243.20374	48974.0125
1246.76355	49259.8125
1250.32093	49626.6125
1253.8759	50315.0125
1257.42845	51507.2125
1260.97859	53059.1125
1264.52631	54629.4125
1268.07163	55884.6125
1271.61453	56747.4125
1275.15503	57242.4125
1278.69312	57575.3125
1282.22882	57719.2125
1285.76211	58198.3125
1289.29301	59106.7125
1292.82151	60314.7125
1296.34761	61762.9125
1299.87133	63841.6125
1303.39266	66603.0125
1306.9116	70461.6125
1310.42815	74638.2125
1313.94233	76900.1125
1317.45412	76052.0125
1320.96354	73807.1125
1324.47058	71491.0125
1327.97525	69181.8125
1331.47754	67535.5125
1334.97747	66941.9125
1338.47502	67248.4125
1341.97022	68597.7125
1345.46305	70898.5125
1348.95352	73850.2125
1352.44163	76594.8125
1355.92738	79091.8125
1359.41078	82134.0125
1362.89183	85034.6125
1366.37053	82978.8125
1369.84688	75178.0125
1373.32088	66895.4125
1376.79254	61527.7125
1380.26186	58858.3125
1383.72883	57444.9125
1387.19347	56413.1125
1390.65578	55152.8125
1394.11575	53871.0125
1397.57339	52873.9125
1401.0287	52309.1125
1404.48168	52211.7125
1407.93234	52436.5125
1411.38068	52659.1125
1414.82669	52686.9125
1418.27039	52322.2125
1421.71177	51765.2125
1425.15083	51230.1125
1428.58758	50937.0125
1432.02203	51091.9125
1435.45416	51528.6125
1438.88399	51902.2125
1442.31151	51987.3125
1445.73673	52076.3125
1449.15965	52254.6125
1452.58027	52254.4125
1455.9986	52165.5125
1459.41463	52418.9125
1462.82837	53108.0125
1466.23982	54032.7125
1469.64898	54865.2125
1473.05586	55536.4125
1476.46045	55949.7125
1479.86276	56255.8125
1483.26279	56627.9125
1486.66054	57257.2125
1490.05602	58319.2125
1493.44922	59993.7125
1496.84016	62543.9125
1500.22882	66299.4125
1503.61521	71037.4125
1506.99934	75756.9125
1510.38121	78437.3125
1513.76081	77891.6125
1517.13816	73999.4125
1520.51324	68631.7125
1523.88607	64008.8125
1527.25665	61015.2125
1530.62498	59445.9125
1533.99105	58458.1125
1537.35488	57515.1125
1540.71647	56784.5125
1544.07581	56011.9125
1547.4329	55336.7125
1550.78776	54825.6125
1554.14038	54360.9125
1557.49077	54272.2125
1560.83892	54473.7125
1564.18484	55260.3125
1567.52853	56250.4125
1570.86999	57029.1125
1574.20922	57424.5125
1577.54624	57268.7125
1580.88103	55918.4125
1584.2136	54207.2125
1587.54395	53305.6125
1590.87208	53746.2125
1594.19801	55479.8125
1597.52172	57824.6125
1600.84321	58969.7125
1604.16251	58308.5125
1607.47959	56636.6125
1610.79447	54348.8125
1614.10715	51354.3125
1617.41763	48514.7125
1620.7259	46325.2125
1624.03199	45167.8125
1627.33587	44847.7125
1630.63757	45284.1125
1633.93707	46749.3125
1637.23439	49549.5125
1640.52951	53872.9125
1643.82246	59368.1125
1647.11321	64589.1125
1650.40179	66742.7125
1653.68819	64139.7125
1656.97241	57874.7125
1660.25446	51332.8125
1663.53433	46455.5125
1666.81203	43334.8125
1670.08756	41432.3125
1673.36092	40235.9125
1676.63211	39436.4125
1679.90115	38854.6125
1683.16801	38323.5125
1686.43272	38003.6125
1689.69527	37718.0125
1692.95567	37572.7125
1696.2139	37365.6125
1699.46999	37287.1125
1702.72392	37159.1125
1705.97571	37133.7125
1709.22535	37068.4125
1712.47284	37054.0125
1715.71819	37013.2125
1718.96139	36828.2125
1722.20246	36760.8125
1725.44139	36640.4125
1728.67818	36534.2125
1731.91284	36314.1125
1735.14537	36092.9125
1738.37576	36001.9125
1741.60403	35889.6125
1744.83017	35688.3125
1748.05418	35610.8125
1751.27607	35515.5125
1754.49584	35415.0125
1757.71349	35362.0125
1760.92903	35269.0125
1764.14244	35254.5125
1767.35375	35212.4125
1770.56294	35152.6125
1773.77002	35069.8125
1776.97499	35046.7125
1780.17785	35016.0125
1783.37861	34964.1125
1786.57727	34942.1125
1789.77382	34834.0125
1792.96828	34808.4125
1796.16064	34752.8125
1799.3509	34700.5125
1802.53907	34611.2125
1805.72514	34516.1125
1808.90913	34376.4125
1812.09102	34260.6125
1815.27083	34103.6125
1818.44856	34101.6125
1821.6242	34015.2125
1824.79776	33935.7125
1827.96924	33865.8125
1831.13864	33775.8125
1834.30597	33840.7125
1837.47122	33782.1125
1840.6344	33709.6125
1843.7955	33727.0125
1846.95454	33705.2125
1850.11151	33601.3125
1853.26642	33540.1125
1856.41926	33524.1125
1859.57004	33495.1125
1862.71876	33437.7125
1865.86542	33410.5125
1869.01003	33412.3125
1872.15258	33395.5125
1875.29308	33345.9125
1878.43152	33208.1125
1881.56792	33161.4125
1884.70227	33126.2125
1887.83457	33114.9125
1890.96482	33012.9125
1894.09304	32958.1125
1897.21921	32935.0125
1900.34335	32861.9125
1903.46544	32822.9125
1906.58551	32809.8125
1909.70353	32804.9125
1912.81953	32763.6125
1915.93349	32650.3125
1919.04543	32593.4125
1922.15534	32520.8125
1925.26322	32423.3125
1928.36908	32367.6125
1931.47292	32290.2125
1934.57473	32132.0125
1937.67453	32146.1125
1940.77232	32067.1125
1943.86808	31956.0125
1946.96184	31889.8125
1950.05358	31785.2125
1953.14331	31653.1125
1956.23103	31611.7125
1959.31675	31496.8125
1962.40046	31361.9125
1965.48217	31288.0125
1968.56188	31132.8125
1971.63959	31108.4125
1974.7153	30996.2125
1977.78901	30911.3125
1980.86073	30866.1125
1983.93046	30743.3125
1986.99819	30636.4125
1990.06394	30534.0125
1993.1277	30429.9125
1996.18947	30349.1125
1999.24925	30276.6125
2002.30706	30171.3125
2005.36288	30063.3125
2008.41672	30003.7125
2011.46859	29913.4125
2014.51848	29771.8125
2017.56639	29639.7125
2020.61233	29588.7125
2023.6563	29494.7125
2026.6983	29406.4125
2029.73833	29362.0125
2032.7764	29280.2125
2035.8125	29196.8125
2038.84664	29136.1125
2041.87881	29097.9125
2044.90903	29042.9125
2047.93729	28975.8125
2050.96359	28964.3125
2053.98794	28932.7125
2057.01034	28890.7125
2060.03078	28840.8125
2063.04927	28811.8125
2066.06582	28826.2125
2069.08042	28746.0125
2072.09307	28697.4125
2075.10378	28654.2125
2078.11255	28589.7125
2081.11938	28566.0125
2084.12426	28572.0125
2087.12722	28587.0125
2090.12824	28600.1125
2093.12732	28597.8125
2096.12447	28560.3125
2099.11969	28535.3125
2102.11299	28555.3125
2105.10435	28534.0125
2108.09379	28627.9125
2111.08131	28575.9125
2114.0669	28549.2125
2117.05057	28576.0125
2120.03233	28614.2125
2123.01216	28662.8125
2125.99008	28680.0125
2128.96609	28687.2125
2131.94018	28678.7125
2134.91236	28706.7125
2137.88263	28722.9125
2140.851	28717.7125
2143.81746	28732.9125
2146.78201	28670.7125
2149.74466	28711.0125
2152.7054	28748.6125
2155.66425	28687.2125
2158.6212	28645.0125
2161.57625	28641.2125
2164.52941	28621.2125
2167.48067	28604.1125
2170.43004	28528.2125
2173.37752	28536.3125
2176.32311	28541.7125
2179.26681	28488.4125
2182.20863	28496.6125
2185.14856	28499.4125
2188.08661	28494.1125
2191.02278	28388.2125
2193.95707	28417.6125
2196.88948	28394.6125
2199.82001	28369.7125
2202.74867	28365.2125
2205.67545	28313.3125
2208.60037	28323.4125
2211.52341	28231.9125
2214.44458	28162.5125
2217.36388	28084.1125
2220.28132	28046.3125
2223.1969	27952.4125
2226.11061	27972.5125
2229.02246	27910.5125
2231.93245	27839.8125
2234.84058	27768.1125
2237.74686	27675.1125
2240.65128	27709.0125
2243.55385	27672.0125
2246.45456	27626.0125
2249.35343	27600.1125
2252.25044	27575.2125
2255.14561	27539.4125
2258.03893	27497.8125
2260.93041	27457.5125
2263.82004	27336.3125
2266.70783	27302.4125
2269.59378	27233.6125
2272.4779	27198.2125
2275.36017	27126.3125
2278.24061	27072.1125
2281.11922	27021.8125
2283.996	26942.2125
2286.87094	26916.8125
2289.74405	26825.2125
2292.61534	26778.1125
2295.4848	26719.0125
2298.35243	26739.1125
2301.21824	26737.8125
2304.08223	26716.6125
2306.94439	26669.6125
2309.80474	26650.9125
2312.66327	26618.2125
2315.51999	26556.2125
2318.37489	26603.1125
2321.22797	26516.0125
2324.07925	26448.3125
2326.92871	26340.9125
2329.77637	26329.8125
2332.62222	26289.8125
2335.46626	26246.6125
2338.3085	26225.0125
2341.14893	26164.5125
2343.98756	26210.1125
2346.8244	26224.5125
2349.65943	26237.7125
2352.49267	26209.6125
2355.32411	26159.6125
2358.15376	26132.9125
2360.98161	26129.7125
2363.80768	26160.7125
2366.63195	26108.0125
2369.45444	26107.3125
2372.27514	26075.0125
2375.09405	26040.4125
2377.91118	26040.2125
2380.72652	25973.3125
2383.54009	25865.4125
2386.35187	25809.1125
2389.16188	25719.7125
2391.97011	25695.5125
2394.77657	25615.4125
2397.58125	25559.2125
2400.38416	25509.9125
2403.18529	25492.8125
2405.98466	25399.4125
2408.78226	25345.4125
2411.57809	25310.6125
2414.37216	25287.6125
2417.16446	25361.8125
2419.955	25319.5125
2422.74378	25316.5125
2425.5308	25261.5125
2428.31606	25223.2125
2431.09956	25238.7125
2433.88131	25191.6125
2436.6613	25238.8125
2439.43954	25159.3125
2442.21603	25162.0125
2444.99077	25118.4125
2447.76377	25115.3125
2450.53501	25030.6125
2453.30451	25026.3125
2456.07226	24951.4125
2458.83827	24912.7125
2461.60254	24905.4125
2464.36507	24859.8125
2467.12586	24836.4125
2469.88492	24840.8125
2472.64224	24834.1125
2475.39782	24867.0125
2478.15167	24857.8125
2480.90379	24802.1125
2483.65417	24832.6125
2486.40283	24823.2125
2489.14976	24826.5125
2491.89497	24822.9125
2494.63845	24791.4125
2497.3802	24754.7125
2500.12024	24709.7125
2502.85855	24647.5125
2505.59514	24637.7125
2508.33002	24607.6125
2511.06318	24527.1125
2513.79462	24529.7125
2516.52435	24512.2125
2519.25237	24467.6125
2521.97867	24371.5125
2524.70327	24348.7125
2527.42616	24271.4125
2530.14734	24330.3125
2532.86681	24322.0125
2535.58458	24274.6125
2538.30065	24251.2125
2541.01501	24242.2125
2543.72768	24182.6125
2546.43864	24164.8125
2549.14791	24083.7125
2551.85548	24053.2125
2554.56136	24056.4125
2557.26554	24028.2125
2559.96803	24000.9125
2562.66883	23924.6125
2565.36794	23878.9125
2568.06536	23845.4125
2570.7611	23806.4125
2573.45514	23739.8125
2576.14751	23699.3125
2578.83819	23695.5125
2581.52719	23619.9125
2584.21451	23558.3125
2586.90015	23554.7125
2589.58411	23515.5125
2592.2664	23485.7125
2594.94701	23495.2125
2597.62594	23365.9125
2600.30321	23314.8125
2602.9788	23323.8125
2605.65273	23258.6125
2608.32498	23302.7125
2610.99557	23273.7125
2613.66449	23245.3125
2616.33175	23235.7125
2618.99734	23261.7125
2621.66128	23238.9125
2624.32355	23185.3125
2626.98416	23102.4125
2629.64311	23044.7125
2632.30041	23016.2125
2634.95605	22995.5125
2637.61004	22988.5125
2640.26238	22954.0125
2642.91306	22973.7125
2645.56209	22971.7125
2648.20948	22913.5125
2650.85521	22855.9125
2653.4993	22814.3125
2656.14175	22810.2125
2658.78255	22813.9125
2661.42171	22795.2125
2664.05923	22829.5125
2666.6951	22894.2125
2669.32934	22938.1125
2671.96194	22911.7125
2674.59291	22891.5125
2677.22224	22844.5125
2679.84993	22837.0125
2682.476	22813.2125
2685.10043	22851.2125
2687.72324	22798.6125
2690.34441	22788.6125
2692.96396	22740.3125
2695.58188	22762.8125
2698.19818	22750.3125
2700.81285	22764.2125
2703.4259	22762.0125
2706.03733	22788.2125
2708.64714	22738.9125
2711.25533	22757.0125
2713.86191	22689.8125
2716.46687	22752.0125
2719.07021	22740.6125
2721.67194	22780.8125
2724.27206	22746.8125
2726.87057	22706.2125
2729.46747	22695.5125
2732.06276	22716.7125
2734.65644	22679.9125
2737.24852	22690.7125
2739.83899	22629.7125
2742.42786	22691.9125
2745.01513	22675.0125
2747.60079	22612.8125
2750.18486	22519.1125
2752.76733	22515.9125
2755.3482	22457.9125
2757.92747	22454.0125
2760.50515	22441.2125
2763.08123	22379.2125
2765.65573	22371.3125
2768.22863	22338.3125
2770.79994	22324.0125
2773.36967	22312.2125
2775.9378	22226.3125
2778.50435	22221.4125
2781.06932	22211.1125
2783.6327	22187.8125
2786.1945	22211.4125
2788.75471	22151.9125
2791.31335	22081.1125
2793.87041	22015.2125
2796.42589	21954.7125
2798.97979	21959.2125
2801.53212	21904.6125
2804.08288	21906.9125
2806.63206	21799.9125
2809.17967	21780.4125
2811.72571	21694.0125
2814.27018	21666.6125
2816.81308	21672.7125
2819.35442	21625.6125
2821.89419	21586.7125
2824.43239	21551.6125
2826.96904	21529.8125
2829.50412	21475.7125
2832.03763	21403.2125
2834.56959	21380.1125
2837.1	21311.8125
2839.62884	21332.8125
2842.15613	21256.8125
2844.68186	21269.3125
2847.20604	21220.2125
2849.72867	21218.6125
2852.24974	21196.5125
2854.76927	21138.1125
2857.28724	21136.7125
2859.80367	21188.6125
2862.31855	21142.5125
2864.83189	21092.3125
2867.34368	21051.1125
2869.85393	21076.0125
2872.36264	21059.1125
2874.8698	21004.0125
2877.37543	20939.9125
2879.87952	20928.4125
2882.38207	20904.0125
2884.88308	20852.2125
2887.38256	20860.7125
2889.88051	20849.0125
2892.37692	20876.6125
2894.8718	20816.4125
2897.36515	20815.0125
2899.85698	20811.4125
2902.34727	20859.3125
2904.83604	20897.2125
2907.32328	20952.5125
2909.809	20923.7125
2912.29319	20932.8125
2914.77587	20891.2125
2917.25702	20900.1125
2919.73665	20899.1125
2922.21476	20891.4125
2924.69136	20840.4125
2927.16644	20818.8125
2929.64	20780.3125
2932.11205	20761.4125
2934.58258	20629.7125
2937.05161	20696.7125
2939.51912	20717.9125
2941.98513	20674.5125
2944.44962	20630.2125
2946.91261	20557.7125
2949.37409	20592.5125
2951.83407	20589.1125
2954.29254	20569.4125
2956.74951	20541.2125
2959.20498	20554.4125
2961.65895	20497.3125
2964.11142	20480.1125
2966.56239	20465.3125
2969.01186	20456.7125
2971.45984	20447.5125
2973.90632	20476.4125
2976.35131	20406.3125
2978.7948	20356.1125
2981.23681	20315.7125
2983.67732	20296.4125
2986.11635	20259.9125
2988.55388	20221.1125
2990.98993	20181.0125
2993.4245	20125.8125
2995.85758	20119.4125
2998.28917	20082.9125
3000.71928	20056.8125
3003.14791	19982.5125
3005.57506	19942.5125
3008.00073	19889.7125
3010.42493	19880.7125
3012.84764	19813.8125
3015.26888	19836.6125
3017.68865	19765.9125
3020.10694	19715.1125
3022.52376	19623.4125
3024.9391	19619.8125
