Data from AgNPs_UA_0uM_CRN_0uM_R6G_10uM_Q_RamanShift__8__11-27-48-754.txt Node

Date: Wed Jul 13 11:27:48 BST 2022
User: TCL
Spectrometer: QEP01345
Trigger mode: 4
Integration Time (sec): 7.000000E0
Scans to average: 10
Electric dark correction enabled: true
Nonlinearity correction enabled: false
Boxcar width: 0
XAxis mode: Raman Shifts
Number of Pixels in Spectrum: 1044
>>>>>Begin Spectral Data<<<<<
46.04893	1.7375
50.45542	-0.9625
54.85868	-2.0625
59.25871	-0.4625
63.6555	49.7375
68.04907	56.2375
72.43941	58.0375
76.82654	62.2375
81.21044	66.3375
85.59113	70.3375
89.96862	72.7375
94.34289	74.0375
98.71396	72.9375
103.08183	78.6375
107.4465	82.0375
111.80798	82.1375
116.16626	82.7375
120.52136	83.4375
124.87327	87.9375
129.222	89.2375
133.56755	90.4375
137.90993	100.9375
142.24913	106.3375
146.58517	116.8375
150.91804	129.9375
155.24774	151.4375
159.57429	177.7375
163.89768	225.1375
168.21792	295.1375
172.53501	398.0375
176.84895	552.8375
181.15975	773.8375
185.46741	1081.6375
189.77193	1489.7375
194.07331	1983.8375
198.37157	2576.7375
202.6667	3181.8375
206.9587	3780.4375
211.24758	4420.2375
215.53334	5055.7375
219.81599	5781.2375
224.09553	6587.8375
228.37195	7434.7375
232.64527	8312.9375
236.91549	9090.4375
241.18261	9793.8375
245.44663	10313.1375
249.70755	10734.8375
253.96539	11120.8375
258.22014	11501.6375
262.4718	11827.4375
266.72039	12020.4375
270.96589	12037.2375
275.20832	11841.8375
279.44768	11578.3375
283.68397	11296.0375
287.91719	11114.5375
292.14735	11129.3375
296.37445	11469.3375
300.59849	12055.1375
304.81948	12839.3375
309.03742	13559.6375
313.25231	13919.3375
317.46415	13541.6375
321.67296	12536.6375
325.87872	11531.1375
330.08145	10946.8375
334.28114	10831.2375
338.47781	11017.0375
342.67145	11433.1375
346.86207	12052.1375
351.04966	12961.9375
355.23424	13788.2375
359.4158	14190.8375
363.59435	14150.5375
367.76989	13875.4375
371.94243	13558.7375
376.11196	13283.4375
380.27849	13105.0375
384.44203	12894.1375
388.60257	12779.2375
392.76012	12810.2375
396.91468	13031.6375
401.06626	13390.1375
405.21485	13487.6375
409.36047	13033.7375
413.50311	12180.5375
417.64277	11474.2375
421.77947	11063.2375
425.9132	10898.9375
430.04396	10831.0375
434.17176	10825.6375
438.2966	10962.6375
442.41849	11261.1375
446.53742	11585.7375
450.6534	11851.0375
454.76644	11930.0375
458.87653	11880.8375
462.98368	11724.7375
467.08789	11529.7375
471.18916	11230.4375
475.2875	10851.3375
479.38291	10515.5375
483.4754	10320.5375
487.56496	10189.2375
491.6516	10124.8375
495.73531	10129.7375
499.81612	10205.6375
503.89401	10361.4375
507.96899	10581.2375
512.04106	10807.0375
516.11023	11021.8375
520.1765	11200.2375
524.23987	11236.1375
528.30034	11214.0375
532.35792	11074.6375
536.41261	10877.9375
540.46441	10585.3375
544.51333	10416.4375
548.55936	10448.7375
552.60252	10696.2375
556.64279	11050.1375
560.6802	11329.8375
564.71473	11747.9375
568.7464	12368.2375
572.7752	12449.1375
576.80114	11812.7375
580.82422	11225.4375
584.84444	11166.5375
588.86181	11388.6375
592.87633	11751.3375
596.888	12039.4375
600.89682	12408.6375
604.9028	14305.3375
608.90594	19689.0375
612.90624	25865.7375
616.90371	23463.9375
620.89834	15219.5375
624.89015	11558.6375
628.87913	11050.4375
632.86528	11419.1375
636.84862	11629.7375
640.82913	11112.9375
644.80683	10320.9375
648.78172	9923.1375
652.75379	10052.5375
656.72306	10671.8375
660.68952	11293.4375
664.65319	10948.2375
668.61405	10211.3375
672.57211	9907.6375
676.52738	9937.2375
680.47986	9866.8375
684.42955	9709.3375
688.37646	9588.2375
692.32058	9643.4375
696.26192	9784.1375
700.20048	9986.1375
704.13626	10064.4375
708.06928	9999.1375
711.99952	9889.8375
715.927	9917.6375
719.85171	10005.1375
723.77365	10088.5375
727.69284	10001.1375
731.60928	9876.7375
735.52295	9892.4375
739.43388	9943.1375
743.34206	9980.4375
747.24749	9999.0375
751.15017	10016.1375
755.05012	10228.5375
758.94733	11092.6375
762.8418	13187.7375
766.73354	16274.8375
770.62254	18707.0375
774.50882	19011.6375
778.39237	17539.0375
782.27321	15089.0375
786.15132	12580.9375
790.02671	11000.9375
793.89938	10270.3375
797.76935	9936.3375
801.6366	9780.2375
805.50115	9700.1375
809.36299	9580.7375
813.22213	9534.5375
817.07857	9509.9375
820.93231	9496.1375
824.78336	9546.3375
828.63172	9604.7375
832.47738	9624.7375
836.32036	9522.8375
840.16066	9449.0375
843.99827	9367.6375
847.8332	9344.2375
851.66546	9364.7375
855.49504	9359.0375
859.32195	9352.3375
863.1462	9307.8375
866.96777	9279.7375
870.78668	9286.1375
874.60293	9344.2375
878.41652	9404.0375
882.22745	9515.1375
886.03573	9612.2375
889.84136	9616.2375
893.64433	9562.6375
897.44466	9573.8375
901.24235	9567.4375
905.0374	9533.6375
908.8298	9449.5375
912.61957	9411.5375
916.40671	9413.5375
920.19121	9502.6375
923.97308	9676.3375
927.75233	9933.0375
931.52895	10161.7375
935.30295	9958.6375
939.07433	9486.0375
942.84309	9127.3375
946.60924	8904.5375
950.37278	8803.2375
954.13371	8773.4375
957.89203	8723.3375
961.64774	8681.5375
965.40086	8648.4375
969.15137	8616.3375
972.89929	8565.3375
976.64461	8550.6375
980.38733	8538.7375
984.12747	8529.9375
987.86502	8542.8375
991.59999	8622.3375
995.33237	8667.1375
999.06217	8853.9375
1002.78939	9098.2375
1006.51404	9397.1375
1010.23611	9664.8375
1013.95561	9680.8375
1017.67255	9600.9375
1021.38692	9445.9375
1025.09872	9188.6375
1028.80796	9009.8375
1032.51465	8999.8375
1036.21877	9027.6375
1039.92035	9078.3375
1043.61937	9093.3375
1047.31584	9131.5375
1051.00976	9154.1375
1054.70114	9172.2375
1058.38998	9141.7375
1062.07627	9143.3375
1065.76003	9197.4375
1069.44126	9251.1375
1073.11995	9451.3375
1076.79611	9742.8375
1080.46974	10087.0375
1084.14085	10577.9375
1087.80943	11081.7375
1091.47549	11166.0375
1095.13903	10727.4375
1098.80005	10225.7375
1102.45857	9953.9375
1106.11456	9853.3375
1109.76805	9868.8375
1113.41903	10111.7375
1117.06751	10571.6375
1120.71348	11216.3375
1124.35696	12062.3375
1127.99793	12770.0375
1131.63641	12515.4375
1135.2724	11515.3375
1138.90589	10713.7375
1142.5369	10252.1375
1146.16542	9946.4375
1149.79145	9774.4375
1153.415	9725.3375
1157.03607	9817.6375
1160.65467	10084.5375
1164.27079	10556.6375
1167.88443	11346.1375
1171.49561	12531.5375
1175.10432	14524.7375
1178.71056	17113.8375
1182.31434	19062.1375
1185.91565	19298.1375
1189.51451	18287.8375
1193.11091	16797.6375
1196.70485	15385.7375
1200.29634	14340.4375
1203.88538	13411.7375
1207.47197	12376.4375
1211.05612	11474.5375
1214.63782	10858.0375
1218.21708	10563.3375
1221.79391	10481.6375
1225.36829	10537.9375
1228.94024	10534.1375
1232.50976	10444.8375
1236.07685	10391.7375
1239.6415	10363.3375
1243.20374	10422.2375
1246.76355	10540.1375
1250.32093	10661.5375
1253.8759	10925.3375
1257.42845	11432.6375
1260.97859	12072.5375
1264.52631	12751.0375
1268.07163	13320.0375
1271.61453	13679.1375
1275.15503	13787.7375
1278.69312	13723.3375
1282.22882	13776.4375
1285.76211	14225.0375
1289.29301	15023.3375
1292.82151	15815.3375
1296.34761	16553.7375
1299.87133	17667.2375
1303.39266	19612.2375
1306.9116	22765.6375
1310.42815	26504.8375
1313.94233	28381.6375
1317.45412	26879.4375
1320.96354	23584.5375
1324.47058	20389.4375
1327.97525	17874.7375
1331.47754	16295.2375
1334.97747	15520.7375
1338.47502	15432.9375
1341.97022	16057.8375
1345.46305	17596.4375
1348.95352	19826.1375
1352.44163	22267.1375
1355.92738	25356.6375
1359.41078	30086.2375
1362.89183	35016.2375
1366.37053	34239.7375
1369.84688	27356.0375
1373.32088	20448.5375
1376.79254	16648.5375
1380.26186	14919.7375
1383.72883	13919.2375
1387.19347	13037.9375
1390.65578	12294.1375
1394.11575	11782.3375
1397.57339	11549.7375
1401.0287	11454.0375
1404.48168	11373.8375
1407.93234	11347.0375
1411.38068	11347.2375
1414.82669	11403.2375
1418.27039	11512.7375
1421.71177	11473.4375
1425.15083	11311.8375
1428.58758	11240.0375
1432.02203	11498.9375
1435.45416	11850.2375
1438.88399	11977.4375
1442.31151	11859.5375
1445.73673	11790.5375
1449.15965	11726.7375
1452.58027	11591.1375
1455.9986	11409.4375
1459.41463	11315.7375
1462.82837	11415.4375
1466.23982	11677.4375
1469.64898	11995.4375
1473.05586	12225.3375
1476.46045	12354.0375
1479.86276	12538.1375
1483.26279	12863.1375
1486.66054	13384.8375
1490.05602	14172.9375
1493.44922	15349.4375
1496.84016	17151.1375
1500.22882	19864.9375
1503.61521	23680.2375
1506.99934	28351.7375
1510.38121	32523.4375
1513.76081	33965.4375
1517.13816	31204.9375
1520.51324	25844.0375
1523.88607	20790.7375
1527.25665	17375.3375
1530.62498	15384.9375
1533.99105	14181.7375
1537.35488	13351.8375
1540.71647	12702.7375
1544.07581	12299.5375
1547.4329	12061.9375
1550.78776	12012.2375
1554.14038	12126.5375
1557.49077	12408.6375
1560.83892	12965.9375
1564.18484	13829.1375
1567.52853	14841.7375
1570.86999	15623.1375
1574.20922	15991.2375
1577.54624	15761.4375
1580.88103	14554.6375
1584.2136	12957.8375
1587.54395	12003.4375
1590.87208	11933.2375
1594.19801	12651.1375
1597.52172	13685.0375
1600.84321	13917.0375
1604.16251	13165.2375
1607.47959	12209.3375
1610.79447	11286.7375
1614.10715	10439.8375
1617.41763	9664.2375
1620.7259	9178.6375
1624.03199	8964.9375
1627.33587	9065.8375
1630.63757	9434.3375
1633.93707	10196.6375
1637.23439	11592.1375
1640.52951	13834.7375
1643.82246	17060.9375
1647.11321	20750.9375
1650.40179	23260.3375
1653.68819	22455.3375
1656.97241	18549.0375
1660.25446	14192.8375
1663.53433	11135.2375
1666.81203	9358.0375
1670.08756	8394.2375
1673.36092	7825.9375
1676.63211	7488.4375
1679.90115	7263.6375
1683.16801	7089.7375
1686.43272	6960.1375
1689.69527	6853.1375
1692.95567	6793.9375
1696.2139	6710.6375
1699.46999	6685.3375
1702.72392	6653.2375
1705.97571	6632.4375
1709.22535	6645.0375
1712.47284	6646.6375
1715.71819	6652.8375
1718.96139	6646.4375
1722.20246	6633.0375
1725.44139	6568.0375
1728.67818	6499.2375
1731.91284	6433.1375
1735.14537	6368.7375
1738.37576	6331.9375
1741.60403	6294.3375
1744.83017	6249.5375
1748.05418	6224.3375
1751.27607	6188.6375
1754.49584	6151.8375
1757.71349	6129.2375
1760.92903	6103.1375
1764.14244	6093.6375
1767.35375	6076.2375
1770.56294	6040.9375
1773.77002	6005.0375
1776.97499	5996.2375
1780.17785	5975.2375
1783.37861	5940.0375
1786.57727	5922.8375
1789.77382	5890.9375
1792.96828	5887.6375
1796.16064	5874.5375
1799.3509	5864.8375
1802.53907	5836.4375
1805.72514	5807.1375
1808.90913	5792.0375
1812.09102	5750.2375
1815.27083	5721.6375
1818.44856	5707.7375
1821.6242	5691.0375
1824.79776	5668.3375
1827.96924	5640.3375
1831.13864	5630.3375
1834.30597	5631.3375
1837.47122	5619.2375
1840.6344	5594.0375
1843.7955	5581.7375
1846.95454	5570.8375
1850.11151	5541.5375
1853.26642	5520.5375
1856.41926	5521.5375
1859.57004	5503.1375
1862.71876	5482.1375
1865.86542	5479.0375
1869.01003	5483.0375
1872.15258	5454.4375
1875.29308	5454.2375
1878.43152	5430.5375
1881.56792	5429.5375
1884.70227	5420.1375
1887.83457	5385.1375
1890.96482	5378.2375
1894.09304	5365.1375
1897.21921	5352.9375
1900.34335	5330.5375
1903.46544	5331.3375
1906.58551	5314.1375
1909.70353	5308.8375
1912.81953	5297.5375
1915.93349	5300.8375
1919.04543	5279.1375
1922.15534	5258.2375
1925.26322	5251.2375
1928.36908	5217.2375
1931.47292	5189.4375
1934.57473	5168.0375
1937.67453	5109.4375
1940.77232	5103.2375
1943.86808	5081.7375
1946.96184	5051.0375
1950.05358	5037.2375
1953.14331	5029.9375
1956.23103	5003.0375
1959.31675	4993.8375
1962.40046	4981.3375
1965.48217	4968.4375
1968.56188	4953.4375
1971.63959	4952.1375
1974.7153	4951.0375
1977.78901	4928.7375
1980.86073	4897.8375
1983.93046	4873.6375
1986.99819	4838.0375
1990.06394	4816.1375
1993.1277	4785.2375
1996.18947	4747.2375
1999.24925	4754.1375
2002.30706	4717.3375
2005.36288	4693.8375
2008.41672	4685.3375
2011.46859	4668.7375
2014.51848	4651.0375
2017.56639	4619.6375
2020.61233	4618.9375
2023.6563	4605.9375
2026.6983	4571.6375
2029.73833	4560.4375
2032.7764	4534.7375
2035.8125	4554.0375
2038.84664	4528.6375
2041.87881	4521.9375
2044.90903	4495.3375
2047.93729	4493.9375
2050.96359	4479.0375
2053.98794	4464.6375
2057.01034	4450.4375
2060.03078	4448.2375
2063.04927	4438.6375
2066.06582	4433.1375
2069.08042	4425.6375
2072.09307	4405.7375
2075.10378	4403.3375
2078.11255	4402.9375
2081.11938	4405.0375
2084.12426	4401.8375
2087.12722	4393.3375
2090.12824	4392.0375
2093.12732	4408.4375
2096.12447	4404.5375
2099.11969	4389.0375
2102.11299	4389.8375
2105.10435	4396.2375
2108.09379	4376.6375
2111.08131	4401.1375
2114.0669	4391.0375
2117.05057	4404.0375
2120.03233	4409.0375
2123.01216	4421.2375
2125.99008	4430.6375
2128.96609	4424.6375
2131.94018	4391.6375
2134.91236	4416.9375
2137.88263	4409.9375
2140.851	4407.0375
2143.81746	4379.0375
2146.78201	4349.0375
2149.74466	4352.5375
2152.7054	4332.9375
2155.66425	4326.3375
2158.6212	4307.4375
2161.57625	4302.4375
2164.52941	4293.4375
2167.48067	4301.9375
2170.43004	4281.7375
2173.37752	4292.0375
2176.32311	4286.8375
2179.26681	4286.6375
2182.20863	4290.1375
2185.14856	4270.0375
2188.08661	4276.2375
2191.02278	4266.7375
2193.95707	4264.5375
2196.88948	4253.7375
2199.82001	4233.4375
2202.74867	4217.8375
2205.67545	4206.1375
2208.60037	4212.3375
2211.52341	4195.5375
2214.44458	4185.5375
2217.36388	4167.0375
2220.28132	4175.4375
2223.1969	4149.2375
2226.11061	4136.0375
2229.02246	4130.9375
2231.93245	4106.2375
2234.84058	4096.6375
2237.74686	4082.5375
2240.65128	4087.0375
2243.55385	4094.0375
2246.45456	4077.7375
2249.35343	4081.3375
2252.25044	4088.7375
2255.14561	4081.1375
2258.03893	4095.5375
2260.93041	4094.0375
2263.82004	4090.2375
2266.70783	4061.0375
2269.59378	4056.0375
2272.4779	4052.0375
2275.36017	4040.2375
2278.24061	4018.9375
2281.11922	4020.9375
2283.996	3990.2375
2286.87094	3985.4375
2289.74405	3958.2375
2292.61534	3946.6375
2295.4848	3946.9375
2298.35243	3932.4375
2301.21824	3923.0375
2304.08223	3914.8375
2306.94439	3916.5375
2309.80474	3905.4375
2312.66327	3914.7375
2315.51999	3906.2375
2318.37489	3884.1375
2321.22797	3884.2375
2324.07925	3872.6375
2326.92871	3868.0375
2329.77637	3860.9375
2332.62222	3847.6375
2335.46626	3835.5375
2338.3085	3826.4375
2341.14893	3834.0375
2343.98756	3827.3375
2346.8244	3828.1375
2349.65943	3844.1375
2352.49267	3854.0375
2355.32411	3871.9375
2358.15376	3876.1375
2360.98161	3874.7375
2363.80768	3881.0375
2366.63195	3866.1375
2369.45444	3891.8375
2372.27514	3890.4375
2375.09405	3879.3375
2377.91118	3863.0375
2380.72652	3834.0375
2383.54009	3808.6375
2386.35187	3799.0375
2389.16188	3787.0375
2391.97011	3758.1375
2394.77657	3736.2375
2397.58125	3735.9375
2400.38416	3695.6375
2403.18529	3701.7375
2405.98466	3697.4375
2408.78226	3678.7375
2411.57809	3668.2375
2414.37216	3667.7375
2417.16446	3672.2375
2419.955	3650.8375
2422.74378	3657.0375
2425.5308	3666.9375
2428.31606	3669.6375
2431.09956	3664.3375
2433.88131	3657.0375
2436.6613	3655.6375
2439.43954	3641.8375
2442.21603	3658.2375
2444.99077	3661.5375
2447.76377	3667.8375
2450.53501	3668.7375
2453.30451	3681.8375
2456.07226	3654.4375
2458.83827	3662.1375
2461.60254	3655.9375
2464.36507	3652.5375
2467.12586	3661.6375
2469.88492	3635.2375
2472.64224	3641.9375
2475.39782	3641.3375
2478.15167	3660.8375
2480.90379	3644.7375
2483.65417	3665.7375
2486.40283	3669.6375
2489.14976	3680.5375
2491.89497	3686.0375
2494.63845	3668.7375
2497.3802	3675.3375
2500.12024	3653.1375
2502.85855	3648.6375
2505.59514	3638.0375
2508.33002	3617.7375
2511.06318	3604.2375
2513.79462	3564.3375
2516.52435	3541.5375
2519.25237	3536.7375
2521.97867	3512.5375
2524.70327	3502.5375
2527.42616	3481.0375
2530.14734	3479.8375
2532.86681	3479.3375
2535.58458	3464.7375
2538.30065	3464.6375
2541.01501	3473.2375
2543.72768	3466.1375
2546.43864	3466.7375
2549.14791	3456.5375
2551.85548	3460.4375
2554.56136	3469.5375
2557.26554	3472.7375
2559.96803	3456.3375
2562.66883	3457.9375
2565.36794	3458.6375
2568.06536	3447.5375
2570.7611	3424.2375
2573.45514	3428.7375
2576.14751	3408.2375
2578.83819	3406.4375
2581.52719	3398.9375
2584.21451	3382.3375
2586.90015	3379.6375
2589.58411	3368.4375
2592.2664	3364.1375
2594.94701	3358.5375
2597.62594	3346.8375
2600.30321	3362.0375
2602.9788	3344.2375
2605.65273	3343.9375
2608.32498	3337.4375
2610.99557	3333.4375
2613.66449	3325.3375
2616.33175	3334.1375
2618.99734	3328.2375
2621.66128	3330.6375
2624.32355	3324.6375
2626.98416	3320.2375
2629.64311	3302.3375
2632.30041	3290.7375
2634.95605	3279.3375
2637.61004	3275.0375
2640.26238	3255.3375
2642.91306	3250.2375
2645.56209	3239.7375
2648.20948	3222.9375
2650.85521	3242.1375
2653.4993	3235.0375
2656.14175	3238.9375
2658.78255	3257.8375
2661.42171	3250.6375
2664.05923	3260.6375
2666.6951	3256.6375
2669.32934	3263.3375
2671.96194	3247.0375
2674.59291	3277.3375
2677.22224	3266.8375
2679.84993	3263.0375
2682.476	3271.7375
2685.10043	3268.6375
2687.72324	3249.3375
2690.34441	3232.5375
2692.96396	3236.9375
2695.58188	3222.2375
2698.19818	3233.2375
2700.81285	3232.7375
2703.4259	3225.1375
2706.03733	3199.2375
2708.64714	3217.1375
2711.25533	3216.5375
2713.86191	3234.0375
2716.46687	3236.1375
2719.07021	3242.1375
2721.67194	3220.9375
2724.27206	3234.1375
2726.87057	3235.1375
2729.46747	3225.0375
2732.06276	3219.9375
2734.65644	3220.8375
2737.24852	3201.1375
2739.83899	3205.3375
2742.42786	3203.2375
2745.01513	3177.8375
2747.60079	3183.0375
2750.18486	3171.7375
2752.76733	3166.0375
2755.3482	3156.1375
2757.92747	3158.7375
2760.50515	3129.5375
2763.08123	3132.6375
2765.65573	3125.2375
2768.22863	3115.2375
2770.79994	3107.2375
2773.36967	3126.5375
2775.9378	3111.2375
2778.50435	3117.2375
2781.06932	3105.4375
2783.6327	3107.0375
2786.1945	3102.9375
2788.75471	3086.8375
2791.31335	3094.4375
2793.87041	3095.1375
2796.42589	3084.6375
2798.97979	3082.7375
2801.53212	3072.8375
2804.08288	3076.8375
2806.63206	3065.9375
2809.17967	3070.8375
2811.72571	3070.6375
2814.27018	3058.7375
2816.81308	3074.6375
2819.35442	3072.0375
2821.89419	3063.2375
2824.43239	3082.7375
2826.96904	3080.9375
2829.50412	3070.1375
2832.03763	3056.5375
2834.56959	3068.6375
2837.1	3048.8375
2839.62884	3054.5375
2842.15613	3056.1375
2844.68186	3058.5375
2847.20604	3058.3375
2849.72867	3064.6375
2852.24974	3059.6375
2854.76927	3068.5375
2857.28724	3063.0375
2859.80367	3073.7375
2862.31855	3082.9375
2864.83189	3066.8375
2867.34368	3086.3375
2869.85393	3088.0375
2872.36264	3089.1375
2874.8698	3093.0375
2877.37543	3078.9375
2879.87952	3071.8375
2882.38207	3062.9375
2884.88308	3058.5375
2887.38256	3053.3375
2889.88051	3040.1375
2892.37692	3035.2375
2894.8718	3037.2375
2897.36515	3047.9375
2899.85698	3041.6375
2902.34727	3054.2375
2904.83604	3065.6375
2907.32328	3062.1375
2909.809	3064.0375
2912.29319	3077.1375
2914.77587	3093.8375
2917.25702	3108.9375
2919.73665	3096.2375
2922.21476	3091.5375
2924.69136	3061.1375
2927.16644	3055.5375
2929.64	3033.4375
2932.11205	3021.6375
2934.58258	3018.6375
2937.05161	3017.3375
2939.51912	2996.5375
2941.98513	2983.1375
2944.44962	2983.5375
2946.91261	2970.7375
2949.37409	2974.7375
2951.83407	2967.2375
2954.29254	2977.0375
2956.74951	2968.3375
2959.20498	2965.3375
2961.65895	2957.3375
2964.11142	2951.2375
2966.56239	2950.5375
2969.01186	2952.8375
2971.45984	2928.0375
2973.90632	2925.2375
2976.35131	2923.5375
2978.7948	2911.6375
2981.23681	2908.6375
2983.67732	2898.3375
2986.11635	2881.4375
2988.55388	2895.0375
2990.98993	2886.4375
2993.4245	2870.8375
2995.85758	2863.7375
2998.28917	2850.4375
3000.71928	2859.7375
3003.14791	2848.2375
3005.57506	2847.2375
3008.00073	2846.7375
3010.42493	2832.0375
3012.84764	2849.1375
3015.26888	2831.5375
3017.68865	2830.3375
3020.10694	2823.7375
3022.52376	2815.4375
3024.9391	2816.1375
3027.35298	2811.4375
3029.76539	2801.2375
3032.17632	2786.9375
3034.5858	2760.3375
3036.9938	2774.6375
3039.40034	2759.1375
3041.80542	2736.3375
3044.20903	2740.2375
3046.61118	2731.2375
3049.01187	2734.9375
3051.4111	2715.6375
3053.80888	2724.7375
3056.20519	2724.0375
3058.60005	2728.4375
3060.99345	2698.9375
3063.3854	2703.2375
3065.7759	2707.4375
3068.16494	2688.3375
3070.55254	2691.6375
3072.93868	2665.9375
3075.32338	2661.5375
3077.70662	2670.3375
3080.08842	2669.5375
3082.46878	2657.9375
3084.84769	2657.2375
3087.22515	2676.3375
3089.60118	2671.0375
3091.97576	2648.7375
3094.3489	2664.5375
3096.72061	2651.7375
