Data from AgNPs_UA_0uM_CRN_0uM_R6G_10uM_Q_RamanShift__15__11-35-58-763.txt Node

Date: Wed Jul 13 11:35:58 BST 2022
User: TCL
Spectrometer: QEP01345
Trigger mode: 4
Integration Time (sec): 7.000000E0
Scans to average: 10
Electric dark correction enabled: true
Nonlinearity correction enabled: false
Boxcar width: 0
XAxis mode: Raman Shifts
Number of Pixels in Spectrum: 1044
>>>>>Begin Spectral Data<<<<<
46.04893	-2.0375
50.45542	0.3625
54.85868	-0.7375
59.25871	-0.3375
63.6555	57.0625
68.04907	62.0625
72.43941	64.8625
76.82654	70.5625
81.21044	72.3625
85.59113	77.4625
89.96862	81.8625
94.34289	81.8625
98.71396	82.9625
103.08183	89.9625
107.4465	89.1625
111.80798	90.9625
116.16626	94.6625
120.52136	96.6625
124.87327	102.7625
129.222	104.0625
133.56755	103.9625
137.90993	116.9625
142.24913	117.5625
146.58517	134.5625
150.91804	147.5625
155.24774	169.6625
159.57429	210.1625
163.89768	260.9625
168.21792	345.5625
172.53501	461.4625
176.84895	648.7625
181.15975	900.1625
185.46741	1260.3625
189.77193	1728.3625
194.07331	2324.3625
198.37157	2992.5625
202.6667	3709.2625
206.9587	4442.9625
211.24758	5159.9625
215.53334	5909.0625
219.81599	6684.9625
224.09553	7543.4625
228.37195	8470.1625
232.64527	9466.1625
236.91549	10442.2625
241.18261	11392.9625
245.44663	12231.2625
249.70755	12969.9625
253.96539	13624.2625
258.22014	14203.3625
262.4718	14647.3625
266.72039	14925.8625
270.96589	14964.1625
275.20832	14890.6625
279.44768	14659.2625
283.68397	14380.1625
287.91719	14134.3625
292.14735	14031.5625
296.37445	14130.0625
300.59849	14396.7625
304.81948	14798.0625
309.03742	15129.9625
313.25231	15307.4625
317.46415	15016.5625
321.67296	14390.2625
325.87872	13763.7625
330.08145	13427.7625
334.28114	13428.0625
338.47781	13601.0625
342.67145	13918.2625
346.86207	14353.3625
351.04966	14976.8625
355.23424	15577.0625
359.4158	15905.5625
363.59435	15957.1625
367.76989	15936.3625
371.94243	15800.8625
376.11196	15714.7625
380.27849	15662.5625
384.44203	15584.5625
388.60257	15560.4625
392.76012	15704.6625
396.91468	15883.7625
401.06626	16195.2625
405.21485	16344.2625
409.36047	16087.8625
413.50311	15580.5625
417.64277	15110.3625
421.77947	14903.2625
425.9132	14841.3625
430.04396	14835.5625
434.17176	14874.2625
438.2966	14998.5625
442.41849	15219.9625
446.53742	15464.2625
450.6534	15640.0625
454.76644	15780.7625
458.87653	15852.8625
462.98368	15825.4625
467.08789	15762.4625
471.18916	15617.0625
475.2875	15390.5625
479.38291	15178.5625
483.4754	15096.4625
487.56496	15008.8625
491.6516	14987.6625
495.73531	14990.6625
499.81612	15047.6625
503.89401	15197.2625
507.96899	15357.2625
512.04106	15521.3625
516.11023	15691.1625
520.1765	15806.3625
524.23987	15849.6625
528.30034	15820.7625
532.35792	15721.4625
536.41261	15648.5625
540.46441	15454.3625
544.51333	15436.3625
548.55936	15480.4625
552.60252	15660.6625
556.64279	15899.2625
560.6802	16105.1625
564.71473	16302.3625
568.7464	16667.7625
572.7752	16754.2625
576.80114	16372.1625
580.82422	16124.4625
584.84444	16088.0625
588.86181	16130.6625
592.87633	16266.7625
596.888	16488.3625
600.89682	17014.7625
604.9028	18519.9625
608.90594	22098.0625
612.90624	26064.2625
616.90371	24411.4625
620.89834	19124.9625
624.89015	16805.2625
628.87913	16415.2625
632.86528	16611.0625
636.84862	16799.2625
640.82913	16492.4625
644.80683	15912.4625
648.78172	15643.4625
652.75379	15694.3625
656.72306	16108.3625
660.68952	16543.2625
664.65319	16381.3625
668.61405	15920.6625
672.57211	15760.8625
676.52738	15797.5625
680.47986	15744.4625
684.42955	15643.5625
688.37646	15575.7625
692.32058	15630.6625
696.26192	15764.1625
700.20048	15932.0625
704.13626	16012.2625
708.06928	15999.7625
711.99952	15890.7625
715.927	15844.4625
719.85171	15919.3625
723.77365	15981.5625
727.69284	15920.9625
731.60928	15847.3625
735.52295	15861.5625
739.43388	15914.8625
743.34206	15997.3625
747.24749	16066.7625
751.15017	16018.7625
755.05012	16188.1625
758.94733	16730.1625
762.8418	18095.5625
766.73354	20213.6625
770.62254	21774.8625
774.50882	22033.5625
778.39237	21140.4625
782.27321	19611.9625
786.15132	18004.4625
790.02671	16877.3625
793.89938	16384.4625
797.76935	16121.7625
801.6366	15974.6625
805.50115	15946.8625
809.36299	15861.5625
813.22213	15796.7625
817.07857	15804.2625
820.93231	15814.2625
824.78336	15866.4625
828.63172	15921.7625
832.47738	15960.4625
836.32036	15911.3625
840.16066	15862.3625
843.99827	15811.9625
847.8332	15826.8625
851.66546	15832.5625
855.49504	15870.7625
859.32195	15858.4625
863.1462	15909.1625
866.96777	15895.6625
870.78668	15903.7625
874.60293	15962.4625
878.41652	16040.8625
882.22745	16164.4625
886.03573	16225.6625
889.84136	16258.4625
893.64433	16244.7625
897.44466	16270.5625
901.24235	16339.6625
905.0374	16324.8625
908.8298	16321.5625
912.61957	16305.1625
916.40671	16351.3625
920.19121	16377.8625
923.97308	16502.8625
927.75233	16652.0625
931.52895	16748.1625
935.30295	16573.7625
939.07433	16236.1625
942.84309	15982.1625
946.60924	15819.2625
950.37278	15766.2625
954.13371	15692.0625
957.89203	15630.4625
961.64774	15561.1625
965.40086	15494.6625
969.15137	15469.3625
972.89929	15408.3625
976.64461	15388.4625
980.38733	15388.1625
984.12747	15376.4625
987.86502	15370.1625
991.59999	15409.9625
995.33237	15502.7625
999.06217	15560.5625
1002.78939	15773.2625
1006.51404	15981.1625
1010.23611	16146.7625
1013.95561	16192.6625
1017.67255	16144.7625
1021.38692	16026.2625
1025.09872	15925.8625
1028.80796	15768.6625
1032.51465	15730.4625
1036.21877	15764.5625
1039.92035	15774.2625
1043.61937	15877.9625
1047.31584	15922.2625
1051.00976	15972.3625
1054.70114	16006.5625
1058.38998	15973.2625
1062.07627	15952.1625
1065.76003	16011.2625
1069.44126	16077.1625
1073.11995	16240.0625
1076.79611	16501.5625
1080.46974	16750.8625
1084.14085	17080.7625
1087.80943	17376.1625
1091.47549	17424.7625
1095.13903	17129.4625
1098.80005	16815.9625
1102.45857	16646.4625
1106.11456	16608.6625
1109.76805	16512.5625
1113.41903	16602.1625
1117.06751	16835.0625
1120.71348	17214.8625
1124.35696	17752.6625
1127.99793	18227.6625
1131.63641	18065.7625
1135.2724	17403.4625
1138.90589	16896.9625
1142.5369	16567.5625
1146.16542	16344.3625
1149.79145	16206.1625
1153.415	16123.1625
1157.03607	16134.4625
1160.65467	16313.7625
1164.27079	16684.9625
1167.88443	17238.0625
1171.49561	18036.4625
1175.10432	19314.7625
1178.71056	21060.6625
1182.31434	22418.4625
1185.91565	22742.6625
1189.51451	22346.8625
1193.11091	21554.0625
1196.70485	20707.1625
1200.29634	19925.8625
1203.88538	19180.2625
1207.47197	18372.6625
1211.05612	17655.4625
1214.63782	17165.3625
1218.21708	16820.5625
1221.79391	16721.8625
1225.36829	16703.8625
1228.94024	16649.4625
1232.50976	16672.4625
1236.07685	16730.9625
1239.6415	16768.1625
1243.20374	16796.7625
1246.76355	16861.2625
1250.32093	16938.0625
1253.8759	17108.5625
1257.42845	17365.5625
1260.97859	17814.3625
1264.52631	18250.0625
1268.07163	18657.7625
1271.61453	18909.2625
1275.15503	19013.0625
1278.69312	19001.2625
1282.22882	19034.7625
1285.76211	19285.1625
1289.29301	19757.9625
1292.82151	20167.6625
1296.34761	20648.6625
1299.87133	21304.8625
1303.39266	22494.7625
1306.9116	24385.5625
1310.42815	26599.0625
1313.94233	27672.9625
1317.45412	26772.6625
1320.96354	24919.0625
1324.47058	23263.7625
1327.97525	21835.9625
1331.47754	20886.3625
1334.97747	20464.6625
1338.47502	20507.9625
1341.97022	21059.4625
1345.46305	22217.5625
1348.95352	23839.3625
1352.44163	25456.8625
1355.92738	27098.7625
1359.41078	29598.3625
1362.89183	32341.8625
1366.37053	31774.0625
1369.84688	27552.5625
1373.32088	23188.2625
1376.79254	20619.5625
1380.26186	19395.6625
1383.72883	18621.1625
1387.19347	17928.5625
1390.65578	17306.4625
1394.11575	16899.2625
1397.57339	16666.8625
1401.0287	16523.0625
1404.48168	16447.2625
1407.93234	16391.7625
1411.38068	16407.3625
1414.82669	16486.2625
1418.27039	16506.2625
1421.71177	16454.0625
1425.15083	16338.6625
1428.58758	16200.4625
1432.02203	16264.9625
1435.45416	16384.2625
1438.88399	16408.0625
1442.31151	16370.8625
1445.73673	16354.4625
1449.15965	16354.0625
1452.58027	16334.4625
1455.9986	16253.4625
1459.41463	16280.8625
1462.82837	16386.3625
1466.23982	16544.2625
1469.64898	16769.6625
1473.05586	16983.5625
1476.46045	17127.8625
1479.86276	17266.1625
1483.26279	17589.1625
1486.66054	18003.2625
1490.05602	18588.1625
1493.44922	19532.1625
1496.84016	20905.0625
1500.22882	22951.6625
1503.61521	25590.4625
1506.99934	28608.4625
1510.38121	30985.5625
1513.76081	31458.1625
1517.13816	29346.2625
1520.51324	25875.1625
1523.88607	22757.3625
1527.25665	20638.8625
1530.62498	19423.7625
1533.99105	18689.9625
1537.35488	18218.8625
1540.71647	17845.4625
1544.07581	17516.5625
1547.4329	17393.4625
1550.78776	17331.8625
1554.14038	17368.0625
1557.49077	17560.2625
1560.83892	17859.2625
1564.18484	18354.0625
1567.52853	19003.3625
1570.86999	19565.7625
1574.20922	19862.8625
1577.54624	19729.3625
1580.88103	18938.3625
1584.2136	17800.5625
1587.54395	17074.2625
1590.87208	16924.7625
1594.19801	17277.9625
1597.52172	17834.5625
1600.84321	17950.4625
1604.16251	17561.1625
1607.47959	17084.2625
1610.79447	16619.0625
1614.10715	16073.3625
1617.41763	15486.2625
1620.7259	15079.4625
1624.03199	14866.5625
1627.33587	14881.1625
1630.63757	15046.6625
1633.93707	15494.5625
1637.23439	16298.4625
1640.52951	17635.4625
1643.82246	19498.9625
1647.11321	21625.2625
1650.40179	23122.9625
1653.68819	22731.2625
1656.97241	20407.6625
1660.25446	17845.4625
1663.53433	15967.9625
1666.81203	14797.5625
1670.08756	14144.3625
1673.36092	13748.6625
1676.63211	13519.4625
1679.90115	13315.8625
1683.16801	13202.0625
1686.43272	13116.3625
1689.69527	13049.3625
1692.95567	12946.1625
1696.2139	12936.7625
1699.46999	12892.8625
1702.72392	12847.5625
1705.97571	12860.6625
1709.22535	12846.6625
1712.47284	12870.8625
1715.71819	12873.6625
1718.96139	12869.5625
1722.20246	12827.9625
1725.44139	12831.8625
1728.67818	12758.6625
1731.91284	12703.7625
1735.14537	12643.3625
1738.37576	12627.3625
1741.60403	12592.6625
1744.83017	12564.1625
1748.05418	12530.7625
1751.27607	12510.4625
1754.49584	12474.2625
1757.71349	12449.8625
1760.92903	12425.4625
1764.14244	12418.9625
1767.35375	12425.6625
1770.56294	12392.6625
1773.77002	12376.0625
1776.97499	12357.0625
1780.17785	12333.9625
1783.37861	12280.0625
1786.57727	12240.7625
1789.77382	12227.5625
1792.96828	12209.9625
1796.16064	12156.2625
1799.3509	12133.9625
1802.53907	12085.6625
1805.72514	12077.0625
1808.90913	12037.0625
1812.09102	11994.2625
1815.27083	11939.1625
1818.44856	11909.0625
1821.6242	11873.4625
1824.79776	11836.7625
1827.96924	11819.8625
1831.13864	11818.5625
1834.30597	11798.2625
1837.47122	11776.3625
1840.6344	11753.6625
1843.7955	11779.2625
1846.95454	11743.9625
1850.11151	11706.5625
1853.26642	11681.4625
1856.41926	11705.8625
1859.57004	11677.5625
1862.71876	11696.3625
1865.86542	11685.3625
1869.01003	11671.8625
1872.15258	11648.8625
1875.29308	11611.2625
1878.43152	11573.0625
1881.56792	11536.2625
1884.70227	11537.0625
1887.83457	11510.5625
1890.96482	11463.5625
1894.09304	11441.3625
1897.21921	11436.8625
1900.34335	11419.2625
1903.46544	11408.1625
1906.58551	11392.5625
1909.70353	11349.6625
1912.81953	11335.3625
1915.93349	11340.6625
1919.04543	11313.1625
1922.15534	11275.6625
1925.26322	11232.9625
1928.36908	11219.9625
1931.47292	11180.0625
1934.57473	11141.2625
1937.67453	11106.6625
1940.77232	11046.2625
1943.86808	11032.2625
1946.96184	10998.3625
1950.05358	10982.8625
1953.14331	10944.0625
1956.23103	10889.3625
1959.31675	10883.9625
1962.40046	10814.9625
1965.48217	10799.6625
1968.56188	10742.6625
1971.63959	10736.3625
1974.7153	10690.7625
1977.78901	10646.9625
1980.86073	10619.7625
1983.93046	10569.8625
1986.99819	10502.4625
1990.06394	10455.7625
1993.1277	10416.3625
1996.18947	10380.9625
1999.24925	10352.6625
2002.30706	10327.7625
2005.36288	10271.5625
2008.41672	10252.6625
2011.46859	10231.8625
2014.51848	10187.5625
2017.56639	10184.4625
2020.61233	10172.2625
2023.6563	10111.8625
2026.6983	10035.6625
2029.73833	10030.8625
2032.7764	9992.1625
2035.8125	9976.1625
2038.84664	9976.0625
2041.87881	9954.8625
2044.90903	9911.6625
2047.93729	9906.9625
2050.96359	9878.6625
2053.98794	9843.1625
2057.01034	9861.5625
2060.03078	9817.5625
2063.04927	9787.5625
2066.06582	9819.0625
2069.08042	9779.0625
2072.09307	9751.8625
2075.10378	9746.5625
2078.11255	9732.8625
2081.11938	9747.9625
2084.12426	9737.6625
2087.12722	9730.3625
2090.12824	9725.8625
2093.12732	9713.6625
2096.12447	9734.8625
2099.11969	9719.0625
2102.11299	9697.0625
2105.10435	9727.2625
2108.09379	9728.2625
2111.08131	9714.5625
2114.0669	9735.3625
2117.05057	9729.5625
2120.03233	9740.0625
2123.01216	9755.5625
2125.99008	9766.0625
2128.96609	9747.7625
2131.94018	9733.6625
2134.91236	9737.6625
2137.88263	9740.6625
2140.851	9728.6625
2143.81746	9722.4625
2146.78201	9715.2625
2149.74466	9701.8625
2152.7054	9688.7625
2155.66425	9697.6625
2158.6212	9677.6625
2161.57625	9674.8625
2164.52941	9661.0625
2167.48067	9669.8625
2170.43004	9644.0625
2173.37752	9631.8625
2176.32311	9632.0625
2179.26681	9668.2625
2182.20863	9658.0625
2185.14856	9631.6625
2188.08661	9617.7625
2191.02278	9607.2625
2193.95707	9615.7625
2196.88948	9585.0625
2199.82001	9548.2625
2202.74867	9545.0625
2205.67545	9520.0625
2208.60037	9503.4625
2211.52341	9496.9625
2214.44458	9466.4625
2217.36388	9440.4625
2220.28132	9434.7625
2223.1969	9390.8625
2226.11061	9383.4625
2229.02246	9357.5625
2231.93245	9356.2625
2234.84058	9305.5625
2237.74686	9282.9625
2240.65128	9322.8625
2243.55385	9277.2625
2246.45456	9254.3625
2249.35343	9256.7625
2252.25044	9248.7625
2255.14561	9238.8625
2258.03893	9232.6625
2260.93041	9201.4625
2263.82004	9186.8625
2266.70783	9164.6625
2269.59378	9135.6625
2272.4779	9135.7625
2275.36017	9082.9625
2278.24061	9066.6625
2281.11922	9043.7625
2283.996	9039.8625
2286.87094	9004.1625
2289.74405	8963.4625
2292.61534	8939.9625
2295.4848	8938.4625
2298.35243	8942.4625
2301.21824	8914.0625
2304.08223	8907.9625
2306.94439	8898.3625
2309.80474	8903.9625
2312.66327	8899.1625
2315.51999	8852.4625
2318.37489	8850.8625
2321.22797	8832.1625
2324.07925	8810.0625
2326.92871	8778.5625
2329.77637	8759.6625
2332.62222	8726.4625
2335.46626	8710.9625
2338.3085	8677.0625
2341.14893	8678.1625
2343.98756	8659.7625
2346.8244	8667.0625
2349.65943	8650.4625
2352.49267	8658.6625
2355.32411	8672.6625
2358.15376	8668.2625
2360.98161	8656.4625
2363.80768	8651.6625
2366.63195	8631.1625
2369.45444	8645.5625
2372.27514	8644.0625
2375.09405	8625.0625
2377.91118	8587.3625
2380.72652	8575.6625
2383.54009	8533.5625
2386.35187	8517.1625
2389.16188	8478.6625
2391.97011	8452.3625
2394.77657	8446.0625
2397.58125	8412.5625
2400.38416	8385.5625
2403.18529	8348.1625
2405.98466	8358.2625
2408.78226	8341.3625
2411.57809	8323.9625
2414.37216	8290.8625
2417.16446	8307.2625
2419.955	8275.0625
2422.74378	8293.6625
2425.5308	8266.8625
2428.31606	8271.5625
2431.09956	8261.0625
2433.88131	8244.0625
2436.6613	8236.5625
2439.43954	8219.4625
2442.21603	8220.3625
2444.99077	8192.9625
2447.76377	8185.8625
2450.53501	8207.8625
2453.30451	8177.7625
2456.07226	8157.4625
2458.83827	8137.6625
2461.60254	8132.9625
2464.36507	8129.5625
2467.12586	8096.8625
2469.88492	8109.5625
2472.64224	8098.5625
2475.39782	8087.9625
2478.15167	8089.8625
2480.90379	8102.1625
2483.65417	8058.5625
2486.40283	8070.2625
2489.14976	8072.6625
2491.89497	8057.0625
2494.63845	8043.4625
2497.3802	8045.4625
2500.12024	8038.7625
2502.85855	8025.7625
2505.59514	8004.3625
2508.33002	7968.8625
2511.06318	7957.6625
2513.79462	7938.9625
2516.52435	7899.3625
2519.25237	7899.6625
2521.97867	7885.2625
2524.70327	7857.5625
2527.42616	7855.3625
2530.14734	7810.0625
2532.86681	7807.2625
2535.58458	7765.3625
2538.30065	7764.0625
2541.01501	7760.9625
2543.72768	7737.1625
2546.43864	7737.8625
2549.14791	7719.3625
2551.85548	7724.2625
2554.56136	7710.2625
2557.26554	7720.1625
2559.96803	7690.5625
2562.66883	7647.2625
2565.36794	7635.7625
2568.06536	7619.9625
2570.7611	7584.8625
2573.45514	7601.6625
2576.14751	7589.4625
2578.83819	7551.7625
2581.52719	7531.3625
2584.21451	7520.0625
2586.90015	7484.9625
2589.58411	7476.8625
2592.2664	7471.2625
2594.94701	7452.6625
2597.62594	7426.1625
2600.30321	7424.9625
2602.9788	7418.1625
2605.65273	7365.9625
2608.32498	7362.6625
2610.99557	7363.7625
2613.66449	7356.2625
2616.33175	7342.9625
2618.99734	7341.7625
2621.66128	7316.2625
2624.32355	7299.6625
2626.98416	7317.5625
2629.64311	7281.7625
2632.30041	7263.9625
2634.95605	7253.6625
2637.61004	7226.6625
2640.26238	7216.0625
2642.91306	7204.4625
2645.56209	7179.3625
2648.20948	7170.5625
2650.85521	7170.9625
2653.4993	7127.4625
2656.14175	7133.1625
2658.78255	7154.1625
2661.42171	7148.8625
2664.05923	7139.0625
2666.6951	7143.8625
2669.32934	7132.5625
2671.96194	7121.7625
2674.59291	7141.6625
2677.22224	7134.7625
2679.84993	7128.6625
2682.476	7130.1625
2685.10043	7107.0625
2687.72324	7086.0625
2690.34441	7096.6625
2692.96396	7089.6625
2695.58188	7091.0625
2698.19818	7070.1625
2700.81285	7083.1625
2703.4259	7083.0625
2706.03733	7074.7625
2708.64714	7060.9625
2711.25533	7071.5625
2713.86191	7061.4625
2716.46687	7083.6625
2719.07021	7063.4625
2721.67194	7086.0625
2724.27206	7063.2625
2726.87057	7039.3625
2729.46747	7018.1625
2732.06276	7034.9625
2734.65644	7031.9625
2737.24852	7035.0625
2739.83899	7011.9625
2742.42786	6999.1625
2745.01513	6988.1625
2747.60079	6974.7625
2750.18486	6968.1625
2752.76733	6938.3625
2755.3482	6934.4625
2757.92747	6902.9625
2760.50515	6906.9625
2763.08123	6888.3625
2765.65573	6858.2625
2768.22863	6851.3625
2770.79994	6825.8625
2773.36967	6843.0625
2775.9378	6812.0625
2778.50435	6829.4625
2781.06932	6824.5625
2783.6327	6796.2625
2786.1945	6781.8625
2788.75471	6765.9625
2791.31335	6758.3625
2793.87041	6738.9625
2796.42589	6722.8625
2798.97979	6718.1625
2801.53212	6697.8625
2804.08288	6691.0625
2806.63206	6654.0625
2809.17967	6651.0625
2811.72571	6629.5625
2814.27018	6617.1625
2816.81308	6590.8625
2819.35442	6588.8625
2821.89419	6580.0625
2824.43239	6574.3625
2826.96904	6561.3625
2829.50412	6557.3625
2832.03763	6546.6625
2834.56959	6538.6625
2837.1	6527.9625
2839.62884	6529.5625
2842.15613	6522.0625
2844.68186	6513.3625
2847.20604	6534.8625
2849.72867	6522.4625
2852.24974	6507.0625
2854.76927	6494.0625
2857.28724	6499.1625
2859.80367	6482.2625
2862.31855	6486.5625
2864.83189	6471.9625
2867.34368	6459.0625
2869.85393	6461.4625
2872.36264	6450.8625
2874.8698	6434.1625
2877.37543	6431.4625
2879.87952	6407.6625
2882.38207	6416.4625
2884.88308	6383.0625
2887.38256	6390.0625
2889.88051	6357.5625
2892.37692	6369.1625
2894.8718	6386.8625
2897.36515	6377.5625
2899.85698	6370.5625
2902.34727	6387.0625
2904.83604	6385.9625
2907.32328	6398.8625
2909.809	6396.5625
2912.29319	6386.8625
2914.77587	6406.5625
2917.25702	6403.9625
2919.73665	6402.7625
2922.21476	6415.1625
2924.69136	6350.4625
2927.16644	6358.3625
2929.64	6341.7625
2932.11205	6352.8625
2934.58258	6304.6625
2937.05161	6324.6625
2939.51912	6308.5625
2941.98513	6309.0625
2944.44962	6277.5625
2946.91261	6245.0625
2949.37409	6256.0625
2951.83407	6259.0625
2954.29254	6257.5625
2956.74951	6241.9625
2959.20498	6259.9625
2961.65895	6224.6625
2964.11142	6245.3625
2966.56239	6226.0625
2969.01186	6224.3625
2971.45984	6223.5625
2973.90632	6202.8625
2976.35131	6221.6625
2978.7948	6193.8625
2981.23681	6170.7625
2983.67732	6158.3625
2986.11635	6139.9625
2988.55388	6134.3625
2990.98993	6122.1625
2993.4245	6114.6625
2995.85758	6081.5625
2998.28917	6073.4625
3000.71928	6075.1625
3003.14791	6044.0625
3005.57506	6046.2625
3008.00073	6038.8625
3010.42493	6013.4625
3012.84764	6003.1625
3015.26888	6011.1625
3017.68865	5990.9625
3020.10694	5966.2625
3022.52376	5948.4625
3024.9391	5948.4625
3027.35298	5931.4625
3029.76539	5933.3625
3032.17632	5933.6625
3034.5858	5922.2625
3036.9938	5888.2625
3039.40034	5886.5625
3041.80542	5879.8625
3044.20903	5858.9625
3046.61118	5846.4625
3049.01187	5832.9625
3051.4111	5839.8625
3053.80888	5833.1625
3056.20519	5810.2625
3058.60005	5798.0625
3060.99345	5768.4625
3063.3854	5775.1625
3065.7759	5761.7625
3068.16494	5761.2625
3070.55254	5722.0625
