Data from AgNPs_UA_1uM_CRN_0uM_R6G_10uM_Q_RamanShift__0__12-10-45-864.txt Node

Date: Wed Jul 13 12:10:45 BST 2022
User: TCL
Spectrometer: QEP01345
Trigger mode: 4
Integration Time (sec): 7.000000E0
Scans to average: 10
Electric dark correction enabled: true
Nonlinearity correction enabled: false
Boxcar width: 0
XAxis mode: Raman Shifts
Number of Pixels in Spectrum: 1044
>>>>>Begin Spectral Data<<<<<
46.04893	-1.0625
50.45542	-2.4625
54.85868	-2.4625
59.25871	0.2375
63.6555	102.9375
68.04907	110.6375
72.43941	116.7375
76.82654	120.0375
81.21044	125.1375
85.59113	130.2375
89.96862	133.0375
94.34289	141.2375
98.71396	140.1375
103.08183	147.5375
107.4465	153.1375
111.80798	150.5375
116.16626	157.7375
120.52136	164.9375
124.87327	166.6375
129.222	174.7375
133.56755	187.0375
137.90993	200.2375
142.24913	221.7375
146.58517	243.8375
150.91804	281.7375
155.24774	328.7375
159.57429	410.8375
163.89768	520.3375
168.21792	685.8375
172.53501	925.2375
176.84895	1284.5375
181.15975	1805.1375
185.46741	2540.6375
189.77193	3505.4375
194.07331	4695.5375
198.37157	6044.2375
202.6667	7478.1375
206.9587	8882.4375
211.24758	10294.5375
215.53334	11725.9375
219.81599	13226.1375
224.09553	14900.2375
228.37195	16753.5375
232.64527	18690.3375
236.91549	20771.0375
241.18261	22721.4375
245.44663	24550.0375
249.70755	26124.2375
253.96539	27521.0375
258.22014	28713.3375
262.4718	29706.6375
266.72039	30330.8375
270.96589	30592.8375
275.20832	30518.2375
279.44768	30231.3375
283.68397	29873.8375
287.91719	29589.7375
292.14735	29479.9375
296.37445	29524.2375
300.59849	29856.9375
304.81948	30358.6375
309.03742	30788.7375
313.25231	30875.8375
317.46415	30562.1375
321.67296	29852.0375
325.87872	29289.4375
330.08145	29005.9375
334.28114	29065.7375
338.47781	29425.6375
342.67145	29957.6375
346.86207	30617.1375
351.04966	31426.3375
355.23424	32268.4375
359.4158	32919.0375
363.59435	33295.2375
367.76989	33497.2375
371.94243	33580.3375
376.11196	33586.2375
380.27849	33615.4375
384.44203	33688.7375
388.60257	33799.5375
392.76012	34088.3375
396.91468	34483.6375
401.06626	35073.8375
405.21485	35374.6375
409.36047	35052.1375
413.50311	34424.1375
417.64277	33953.6375
421.77947	33823.0375
425.9132	33807.1375
430.04396	33996.2375
434.17176	34138.8375
438.2966	34412.3375
442.41849	34874.4375
446.53742	35371.5375
450.6534	35962.0375
454.76644	36351.5375
458.87653	36597.7375
462.98368	36621.2375
467.08789	36453.1375
471.18916	36172.6375
475.2875	35752.9375
479.38291	35393.7375
483.4754	35123.7375
487.56496	34997.4375
491.6516	35023.5375
495.73531	35119.0375
499.81612	35257.6375
503.89401	35477.9375
507.96899	35662.1375
512.04106	35770.1375
516.11023	35875.4375
520.1765	35912.0375
524.23987	35889.1375
528.30034	35891.6375
532.35792	35830.2375
536.41261	35549.4375
540.46441	35297.6375
544.51333	35176.8375
548.55936	35406.5375
552.60252	35811.7375
556.64279	36210.6375
560.6802	36491.5375
564.71473	36797.7375
568.7464	37201.7375
572.7752	37427.8375
576.80114	37351.1375
580.82422	37472.1375
584.84444	37818.6375
588.86181	38215.7375
592.87633	38590.8375
596.888	38887.1375
600.89682	39437.3375
604.9028	41277.8375
608.90594	45901.4375
612.90624	50367.5375
616.90371	47558.1375
620.89834	40526.8375
624.89015	37656.7375
628.87913	37274.0375
632.86528	37630.5375
636.84862	37899.5375
640.82913	37567.0375
644.80683	36916.9375
648.78172	36567.6375
652.75379	36704.3375
656.72306	37348.0375
660.68952	37994.8375
664.65319	37820.9375
668.61405	37310.7375
672.57211	37379.9375
676.52738	37619.1375
680.47986	37444.2375
684.42955	37106.4375
688.37646	36994.9375
692.32058	37283.1375
696.26192	37722.4375
700.20048	38213.8375
704.13626	38327.8375
708.06928	38289.9375
711.99952	37975.6375
715.927	37920.9375
719.85171	38031.4375
723.77365	38049.9375
727.69284	37758.3375
731.60928	37537.6375
735.52295	37450.7375
739.43388	37527.5375
743.34206	37677.7375
747.24749	37779.0375
751.15017	37918.7375
755.05012	38240.2375
758.94733	39055.9375
762.8418	40905.6375
766.73354	43633.7375
770.62254	45975.2375
774.50882	46376.4375
778.39237	45215.9375
782.27321	43085.6375
786.15132	40936.6375
790.02671	39513.3375
793.89938	38758.5375
797.76935	38426.8375
801.6366	38224.5375
805.50115	38109.3375
809.36299	37987.9375
813.22213	37906.0375
817.07857	37900.0375
820.93231	37875.4375
824.78336	37950.5375
828.63172	38026.6375
832.47738	37989.9375
836.32036	37886.5375
840.16066	37894.9375
843.99827	37928.7375
847.8332	37964.1375
851.66546	37996.8375
855.49504	38044.0375
859.32195	38102.7375
863.1462	38133.9375
866.96777	38147.3375
870.78668	38197.8375
874.60293	38291.7375
878.41652	38441.8375
882.22745	38677.8375
886.03573	38823.6375
889.84136	38866.3375
893.64433	38780.3375
897.44466	38686.2375
901.24235	38568.3375
905.0374	38439.0375
908.8298	38345.7375
912.61957	38277.9375
916.40671	38361.0375
920.19121	38483.0375
923.97308	38748.0375
927.75233	38942.9375
931.52895	39082.6375
935.30295	38798.1375
939.07433	38366.7375
942.84309	38055.7375
946.60924	38003.8375
950.37278	37988.3375
954.13371	37937.9375
957.89203	37837.7375
961.64774	37791.6375
965.40086	37804.1375
969.15137	37734.8375
972.89929	37812.0375
976.64461	37799.7375
980.38733	37869.1375
984.12747	37923.7375
987.86502	38055.7375
991.59999	38186.5375
995.33237	38289.7375
999.06217	38646.8375
1002.78939	39026.4375
1006.51404	39566.0375
1010.23611	39982.4375
1013.95561	40254.0375
1017.67255	40302.9375
1021.38692	40108.0375
1025.09872	39845.4375
1028.80796	39530.6375
1032.51465	39397.7375
1036.21877	39495.1375
1039.92035	39537.7375
1043.61937	39597.7375
1047.31584	39627.7375
1051.00976	39675.9375
1054.70114	39760.5375
1058.38998	39906.6375
1062.07627	40133.5375
1065.76003	40324.5375
1069.44126	40718.0375
1073.11995	41336.1375
1076.79611	42029.9375
1080.46974	42490.0375
1084.14085	42799.6375
1087.80943	43057.8375
1091.47549	43146.5375
1095.13903	42930.8375
1098.80005	42586.8375
1102.45857	42245.9375
1106.11456	42004.7375
1109.76805	41634.3375
1113.41903	41523.9375
1117.06751	41712.9375
1120.71348	42153.8375
1124.35696	42701.9375
1127.99793	43237.3375
1131.63641	42962.6375
1135.2724	42251.6375
1138.90589	41802.5375
1142.5369	41583.3375
1146.16542	41332.4375
1149.79145	41235.9375
1153.415	41082.6375
1157.03607	40954.2375
1160.65467	41237.7375
1164.27079	41882.8375
1167.88443	42741.7375
1171.49561	44090.2375
1175.10432	46174.4375
1178.71056	48755.3375
1182.31434	50753.9375
1185.91565	51435.7375
1189.51451	51235.4375
1193.11091	50554.8375
1196.70485	49540.6375
1200.29634	48512.2375
1203.88538	47553.7375
1207.47197	46483.1375
1211.05612	45527.8375
1214.63782	44675.8375
1218.21708	44014.1375
1221.79391	43572.8375
1225.36829	43350.2375
1228.94024	43291.8375
1232.50976	43225.9375
1236.07685	43162.9375
1239.6415	43138.4375
1243.20374	43218.5375
1246.76355	43413.7375
1250.32093	43723.4375
1253.8759	44104.3375
1257.42845	44914.1375
1260.97859	45793.8375
1264.52631	46792.6375
1268.07163	47507.9375
1271.61453	48033.3375
1275.15503	48441.2375
1278.69312	48653.2375
1282.22882	48767.2375
1285.76211	49203.9375
1289.29301	49861.5375
1292.82151	50585.3375
1296.34761	51334.9375
1299.87133	52569.0375
1303.39266	54363.2375
1306.9116	57039.3375
1310.42815	60025.0375
1313.94233	61305.5375
1317.45412	60144.3375
1320.96354	57961.8375
1324.47058	55992.4375
1327.97525	54462.6375
1331.47754	53620.3375
1334.97747	53370.6375
1338.47502	53672.1375
1341.97022	54458.8375
1345.46305	55919.9375
1348.95352	57779.1375
1352.44163	59646.5375
1355.92738	61571.5375
1359.41078	64373.9375
1362.89183	66826.8375
1366.37053	65114.6375
1369.84688	59458.3375
1373.32088	53876.6375
1376.79254	50463.8375
1380.26186	48777.3375
1383.72883	47869.8375
1387.19347	47142.0375
1390.65578	46208.9375
1394.11575	45352.4375
1397.57339	44790.5375
1401.0287	44426.7375
1404.48168	44331.2375
1407.93234	44468.0375
1411.38068	44686.4375
1414.82669	44707.6375
1418.27039	44633.0375
1421.71177	44383.5375
1425.15083	44064.6375
1428.58758	44021.6375
1432.02203	44235.4375
1435.45416	44675.5375
1438.88399	44903.7375
1442.31151	44955.9375
1445.73673	44998.1375
1449.15965	44906.6375
1452.58027	44764.3375
1455.9986	44673.0375
1459.41463	44762.2375
1462.82837	45214.0375
1466.23982	45827.5375
1469.64898	46310.0375
1473.05586	46855.0375
1476.46045	47183.9375
1479.86276	47490.5375
1483.26279	47877.4375
1486.66054	48392.1375
1490.05602	49200.9375
1493.44922	50318.7375
1496.84016	51923.5375
1500.22882	54458.0375
1503.61521	57764.2375
1506.99934	61241.9375
1510.38121	63609.5375
1513.76081	63366.6375
1517.13816	60281.1375
1520.51324	55847.6375
1523.88607	52179.8375
1527.25665	49926.5375
1530.62498	48825.5375
1533.99105	48241.2375
1537.35488	47792.0375
1540.71647	47411.4375
1544.07581	47035.7375
1547.4329	46771.0375
1550.78776	46575.6375
1554.14038	46393.4375
1557.49077	46490.2375
1560.83892	46757.3375
1564.18484	47297.3375
1567.52853	47978.4375
1570.86999	48531.1375
1574.20922	48899.8375
1577.54624	48638.6375
1580.88103	47525.9375
1584.2136	46245.9375
1587.54395	45758.6375
1590.87208	46131.3375
1594.19801	47378.1375
1597.52172	49004.6375
1600.84321	49664.4375
1604.16251	49156.7375
1607.47959	48082.8375
1610.79447	46613.7375
1614.10715	44706.2375
1617.41763	43082.9375
1620.7259	41859.1375
1624.03199	41199.7375
1627.33587	41056.3375
1630.63757	41394.9375
1633.93707	42357.1375
1637.23439	44151.1375
1640.52951	46993.7375
1643.82246	50612.1375
1647.11321	54129.4375
1650.40179	55737.4375
1653.68819	53922.8375
1656.97241	49504.0375
1660.25446	45097.9375
1663.53433	41964.9375
1666.81203	40130.3375
1670.08756	38976.7375
1673.36092	38273.9375
1676.63211	37848.0375
1679.90115	37473.6375
1683.16801	37221.8375
1686.43272	37029.9375
1689.69527	36850.2375
1692.95567	36682.9375
1696.2139	36647.7375
1699.46999	36578.4375
1702.72392	36531.2375
1705.97571	36512.6375
1709.22535	36536.5375
1712.47284	36595.0375
1715.71819	36603.3375
1718.96139	36572.1375
1722.20246	36510.6375
1725.44139	36421.7375
1728.67818	36363.0375
1731.91284	36237.1375
1735.14537	36083.3375
1738.37576	36013.6375
1741.60403	35909.8375
1744.83017	35894.9375
1748.05418	35772.5375
1751.27607	35683.3375
1754.49584	35631.5375
1757.71349	35686.2375
1760.92903	35626.8375
1764.14244	35606.3375
1767.35375	35564.3375
1770.56294	35553.5375
1773.77002	35534.0375
1776.97499	35509.9375
1780.17785	35471.4375
1783.37861	35430.5375
1786.57727	35368.8375
1789.77382	35283.8375
1792.96828	35254.9375
1796.16064	35219.2375
1799.3509	35180.0375
1802.53907	35174.8375
1805.72514	35101.3375
1808.90913	35055.0375
1812.09102	34982.5375
1815.27083	34876.6375
1818.44856	34801.1375
1821.6242	34776.4375
1824.79776	34710.6375
1827.96924	34684.7375
1831.13864	34659.1375
1834.30597	34627.4375
1837.47122	34564.9375
1840.6344	34483.9375
1843.7955	34553.6375
1846.95454	34554.2375
1850.11151	34510.1375
1853.26642	34448.5375
1856.41926	34440.5375
1859.57004	34396.5375
1862.71876	34442.6375
1865.86542	34493.2375
1869.01003	34442.0375
1872.15258	34381.0375
1875.29308	34338.4375
1878.43152	34293.4375
1881.56792	34222.7375
1884.70227	34216.2375
1887.83457	34193.2375
1890.96482	34139.8375
1894.09304	34090.7375
1897.21921	34078.6375
1900.34335	34011.3375
1903.46544	34032.7375
1906.58551	33966.0375
1909.70353	33950.0375
1912.81953	33895.2375
1915.93349	33857.3375
1919.04543	33794.0375
1922.15534	33777.0375
1925.26322	33744.7375
1928.36908	33657.9375
1931.47292	33559.8375
1934.57473	33542.6375
1937.67453	33445.8375
1940.77232	33382.7375
1943.86808	33289.8375
1946.96184	33247.8375
1950.05358	33173.3375
1953.14331	33064.2375
1956.23103	32990.4375
1959.31675	32871.3375
1962.40046	32822.5375
1965.48217	32705.0375
1968.56188	32681.2375
1971.63959	32519.7375
1974.7153	32446.8375
1977.78901	32401.8375
1980.86073	32317.6375
1983.93046	32217.8375
1986.99819	32118.6375
1990.06394	32047.4375
1993.1277	31930.7375
1996.18947	31824.3375
1999.24925	31792.0375
2002.30706	31735.0375
2005.36288	31637.7375
2008.41672	31540.7375
2011.46859	31416.9375
2014.51848	31351.2375
2017.56639	31278.7375
2020.61233	31207.1375
2023.6563	31084.9375
2026.6983	30992.6375
2029.73833	30936.5375
2032.7764	30890.7375
2035.8125	30812.9375
2038.84664	30781.4375
2041.87881	30736.6375
2044.90903	30659.5375
2047.93729	30605.7375
2050.96359	30584.1375
2053.98794	30536.9375
2057.01034	30507.0375
2060.03078	30497.9375
2063.04927	30437.1375
2066.06582	30507.4375
2069.08042	30468.8375
2072.09307	30411.1375
2075.10378	30385.1375
2078.11255	30348.2375
2081.11938	30389.0375
2084.12426	30343.5375
2087.12722	30339.5375
2090.12824	30370.7375
2093.12732	30352.4375
2096.12447	30330.4375
2099.11969	30340.3375
2102.11299	30346.7375
2105.10435	30398.7375
2108.09379	30415.8375
2111.08131	30412.0375
2114.0669	30415.1375
2117.05057	30458.8375
2120.03233	30503.1375
2123.01216	30552.0375
2125.99008	30570.3375
2128.96609	30605.8375
2131.94018	30628.4375
2134.91236	30662.1375
2137.88263	30672.4375
2140.851	30723.7375
2143.81746	30728.3375
2146.78201	30710.8375
2149.74466	30748.8375
2152.7054	30784.5375
2155.66425	30752.4375
2158.6212	30701.3375
2161.57625	30657.8375
2164.52941	30731.7375
2167.48067	30728.7375
2170.43004	30721.8375
2173.37752	30682.5375
2176.32311	30710.0375
2179.26681	30734.7375
2182.20863	30746.3375
2185.14856	30745.4375
2188.08661	30744.1375
2191.02278	30704.3375
2193.95707	30681.9375
2196.88948	30662.5375
2199.82001	30677.5375
2202.74867	30627.6375
2205.67545	30576.7375
2208.60037	30575.6375
2211.52341	30505.7375
2214.44458	30471.1375
2217.36388	30372.4375
2220.28132	30379.2375
2223.1969	30330.1375
2226.11061	30262.7375
2229.02246	30201.3375
2231.93245	30156.4375
2234.84058	30063.7375
2237.74686	30005.2375
2240.65128	30036.6375
2243.55385	30008.3375
2246.45456	30016.1375
2249.35343	29922.7375
2252.25044	29933.1375
2255.14561	29870.6375
2258.03893	29893.2375
2260.93041	29823.7375
2263.82004	29734.1375
2266.70783	29690.9375
2269.59378	29607.2375
2272.4779	29607.9375
2275.36017	29494.8375
2278.24061	29426.0375
2281.11922	29376.9375
2283.996	29378.7375
2286.87094	29311.5375
2289.74405	29239.1375
2292.61534	29215.5375
2295.4848	29172.8375
2298.35243	29190.6375
2301.21824	29141.5375
2304.08223	29111.2375
2306.94439	29135.5375
2309.80474	29143.7375
2312.66327	29131.3375
2315.51999	29073.7375
2318.37489	29032.2375
2321.22797	28973.5375
2324.07925	28976.2375
2326.92871	28926.2375
2329.77637	28906.9375
2332.62222	28835.6375
2335.46626	28785.1375
2338.3085	28710.8375
2341.14893	28645.7375
2343.98756	28647.2375
2346.8244	28608.8375
2349.65943	28649.6375
2352.49267	28635.5375
2355.32411	28663.1375
2358.15376	28675.2375
2360.98161	28652.3375
2363.80768	28599.5375
2366.63195	28603.7375
2369.45444	28558.6375
2372.27514	28587.9375
2375.09405	28558.9375
2377.91118	28484.0375
2380.72652	28418.1375
2383.54009	28352.5375
2386.35187	28294.0375
2389.16188	28246.2375
2391.97011	28183.8375
2394.77657	28150.4375
2397.58125	28101.7375
2400.38416	28025.8375
2403.18529	27987.5375
2405.98466	27996.7375
2408.78226	27945.1375
2411.57809	27901.6375
2414.37216	27885.3375
2417.16446	27888.1375
2419.955	27813.4375
2422.74378	27844.3375
2425.5308	27821.1375
2428.31606	27807.8375
2431.09956	27828.5375
2433.88131	27760.7375
2436.6613	27774.6375
2439.43954	27741.5375
2442.21603	27685.3375
2444.99077	27678.6375
2447.76377	27705.3375
2450.53501	27614.6375
2453.30451	27608.5375
2456.07226	27583.1375
2458.83827	27580.9375
2461.60254	27529.8375
2464.36507	27463.7375
2467.12586	27474.0375
2469.88492	27451.2375
2472.64224	27468.1375
2475.39782	27413.9375
2478.15167	27436.7375
2480.90379	27359.2375
2483.65417	27433.7375
2486.40283	27386.6375
2489.14976	27339.9375
2491.89497	27353.9375
2494.63845	27388.7375
2497.3802	27336.8375
2500.12024	27361.0375
2502.85855	27310.5375
2505.59514	27266.8375
2508.33002	27263.7375
2511.06318	27219.5375
2513.79462	27127.6375
2516.52435	27099.0375
2519.25237	27081.7375
2521.97867	27036.4375
2524.70327	27021.0375
2527.42616	26981.9375
2530.14734	26944.1375
2532.86681	26907.6375
2535.58458	26941.2375
2538.30065	26935.0375
2541.01501	26899.2375
2543.72768	26818.6375
2546.43864	26789.7375
2549.14791	26767.3375
2551.85548	26742.2375
2554.56136	26675.5375
2557.26554	26622.1375
2559.96803	26591.8375
2562.66883	26554.4375
2565.36794	26478.9375
2568.06536	26419.9375
2570.7611	26396.6375
2573.45514	26375.5375
2576.14751	26390.4375
2578.83819	26343.3375
2581.52719	26282.7375
2584.21451	26232.5375
2586.90015	26195.4375
2589.58411	26127.0375
2592.2664	26103.1375
2594.94701	26003.2375
2597.62594	26026.7375
2600.30321	25922.1375
2602.9788	25912.5375
2605.65273	25852.1375
2608.32498	25855.6375
2610.99557	25837.7375
2613.66449	25795.2375
2616.33175	25794.9375
2618.99734	25781.1375
2621.66128	25761.6375
2624.32355	25712.0375
2626.98416	25633.1375
2629.64311	25629.2375
2632.30041	25653.4375
2634.95605	25608.0375
2637.61004	25507.3375
2640.26238	25435.7375
2642.91306	25408.2375
2645.56209	25376.4375
2648.20948	25351.5375
2650.85521	25344.7375
2653.4993	25370.0375
2656.14175	25375.7375
2658.78255	25385.2375
2661.42171	25386.6375
2664.05923	25403.3375
2666.6951	25386.7375
2669.32934	25369.4375
2671.96194	25336.8375
2674.59291	25360.5375
2677.22224	25392.2375
2679.84993	25450.0375
2682.476	25420.9375
2685.10043	25437.8375
2687.72324	25362.2375
2690.34441	25349.9375
2692.96396	25354.8375
2695.58188	25398.9375
2698.19818	25303.6375
2700.81285	25377.8375
2703.4259	25334.6375
2706.03733	25371.6375
2708.64714	25390.7375
2711.25533	25396.4375
2713.86191	25375.6375
2716.46687	25373.9375
2719.07021	25371.4375
2721.67194	25391.8375
2724.27206	25363.5375
2726.87057	25364.2375
2729.46747	25385.4375
2732.06276	25428.6375
2734.65644	25356.9375
2737.24852	25351.1375
2739.83899	25317.0375
2742.42786	25296.5375
2745.01513	25298.2375
2747.60079	25264.2375
2750.18486	25191.7375
2752.76733	25184.5375
2755.3482	25143.6375
2757.92747	25084.7375
2760.50515	25033.7375
2763.08123	25015.0375
2765.65573	25038.3375
2768.22863	25019.6375
2770.79994	24949.5375
2773.36967	24973.8375
2775.9378	24908.0375
2778.50435	24905.8375
2781.06932	24865.1375
2783.6327	24802.6375
2786.1945	24756.1375
2788.75471	24732.5375
2791.31335	24664.4375
2793.87041	24707.0375
2796.42589	24608.6375
2798.97979	24604.7375
2801.53212	24532.9375
2804.08288	24453.4375
2806.63206	24378.0375
2809.17967	24372.8375
2811.72571	24284.7375
2814.27018	24248.7375
2816.81308	24252.5375
2819.35442	24189.5375
2821.89419	24087.1375
2824.43239	24105.9375
2826.96904	24075.9375
2829.50412	24048.3375
2832.03763	24013.5375
2834.56959	24024.9375
2837.1	23999.2375
2839.62884	23935.8375
2842.15613	23918.6375
2844.68186	23934.2375
2847.20604	23953.8375
2849.72867	23914.1375
2852.24974	23834.8375
2854.76927	23816.2375
2857.28724	23811.2375
2859.80367	23799.3375
2862.31855	23738.9375
2864.83189	23710.4375
2867.34368	23699.2375
2869.85393	23680.9375
2872.36264	23602.0375
2874.8698	23628.3375
2877.37543	23595.7375
2879.87952	23551.7375
2882.38207	23528.7375
2884.88308	23509.2375
2887.38256	23445.7375
2889.88051	23433.8375
2892.37692	23449.0375
2894.8718	23494.8375
2897.36515	23497.1375
2899.85698	23472.1375
2902.34727	23507.4375
2904.83604	23477.6375
2907.32328	23511.2375
2909.809	23577.9375
2912.29319	23594.1375
2914.77587	23594.9375
2917.25702	23602.9375
2919.73665	23559.0375
2922.21476	23545.8375
2924.69136	23465.2375
2927.16644	23462.1375
2929.64	23458.4375
2932.11205	23450.4375
2934.58258	23345.8375
2937.05161	23390.5375
2939.51912	23396.5375
2941.98513	23372.8375
2944.44962	23342.0375
2946.91261	23250.3375
2949.37409	23296.9375
2951.83407	23264.2375
2954.29254	23293.4375
2956.74951	23250.5375
2959.20498	23239.1375
2961.65895	23226.7375
2964.11142	23276.8375
2966.56239	23277.3375
2969.01186	23258.9375
2971.45984	23275.7375
2973.90632	23214.8375
2976.35131	23189.1375
2978.7948	23121.2375
2981.23681	23096.7375
2983.67732	23080.4375
2986.11635	22999.2375
2988.55388	22959.7375
2990.98993	22928.4375
2993.4245	22870.3375
2995.85758	22823.1375
2998.28917	22780.2375
3000.71928	22734.3375
3003.14791	22699.9375
3005.57506	22662.2375
3008.00073	22586.1375
3010.42493	22567.4375
3012.84764	22531.9375
3015.26888	22475.4375
3017.68865	22437.7375
3020.10694	22441.2375
3022.52376	22395.8375
3024.9391	22379.3375
