Data from AgNPs_UA_20uM_CRN_0uM_R6G_10uM_Q_RamanShift__28__13-09-02-038.txt Node

Date: Mon Jul 18 13:09:02 BST 2022
User: TCL
Spectrometer: QEP01345
Trigger mode: 4
Integration Time (sec): 7.000000E0
Scans to average: 10
Electric dark correction enabled: true
Nonlinearity correction enabled: false
Boxcar width: 0
XAxis mode: Raman Shifts
Number of Pixels in Spectrum: 1044
>>>>>Begin Spectral Data<<<<<
46.04893	-0.975
50.45542	-1.075
54.85868	0.525
59.25871	-1.175
63.6555	107.725
68.04907	114.425
72.43941	122.625
76.82654	126.125
81.21044	129.925
85.59113	137.225
89.96862	142.725
94.34289	145.525
98.71396	148.325
103.08183	153.725
107.4465	156.925
111.80798	162.725
116.16626	166.825
120.52136	173.825
124.87327	182.225
129.222	190.125
133.56755	197.825
137.90993	219.425
142.24913	231.725
146.58517	261.925
150.91804	302.325
155.24774	366.325
159.57429	450.625
163.89768	565.925
168.21792	762.625
172.53501	1033.725
176.84895	1435.825
181.15975	2019.025
185.46741	2810.925
189.77193	3866.125
194.07331	5166.925
198.37157	6611.025
202.6667	8109.925
206.9587	9639.625
211.24758	11122.525
215.53334	12698.225
219.81599	14356.425
224.09553	16259.825
228.37195	18385.125
232.64527	20645.325
236.91549	23007.225
241.18261	25264.125
245.44663	27223.925
249.70755	28992.425
253.96539	30512.525
258.22014	31748.425
262.4718	32850.325
266.72039	33565.225
270.96589	33946.425
275.20832	33952.925
279.44768	33716.625
283.68397	33306.425
287.91719	33085.925
292.14735	33072.925
296.37445	33402.925
300.59849	34030.125
304.81948	34628.325
309.03742	34997.425
313.25231	34666.625
317.46415	33497.725
321.67296	31979.725
325.87872	30822.425
330.08145	30394.525
334.28114	30478.925
338.47781	30906.025
342.67145	31586.825
346.86207	32437.225
351.04966	33634.825
355.23424	34909.925
359.4158	35990.325
363.59435	36568.525
367.76989	36908.925
371.94243	36910.325
376.11196	36997.425
380.27849	37005.925
384.44203	36996.825
388.60257	36900.325
392.76012	36977.425
396.91468	37383.925
401.06626	38032.725
405.21485	38445.125
409.36047	37971.625
413.50311	36862.425
417.64277	36014.525
421.77947	35585.925
425.9132	35540.525
430.04396	35750.125
434.17176	36110.325
438.2966	36668.125
442.41849	37596.425
446.53742	38826.125
450.6534	40076.925
454.76644	40900.025
458.87653	40934.125
462.98368	40572.325
467.08789	39887.925
471.18916	39047.025
475.2875	38252.625
479.38291	37680.625
483.4754	37115.425
487.56496	36606.325
491.6516	36141.325
495.73531	35859.125
499.81612	35789.325
503.89401	36008.325
507.96899	36204.225
512.04106	36413.725
516.11023	36634.325
520.1765	36758.125
524.23987	36656.925
528.30034	36336.125
532.35792	35995.125
536.41261	35528.825
540.46441	35088.125
544.51333	35093.125
548.55936	35510.825
552.60252	36280.325
556.64279	37104.225
560.6802	37568.625
564.71473	37994.425
568.7464	38904.625
572.7752	39533.225
576.80114	39218.825
580.82422	38926.925
584.84444	39074.225
588.86181	39630.625
592.87633	40492.325
596.888	41184.425
600.89682	42181.625
604.9028	45603.525
608.90594	53741.125
612.90624	61038.625
616.90371	55076.625
620.89834	43099.425
624.89015	38720.925
628.87913	38214.625
632.86528	38243.425
636.84862	37912.625
640.82913	36982.425
644.80683	35679.125
648.78172	34869.225
652.75379	35031.125
656.72306	36042.325
660.68952	37077.125
664.65319	36598.425
668.61405	35570.725
672.57211	35228.825
676.52738	35218.325
680.47986	35105.225
684.42955	35008.325
688.37646	35064.625
692.32058	35200.425
696.26192	35559.125
700.20048	35923.225
704.13626	36136.425
708.06928	35953.325
711.99952	35683.125
715.927	35627.925
719.85171	35690.525
723.77365	35576.425
727.69284	35280.825
731.60928	35102.225
735.52295	35150.725
739.43388	35337.925
743.34206	35554.225
747.24749	35721.425
751.15017	36068.125
755.05012	36774.125
758.94733	38363.825
762.8418	41734.425
766.73354	46642.625
770.62254	50885.225
774.50882	51983.025
778.39237	48904.225
782.27321	43690.225
786.15132	39477.325
790.02671	37064.025
793.89938	36080.625
797.76935	35655.025
801.6366	35485.425
805.50115	35393.325
809.36299	35164.725
813.22213	34976.825
817.07857	34922.725
820.93231	34939.425
824.78336	35031.725
828.63172	35112.625
832.47738	35155.025
836.32036	35252.125
840.16066	35321.125
843.99827	35438.725
847.8332	35274.625
851.66546	35130.925
855.49504	35105.225
859.32195	34967.025
863.1462	34797.125
866.96777	34692.025
870.78668	34646.325
874.60293	34679.925
878.41652	34782.425
882.22745	34972.225
886.03573	35075.325
889.84136	35040.025
893.64433	34820.525
897.44466	34777.125
901.24235	34640.925
905.0374	34576.825
908.8298	34557.125
912.61957	34613.725
916.40671	34916.025
920.19121	35377.525
923.97308	35911.825
927.75233	36266.625
931.52895	36355.325
935.30295	35848.425
939.07433	34989.525
942.84309	34427.325
946.60924	34145.925
950.37278	33978.025
954.13371	33701.625
957.89203	33521.925
961.64774	33407.825
965.40086	33329.525
969.15137	33249.925
972.89929	33125.125
976.64461	33196.625
980.38733	33279.925
984.12747	33431.225
987.86502	33818.025
991.59999	34236.125
995.33237	35037.125
999.06217	36515.225
1002.78939	38037.925
1006.51404	38722.025
1010.23611	39054.425
1013.95561	39351.825
1017.67255	39367.525
1021.38692	39045.325
1025.09872	38981.925
1028.80796	39726.925
1032.51465	41269.225
1036.21877	42369.625
1039.92035	42239.725
1043.61937	41270.625
1047.31584	39798.925
1051.00976	38413.725
1054.70114	37714.725
1058.38998	37517.625
1062.07627	37572.725
1065.76003	37595.825
1069.44126	37770.625
1073.11995	38074.025
1076.79611	38408.525
1080.46974	38819.225
1084.14085	39390.525
1087.80943	40048.125
1091.47549	40131.625
1095.13903	39560.225
1098.80005	38646.825
1102.45857	37942.425
1106.11456	37756.925
1109.76805	38036.825
1113.41903	38702.125
1117.06751	39516.725
1120.71348	40561.125
1124.35696	41497.025
1127.99793	42088.625
1131.63641	41783.325
1135.2724	40839.325
1138.90589	39951.425
1142.5369	39412.025
1146.16542	39133.125
1149.79145	39078.925
1153.415	39391.725
1157.03607	39909.725
1160.65467	40701.725
1164.27079	42205.625
1167.88443	44366.025
1171.49561	47624.225
1175.10432	52382.225
1178.71056	58307.825
1182.31434	63168.425
1185.91565	64832.125
1189.51451	63533.725
1193.11091	60037.225
1196.70485	56310.025
1200.29634	53371.025
1203.88538	51170.525
1207.47197	48973.925
1211.05612	47258.225
1214.63782	46565.325
1218.21708	46704.725
1221.79391	46997.425
1225.36829	47088.625
1228.94024	46521.325
1232.50976	45686.425
1236.07685	45126.025
1239.6415	45050.525
1243.20374	45237.625
1246.76355	45694.225
1250.32093	46530.125
1253.8759	47693.425
1257.42845	49062.625
1260.97859	50381.325
1264.52631	51503.125
1268.07163	52748.125
1271.61453	54124.925
1275.15503	55739.925
1278.69312	57311.625
1282.22882	58572.325
1285.76211	59781.325
1289.29301	61069.925
1292.82151	62653.825
1296.34761	64928.225
1299.87133	68469.325
1303.39266	73742.825
1306.9116	80458.925
1310.42815	87108.125
1313.94233	90536.925
1317.45412	89045.425
1320.96354	84801.925
1324.47058	80329.825
1327.97525	76387.225
1331.47754	74051.625
1334.97747	73355.325
1338.47502	73872.625
1341.97022	75040.125
1345.46305	76013.325
1348.95352	77088.825
1352.44163	78878.425
1355.92738	83059.525
1359.41078	90251.925
1362.89183	95806.125
1366.37053	91823.525
1369.84688	80717.325
1373.32088	70196.025
1376.79254	63522.425
1380.26186	60232.825
1383.72883	58760.025
1387.19347	57735.825
1390.65578	56665.525
1394.11575	56243.825
1397.57339	56666.025
1401.0287	57711.625
1404.48168	58834.225
1407.93234	59665.825
1411.38068	60044.225
1414.82669	59520.625
1418.27039	57789.925
1421.71177	55801.825
1425.15083	53994.125
1428.58758	53056.525
1432.02203	53106.625
1435.45416	53858.425
1438.88399	54487.725
1442.31151	55048.325
1445.73673	55638.025
1449.15965	56201.625
1452.58027	56308.625
1455.9986	56061.525
1459.41463	56150.425
1462.82837	56818.425
1466.23982	57962.525
1469.64898	59189.625
1473.05586	60025.625
1476.46045	60526.425
1479.86276	60865.025
1483.26279	61276.325
1486.66054	61902.225
1490.05602	62928.125
1493.44922	64326.425
1496.84016	66302.825
1500.22882	69373.825
1503.61521	73954.725
1506.99934	79110.725
1510.38121	83051.125
1513.76081	83456.025
1517.13816	79543.025
1520.51324	73275.825
1523.88607	67829.425
1527.25665	64372.425
1530.62498	62553.225
1533.99105	61381.725
1537.35488	60714.425
1540.71647	60285.025
1544.07581	59794.025
1547.4329	59148.625
1550.78776	58337.025
1554.14038	57747.125
1557.49077	57542.025
1560.83892	57604.025
1564.18484	58001.125
1567.52853	58401.425
1570.86999	58840.525
1574.20922	59278.225
1577.54624	59126.825
1580.88103	57919.825
1584.2136	56870.825
1587.54395	57354.325
1590.87208	59927.825
1594.19801	64405.525
1597.52172	69127.225
1600.84321	70780.725
1604.16251	68229.025
1607.47959	63171.525
1610.79447	57540.425
1614.10715	52686.025
1617.41763	49005.325
1620.7259	46727.925
1624.03199	45749.325
1627.33587	45964.025
1630.63757	47454.625
1633.93707	50104.125
1637.23439	53993.625
1640.52951	59011.425
1643.82246	64707.325
1647.11321	69486.225
1650.40179	70769.325
1653.68819	66446.225
1656.97241	58320.925
1660.25446	50432.025
1663.53433	44777.325
1666.81203	41248.825
1670.08756	39039.925
1673.36092	37634.025
1676.63211	36730.825
1679.90115	36033.425
1683.16801	35473.425
1686.43272	35047.125
1689.69527	34779.325
1692.95567	34540.425
1696.2139	34432.225
1699.46999	34286.025
1702.72392	34234.625
1705.97571	34189.625
1709.22535	34164.325
1712.47284	34161.425
1715.71819	34171.825
1718.96139	34065.125
1722.20246	33955.625
1725.44139	33801.825
1728.67818	33624.625
1731.91284	33499.725
1735.14537	33317.125
1738.37576	33203.125
1741.60403	33123.125
1744.83017	33013.025
1748.05418	32887.325
1751.27607	32886.925
1754.49584	32819.825
1757.71349	32824.625
1760.92903	32828.525
1764.14244	32762.925
1767.35375	32729.225
1770.56294	32690.025
1773.77002	32655.225
1776.97499	32642.725
1780.17785	32559.225
1783.37861	32510.425
1786.57727	32507.425
1789.77382	32455.825
1792.96828	32406.525
1796.16064	32396.125
1799.3509	32347.425
1802.53907	32307.725
1805.72514	32178.825
1808.90913	32214.325
1812.09102	32154.725
1815.27083	32075.025
1818.44856	32040.025
1821.6242	32017.925
1824.79776	31932.025
1827.96924	31916.925
1831.13864	31883.625
1834.30597	31880.625
1837.47122	31841.725
1840.6344	31828.425
1843.7955	31770.425
1846.95454	31816.025
1850.11151	31871.825
1853.26642	31849.925
1856.41926	31839.325
1859.57004	31829.325
1862.71876	31845.325
1865.86542	31919.125
1869.01003	31890.425
1872.15258	31807.425
1875.29308	31889.925
1878.43152	31863.525
1881.56792	31847.425
1884.70227	31821.625
1887.83457	31852.925
1890.96482	31815.825
1894.09304	31838.625
1897.21921	31826.725
1900.34335	31794.225
1903.46544	31793.825
1906.58551	31771.625
1909.70353	31763.825
1912.81953	31774.625
1915.93349	31738.325
1919.04543	31694.925
1922.15534	31633.325
1925.26322	31603.325
1928.36908	31563.325
1931.47292	31523.125
1934.57473	31437.125
1937.67453	31365.225
1940.77232	31238.025
1943.86808	31136.325
1946.96184	31023.325
1950.05358	30955.925
1953.14331	30835.125
1956.23103	30730.425
1959.31675	30618.225
1962.40046	30592.225
1965.48217	30503.025
1968.56188	30431.725
1971.63959	30349.125
1974.7153	30304.725
1977.78901	30175.925
1980.86073	30124.625
1983.93046	30023.825
1986.99819	29962.725
1990.06394	29884.325
1993.1277	29767.225
1996.18947	29680.325
1999.24925	29654.925
2002.30706	29549.125
2005.36288	29503.925
2008.41672	29482.625
2011.46859	29405.325
2014.51848	29298.025
2017.56639	29266.125
2020.61233	29235.925
2023.6563	29153.825
2026.6983	29064.625
2029.73833	28982.425
2032.7764	28988.825
2035.8125	28903.425
2038.84664	28881.525
2041.87881	28866.125
2044.90903	28824.825
2047.93729	28755.225
2050.96359	28744.325
2053.98794	28736.625
2057.01034	28686.325
2060.03078	28692.525
2063.04927	28724.325
2066.06582	28690.825
2069.08042	28673.725
2072.09307	28665.825
2075.10378	28637.125
2078.11255	28628.025
2081.11938	28588.925
2084.12426	28532.925
2087.12722	28566.325
2090.12824	28554.325
2093.12732	28516.525
2096.12447	28464.025
2099.11969	28517.325
2102.11299	28551.725
2105.10435	28525.525
2108.09379	28532.925
2111.08131	28555.025
2114.0669	28580.925
2117.05057	28550.625
2120.03233	28613.425
2123.01216	28617.225
2125.99008	28658.525
2128.96609	28700.125
2131.94018	28801.425
2134.91236	28825.825
2137.88263	28821.625
2140.851	28883.925
2143.81746	28850.825
2146.78201	28857.525
2149.74466	28927.625
2152.7054	28906.725
2155.66425	28874.425
2158.6212	28866.425
2161.57625	28814.525
2164.52941	28853.825
2167.48067	28859.125
2170.43004	28893.625
2173.37752	28847.125
2176.32311	28824.825
2179.26681	28853.025
2182.20863	28838.325
2185.14856	28885.825
2188.08661	28903.825
2191.02278	28891.925
2193.95707	28889.525
2196.88948	28896.225
2199.82001	28884.025
2202.74867	28883.725
2205.67545	28910.025
2208.60037	28834.725
2211.52341	28865.425
2214.44458	28884.225
2217.36388	28896.925
2220.28132	28836.525
2223.1969	28734.225
2226.11061	28704.225
2229.02246	28569.425
2231.93245	28566.125
2234.84058	28499.025
2237.74686	28461.325
2240.65128	28417.425
2243.55385	28378.525
2246.45456	28367.125
2249.35343	28300.825
2252.25044	28268.425
2255.14561	28256.725
2258.03893	28261.225
2260.93041	28245.725
2263.82004	28169.425
2266.70783	28115.625
2269.59378	28065.525
2272.4779	27999.225
2275.36017	27991.525
2278.24061	27934.425
2281.11922	27902.525
2283.996	27901.725
2286.87094	27807.825
2289.74405	27772.625
2292.61534	27785.325
2295.4848	27791.525
2298.35243	27834.625
2301.21824	27831.725
2304.08223	27851.925
2306.94439	27861.925
2309.80474	27870.325
2312.66327	27919.625
2315.51999	27917.525
2318.37489	27985.525
2321.22797	27957.025
2324.07925	27915.825
2326.92871	27914.625
2329.77637	27958.725
2332.62222	27890.625
2335.46626	27871.025
2338.3085	27881.725
2341.14893	27893.225
2343.98756	27934.925
2346.8244	28013.125
2349.65943	28065.925
2352.49267	28073.825
2355.32411	28083.725
2358.15376	28040.425
2360.98161	27976.225
2363.80768	27960.525
2366.63195	27983.825
2369.45444	27901.125
2372.27514	27825.225
2375.09405	27772.425
2377.91118	27664.625
2380.72652	27577.025
2383.54009	27515.125
2386.35187	27467.425
2389.16188	27416.025
2391.97011	27434.825
2394.77657	27380.625
2397.58125	27317.725
2400.38416	27306.325
2403.18529	27315.425
2405.98466	27254.925
2408.78226	27157.525
2411.57809	27036.325
2414.37216	27032.425
2417.16446	26952.025
2419.955	26903.825
2422.74378	26901.425
2425.5308	26897.425
2428.31606	26856.625
2431.09956	26852.825
2433.88131	26815.925
2436.6613	26802.525
2439.43954	26822.125
2442.21603	26825.225
2444.99077	26827.725
2447.76377	26839.425
2450.53501	26776.325
2453.30451	26831.025
2456.07226	26769.025
2458.83827	26755.925
2461.60254	26771.625
2464.36507	26766.025
2467.12586	26749.025
2469.88492	26751.425
2472.64224	26783.625
2475.39782	26819.225
2478.15167	26851.025
2480.90379	26870.525
2483.65417	26966.525
2486.40283	26971.725
2489.14976	27071.425
2491.89497	27085.825
2494.63845	27098.925
2497.3802	27090.725
2500.12024	27111.225
2502.85855	27057.225
2505.59514	27008.025
2508.33002	26965.025
2511.06318	26883.125
2513.79462	26814.725
2516.52435	26772.725
2519.25237	26785.925
2521.97867	26793.125
2524.70327	26779.425
2527.42616	26727.125
2530.14734	26722.425
2532.86681	26704.825
2535.58458	26730.525
2538.30065	26768.725
2541.01501	26796.725
2543.72768	26792.825
2546.43864	26730.925
2549.14791	26701.325
2551.85548	26702.925
2554.56136	26662.325
2557.26554	26627.825
2559.96803	26597.925
2562.66883	26513.725
2565.36794	26515.425
2568.06536	26531.025
2570.7611	26460.825
2573.45514	26417.625
2576.14751	26430.725
2578.83819	26422.625
2581.52719	26447.425
2584.21451	26448.025
2586.90015	26481.425
2589.58411	26460.825
2592.2664	26425.225
2594.94701	26496.525
2597.62594	26538.425
2600.30321	26434.925
2602.9788	26447.725
2605.65273	26390.925
2608.32498	26413.825
2610.99557	26424.625
2613.66449	26449.925
2616.33175	26422.125
2618.99734	26533.025
2621.66128	26504.025
2624.32355	26511.525
2626.98416	26516.125
2629.64311	26508.725
2632.30041	26506.425
2634.95605	26457.925
2637.61004	26433.925
2640.26238	26448.125
2642.91306	26371.925
2645.56209	26317.525
2648.20948	26301.125
2650.85521	26247.025
2653.4993	26237.325
2656.14175	26270.525
2658.78255	26256.425
2661.42171	26329.625
2664.05923	26368.925
2666.6951	26405.025
2669.32934	26472.625
2671.96194	26404.325
2674.59291	26424.425
2677.22224	26382.925
2679.84993	26406.025
2682.476	26357.825
2685.10043	26397.925
2687.72324	26324.125
2690.34441	26279.825
2692.96396	26275.325
2695.58188	26321.025
2698.19818	26264.725
2700.81285	26248.225
2703.4259	26229.725
2706.03733	26245.625
2708.64714	26237.925
2711.25533	26235.225
2713.86191	26220.325
2716.46687	26315.225
2719.07021	26299.025
2721.67194	26375.125
2724.27206	26358.025
2726.87057	26398.525
2729.46747	26390.325
2732.06276	26403.525
2734.65644	26428.625
2737.24852	26420.425
2739.83899	26347.125
2742.42786	26312.525
2745.01513	26274.525
2747.60079	26311.925
2750.18486	26310.225
2752.76733	26339.025
2755.3482	26333.525
2757.92747	26294.025
2760.50515	26260.925
2763.08123	26260.025
2765.65573	26170.225
2768.22863	26266.425
2770.79994	26266.625
2773.36967	26276.425
2775.9378	26182.025
2778.50435	26169.325
2781.06932	26165.525
2783.6327	26191.425
2786.1945	26180.625
2788.75471	26162.825
2791.31335	26129.825
2793.87041	26117.525
2796.42589	26054.325
2798.97979	26096.825
2801.53212	26064.225
2804.08288	26035.725
2806.63206	25997.525
2809.17967	25964.625
2811.72571	25865.625
2814.27018	25881.925
2816.81308	25786.025
2819.35442	25774.825
2821.89419	25786.525
2824.43239	25752.425
2826.96904	25822.925
2829.50412	25830.425
2832.03763	25742.625
2834.56959	25794.525
2837.1	25718.025
2839.62884	25690.925
2842.15613	25638.825
2844.68186	25660.925
2847.20604	25587.025
2849.72867	25656.825
2852.24974	25623.425
2854.76927	25641.825
2857.28724	25633.625
2859.80367	25582.625
2862.31855	25534.825
2864.83189	25514.825
2867.34368	25478.225
2869.85393	25484.825
2872.36264	25456.825
2874.8698	25433.925
2877.37543	25464.225
2879.87952	25424.925
2882.38207	25420.525
2884.88308	25452.225
2887.38256	25480.625
2889.88051	25494.425
2892.37692	25506.125
2894.8718	25522.325
2897.36515	25511.425
2899.85698	25522.725
2902.34727	25592.825
2904.83604	25619.625
2907.32328	25655.825
2909.809	25708.525
2912.29319	25749.725
2914.77587	25719.725
2917.25702	25726.725
2919.73665	25707.625
2922.21476	25716.525
2924.69136	25691.125
2927.16644	25651.625
2929.64	25582.225
2932.11205	25516.025
2934.58258	25412.425
2937.05161	25404.825
2939.51912	25419.025
2941.98513	25419.425
2944.44962	25375.225
2946.91261	25328.725
2949.37409	25457.525
2951.83407	25388.625
2954.29254	25444.325
2956.74951	25367.325
2959.20498	25400.825
2961.65895	25342.425
2964.11142	25379.825
2966.56239	25368.825
2969.01186	25295.925
2971.45984	25202.425
2973.90632	25256.225
2976.35131	25175.125
2978.7948	25148.925
2981.23681	25129.725
2983.67732	25064.425
2986.11635	25032.625
2988.55388	24966.025
2990.98993	24907.525
2993.4245	24875.025
2995.85758	24833.025
2998.28917	24716.025
3000.71928	24658.325
3003.14791	24596.125
3005.57506	24570.525
3008.00073	24467.525
3010.42493	24490.925
3012.84764	24421.625
3015.26888	24450.225
3017.68865	24346.525
3020.10694	24312.825
3022.52376	24268.625
3024.9391	24258.425
3027.35298	24256.425
3029.76539	24274.125
3032.17632	24215.025
3034.5858	24248.925
3036.9938	24193.225
3039.40034	24120.125
3041.80542	24152.325
3044.20903	24074.125
3046.61118	24084.925
3049.01187	24044.425
3051.4111	23990.325
3053.80888	24009.625
3056.20519	23970.325
3058.60005	23942.325
3060.99345	23862.225
3063.3854	23735.625
3065.7759	23662.425
3068.16494	23638.625
3070.55254	23550.825
3072.93868	23572.425
3075.32338	23413.425
3077.70662	23366.125
3080.08842	23290.125
3082.46878	23322.225
3084.84769	23330.225
3087.22515	23372.225
3089.60118	23331.225
3091.97576	23252.825
3094.3489	23248.225
3096.72061	23217.525
3099.09087	23267.325
3101.4597	23233.125
3103.82709	23271.925
3106.19305	23228.725
3108.55757	23257.025
3110.92066	23191.125
3113.28232	23193.125
3115.64255	23140.025
3118.00134	23088.625
3120.35871	23057.925
3122.71466	23001.625
3125.06917	22973.925
3127.42226	22890.225
3129.77393	22907.325
