Data from AgNPs_UA_10uM_CRN_0uM_R6G_10uM_Q_RamanShift__23__12-15-32-652.txt Node

Date: Mon Jul 18 12:15:32 BST 2022
User: TCL
Spectrometer: QEP01345
Trigger mode: 4
Integration Time (sec): 7.000000E0
Scans to average: 10
Electric dark correction enabled: true
Nonlinearity correction enabled: false
Boxcar width: 0
XAxis mode: Raman Shifts
Number of Pixels in Spectrum: 1044
>>>>>Begin Spectral Data<<<<<
46.04893	-1.95
50.45542	0.45
54.85868	-1.75
59.25871	-1.45
63.6555	125.95
68.04907	129.25
72.43941	135.85
76.82654	141.35
81.21044	142.25
85.59113	147.05
89.96862	155.15
94.34289	159.55
98.71396	163.35
103.08183	169.85
107.4465	174.05
111.80798	174.15
116.16626	182.75
120.52136	193.95
124.87327	204.15
129.222	212.95
133.56755	224.55
137.90993	250.05
142.24913	264.45
146.58517	297.35
150.91804	354.35
155.24774	418.25
159.57429	520.85
163.89768	675.95
168.21792	893.55
172.53501	1225.15
176.84895	1701.25
181.15975	2388.15
185.46741	3331.85
189.77193	4584.45
194.07331	6098.55
198.37157	7860.15
202.6667	9648.55
206.9587	11443.65
211.24758	13210.05
215.53334	15059.05
219.81599	16969.15
224.09553	19182.05
228.37195	21639.45
232.64527	24254.25
236.91549	26997.75
241.18261	29630.45
245.44663	31962.05
249.70755	34064.05
253.96539	35933.45
258.22014	37529.75
262.4718	38826.45
266.72039	39738.05
270.96589	40220.65
275.20832	40306.15
279.44768	39967.05
283.68397	39450.75
287.91719	39146.95
292.14735	39027.55
296.37445	39186.35
300.59849	39587.55
304.81948	40064.85
309.03742	40259.55
313.25231	39932.55
317.46415	38945.65
321.67296	37630.45
325.87872	36539.25
330.08145	36153.05
334.28114	36250.95
338.47781	36655.45
342.67145	37270.15
346.86207	38075.45
351.04966	39122.35
355.23424	40415.65
359.4158	41364.25
363.59435	42006.15
367.76989	42353.55
371.94243	42626.55
376.11196	42692.65
380.27849	42872.95
384.44203	43009.75
388.60257	43000.55
392.76012	43232.45
396.91468	43707.05
401.06626	44499.35
405.21485	45008.65
409.36047	44669.35
413.50311	43774.65
417.64277	42966.15
421.77947	42754.85
425.9132	42864.85
430.04396	43121.65
434.17176	43487.45
438.2966	44212.95
442.41849	45312.65
446.53742	46747.35
450.6534	48336.45
454.76644	49387.85
458.87653	49585.55
462.98368	48993.45
467.08789	48082.75
471.18916	47036.45
475.2875	46159.55
479.38291	45462.75
483.4754	44840.05
487.56496	44276.65
491.6516	43606.55
495.73531	43116.45
499.81612	43003.15
503.89401	43159.25
507.96899	43361.25
512.04106	43438.65
516.11023	43510.95
520.1765	43517.85
524.23987	43418.25
528.30034	43139.05
532.35792	42790.65
536.41261	42211.25
540.46441	41761.85
544.51333	41767.25
548.55936	42202.05
552.60252	43237.35
556.64279	44293.85
560.6802	44823.95
564.71473	45364.45
568.7464	46264.35
572.7752	47118.25
576.80114	47192.35
580.82422	47402.95
584.84444	47950.75
588.86181	49145.75
592.87633	50641.45
596.888	51620.95
600.89682	52049.35
604.9028	54850.75
608.90594	61931.45
612.90624	67826.95
616.90371	61641.25
620.89834	50183.05
624.89015	45881.75
628.87913	45547.25
632.86528	45286.45
636.84862	44626.25
640.82913	43646.85
644.80683	42275.85
648.78172	41459.15
652.75379	41528.85
656.72306	42450.45
660.68952	43422.95
664.65319	43049.95
668.61405	42255.35
672.57211	41993.85
676.52738	42042.65
680.47986	41851.25
684.42955	41690.15
688.37646	41615.95
692.32058	41947.25
696.26192	42387.45
700.20048	42843.65
704.13626	43015.35
708.06928	42793.75
711.99952	42367.75
715.927	42340.15
719.85171	42459.45
723.77365	42227.85
727.69284	41818.05
731.60928	41578.75
735.52295	41642.55
739.43388	41836.15
743.34206	42131.55
747.24749	42326.95
751.15017	42709.95
755.05012	43437.05
758.94733	45009.75
762.8418	48187.95
766.73354	52900.25
770.62254	57068.95
774.50882	57839.75
778.39237	54749.05
782.27321	49941.15
786.15132	45933.15
790.02671	43577.65
793.89938	42513.85
797.76935	42149.85
801.6366	42110.35
805.50115	41832.45
809.36299	41489.25
813.22213	41234.25
817.07857	41179.95
820.93231	41118.65
824.78336	41187.55
828.63172	41258.45
832.47738	41268.35
836.32036	41493.05
840.16066	41787.95
843.99827	41941.75
847.8332	41745.65
851.66546	41434.85
855.49504	41397.45
859.32195	41339.15
863.1462	41158.15
866.96777	40943.95
870.78668	40794.35
874.60293	40784.85
878.41652	40890.05
882.22745	41082.45
886.03573	41158.75
889.84136	41044.95
893.64433	40829.75
897.44466	40667.85
901.24235	40567.25
905.0374	40522.45
908.8298	40412.45
912.61957	40525.75
916.40671	40939.85
920.19121	41580.35
923.97308	42311.85
927.75233	42740.05
931.52895	42859.05
935.30295	42203.75
939.07433	41262.45
942.84309	40562.15
946.60924	40269.55
950.37278	40108.25
954.13371	39892.65
957.89203	39626.05
961.64774	39542.45
965.40086	39467.35
969.15137	39353.15
972.89929	39266.65
976.64461	39272.25
980.38733	39391.75
984.12747	39733.25
987.86502	40215.15
991.59999	40834.05
995.33237	41909.25
999.06217	43801.75
1002.78939	45680.55
1006.51404	46590.45
1010.23611	46817.85
1013.95561	47091.15
1017.67255	47183.25
1021.38692	46733.75
1025.09872	46603.45
1028.80796	47723.95
1032.51465	49898.25
1036.21877	51538.85
1039.92035	51292.95
1043.61937	49893.45
1047.31584	47761.05
1051.00976	45795.05
1054.70114	44850.45
1058.38998	44590.35
1062.07627	44516.25
1065.76003	44514.85
1069.44126	44645.45
1073.11995	45103.95
1076.79611	45593.65
1080.46974	46019.75
1084.14085	46618.15
1087.80943	47281.55
1091.47549	47408.25
1095.13903	46859.05
1098.80005	45894.25
1102.45857	45126.35
1106.11456	44807.35
1109.76805	44945.65
1113.41903	45561.95
1117.06751	46252.05
1120.71348	47113.45
1124.35696	47892.65
1127.99793	48511.25
1131.63641	48411.05
1135.2724	47617.65
1138.90589	46853.65
1142.5369	46446.55
1146.16542	46222.45
1149.79145	46393.45
1153.415	46790.15
1157.03607	47511.75
1160.65467	48638.45
1164.27079	50550.85
1167.88443	53269.35
1171.49561	57192.45
1175.10432	62605.75
1178.71056	69269.95
1182.31434	74998.15
1185.91565	77446.15
1189.51451	76222.25
1193.11091	72383.15
1196.70485	68026.65
1200.29634	64528.45
1203.88538	61602.65
1207.47197	59176.25
1211.05612	57434.15
1214.63782	56696.05
1218.21708	56887.25
1221.79391	57525.65
1225.36829	57836.75
1228.94024	56987.65
1232.50976	55644.55
1236.07685	54586.05
1239.6415	54097.45
1243.20374	54095.95
1246.76355	54559.85
1250.32093	55481.75
1253.8759	57036.85
1257.42845	58802.35
1260.97859	60479.25
1264.52631	61953.75
1268.07163	63689.05
1271.61453	65595.45
1275.15503	67871.15
1278.69312	70168.75
1282.22882	71982.95
1285.76211	73643.05
1289.29301	75277.35
1292.82151	77420.55
1296.34761	80385.15
1299.87133	84803.05
1303.39266	90916.75
1306.9116	98664.95
1310.42815	106551.65
1313.94233	111046.75
1317.45412	110002.75
1320.96354	105594.15
1324.47058	100499.15
1327.97525	96188.85
1331.47754	93186.15
1334.97747	92061.15
1338.47502	92102.75
1341.97022	92623.65
1345.46305	92767.75
1348.95352	92711.45
1352.44163	93857.05
1355.92738	97445.05
1359.41078	104187.25
1362.89183	109858.65
1366.37053	106608.35
1369.84688	95327.25
1373.32088	83723.65
1376.79254	76209.85
1380.26186	72703.55
1383.72883	71306.35
1387.19347	70371.25
1390.65578	69282.55
1394.11575	69020.35
1397.57339	69894.75
1401.0287	71440.15
1404.48168	72683.25
1407.93234	73500.85
1411.38068	73459.35
1414.82669	72453.85
1418.27039	70099.15
1421.71177	67332.55
1425.15083	65146.45
1428.58758	64113.55
1432.02203	64542.55
1435.45416	65701.65
1438.88399	66958.45
1442.31151	67889.45
1445.73673	68453.05
1449.15965	69021.25
1452.58027	69204.55
1455.9986	69075.65
1459.41463	69280.95
1462.82837	70069.15
1466.23982	71542.55
1469.64898	73016.65
1473.05586	73879.45
1476.46045	74345.05
1479.86276	74484.25
1483.26279	74334.95
1486.66054	74460.05
1490.05602	75067.55
1493.44922	76118.15
1496.84016	77290.75
1500.22882	79344.45
1503.61521	82697.65
1506.99934	87010.25
1510.38121	90804.25
1513.76081	91703.35
1517.13816	88805.35
1520.51324	83543.15
1523.88607	78685.25
1527.25665	75718.45
1530.62498	74042.15
1533.99105	73137.25
1537.35488	72476.15
1540.71647	71906.25
1544.07581	71067.55
1547.4329	70032.65
1550.78776	68971.75
1554.14038	68094.65
1557.49077	67557.75
1560.83892	67303.25
1564.18484	67447.65
1567.52853	67751.15
1570.86999	68073.15
1574.20922	68775.85
1577.54624	69015.65
1580.88103	68260.25
1584.2136	67944.05
1587.54395	69263.85
1590.87208	73129.75
1594.19801	78900.75
1597.52172	84757.45
1600.84321	86911.85
1604.16251	83550.55
1607.47959	76864.35
1610.79447	69551.35
1614.10715	63080.55
1617.41763	58261.55
1620.7259	55269.75
1624.03199	53938.05
1627.33587	54269.05
1630.63757	56208.55
1633.93707	59854.15
1637.23439	65161.15
1640.52951	72047.85
1643.82246	79381.25
1647.11321	84869.05
1650.40179	85275.45
1653.68819	79110.95
1656.97241	68866.65
1660.25446	59334.65
1663.53433	52382.45
1666.81203	48067.75
1670.08756	45293.45
1673.36092	43582.25
1676.63211	42429.05
1679.90115	41606.45
1683.16801	40975.35
1686.43272	40561.15
1689.69527	40177.35
1692.95567	39934.15
1696.2139	39780.45
1699.46999	39574.55
1702.72392	39497.35
1705.97571	39423.75
1709.22535	39419.05
1712.47284	39423.35
1715.71819	39405.35
1718.96139	39322.15
1722.20246	39106.25
1725.44139	38963.95
1728.67818	38730.15
1731.91284	38502.45
1735.14537	38331.15
1738.37576	38230.25
1741.60403	38130.25
1744.83017	38005.65
1748.05418	37940.55
1751.27607	37830.95
1754.49584	37799.05
1757.71349	37780.65
1760.92903	37735.85
1764.14244	37723.05
1767.35375	37722.45
1770.56294	37674.95
1773.77002	37602.85
1776.97499	37628.75
1780.17785	37562.25
1783.37861	37487.15
1786.57727	37425.55
1789.77382	37379.25
1792.96828	37395.55
1796.16064	37299.85
1799.3509	37265.95
1802.53907	37218.35
1805.72514	37065.85
1808.90913	37011.85
1812.09102	36976.55
1815.27083	36869.85
1818.44856	36844.55
1821.6242	36821.65
1824.79776	36808.05
1827.96924	36718.55
1831.13864	36727.35
1834.30597	36743.95
1837.47122	36657.65
1840.6344	36691.45
1843.7955	36693.55
1846.95454	36661.95
1850.11151	36633.75
1853.26642	36699.65
1856.41926	36637.45
1859.57004	36723.85
1862.71876	36705.25
1865.86542	36654.25
1869.01003	36693.65
1872.15258	36729.85
1875.29308	36686.05
1878.43152	36685.65
1881.56792	36652.75
1884.70227	36669.55
1887.83457	36697.35
1890.96482	36675.85
1894.09304	36661.85
1897.21921	36636.55
1900.34335	36644.05
1903.46544	36665.15
1906.58551	36617.15
1909.70353	36584.55
1912.81953	36597.85
1915.93349	36600.95
1919.04543	36548.65
1922.15534	36520.75
1925.26322	36407.95
1928.36908	36348.15
1931.47292	36273.45
1934.57473	36194.95
1937.67453	36045.15
1940.77232	35998.95
1943.86808	35907.85
1946.96184	35815.95
1950.05358	35710.15
1953.14331	35501.15
1956.23103	35442.55
1959.31675	35396.55
1962.40046	35340.35
1965.48217	35248.25
1968.56188	35172.55
1971.63959	35109.15
1974.7153	35019.55
1977.78901	34940.95
1980.86073	34767.55
1983.93046	34696.15
1986.99819	34567.15
1990.06394	34542.65
1993.1277	34474.25
1996.18947	34357.45
1999.24925	34276.85
2002.30706	34229.05
2005.36288	34177.85
2008.41672	34124.25
2011.46859	34019.65
2014.51848	33916.15
2017.56639	33934.05
2020.61233	33834.55
2023.6563	33772.15
2026.6983	33604.75
2029.73833	33513.95
2032.7764	33484.65
2035.8125	33560.05
2038.84664	33483.45
2041.87881	33408.95
2044.90903	33379.15
2047.93729	33327.05
2050.96359	33319.05
2053.98794	33240.45
2057.01034	33236.15
2060.03078	33252.75
2063.04927	33259.55
2066.06582	33271.75
2069.08042	33200.05
2072.09307	33173.55
2075.10378	33119.45
2078.11255	33096.35
2081.11938	33104.05
2084.12426	33067.05
2087.12722	33080.45
2090.12824	33068.25
2093.12732	33071.35
2096.12447	33045.55
2099.11969	33079.45
2102.11299	33136.65
2105.10435	33124.45
2108.09379	33104.25
2111.08131	33140.35
2114.0669	33119.65
2117.05057	33119.45
2120.03233	33206.55
2123.01216	33270.95
2125.99008	33313.25
2128.96609	33367.35
2131.94018	33412.75
2134.91236	33465.05
2137.88263	33473.85
2140.851	33450.05
2143.81746	33507.55
2146.78201	33576.35
2149.74466	33635.45
2152.7054	33609.95
2155.66425	33599.85
2158.6212	33645.85
2161.57625	33588.15
2164.52941	33531.45
2167.48067	33563.25
2170.43004	33589.75
2173.37752	33537.15
2176.32311	33551.65
2179.26681	33584.25
2182.20863	33645.15
2185.14856	33704.65
2188.08661	33659.95
2191.02278	33685.75
2193.95707	33767.95
2196.88948	33747.95
2199.82001	33759.65
2202.74867	33696.55
2205.67545	33696.25
2208.60037	33691.35
2211.52341	33644.45
2214.44458	33688.65
2217.36388	33703.65
2220.28132	33692.55
2223.1969	33564.25
2226.11061	33516.95
2229.02246	33475.55
2231.93245	33409.55
2234.84058	33348.55
2237.74686	33296.15
2240.65128	33282.45
2243.55385	33234.65
2246.45456	33202.75
2249.35343	33157.05
2252.25044	33131.25
2255.14561	33063.75
2258.03893	33038.25
2260.93041	33019.25
2263.82004	32986.25
2266.70783	32950.55
2269.59378	32837.25
2272.4779	32756.65
2275.36017	32702.25
2278.24061	32709.35
2281.11922	32636.35
2283.996	32588.75
2286.87094	32537.35
2289.74405	32496.95
2292.61534	32479.55
2295.4848	32509.55
2298.35243	32625.55
2301.21824	32615.75
2304.08223	32672.75
2306.94439	32653.25
2309.80474	32727.05
2312.66327	32778.95
2315.51999	32788.45
2318.37489	32815.85
2321.22797	32836.95
2324.07925	32781.05
2326.92871	32742.15
2329.77637	32762.85
2332.62222	32816.75
2335.46626	32845.45
2338.3085	32883.75
2341.14893	32909.25
2343.98756	32922.25
2346.8244	32998.75
2349.65943	33084.55
2352.49267	33073.45
2355.32411	33027.45
2358.15376	32994.05
2360.98161	32982.85
2363.80768	32973.15
2366.63195	32913.25
2369.45444	32877.65
2372.27514	32779.95
2375.09405	32694.15
2377.91118	32660.75
2380.72652	32529.25
2383.54009	32415.25
2386.35187	32403.45
2389.16188	32366.45
2391.97011	32399.65
2394.77657	32299.65
2397.58125	32281.45
2400.38416	32256.45
2403.18529	32227.25
2405.98466	32209.35
2408.78226	32115.95
2411.57809	32040.85
2414.37216	32008.55
2417.16446	31969.85
2419.955	31927.55
2422.74378	31891.55
2425.5308	31831.75
2428.31606	31815.85
2431.09956	31820.65
2433.88131	31797.85
2436.6613	31816.75
2439.43954	31821.15
2442.21603	31856.35
2444.99077	31794.95
2447.76377	31819.55
2450.53501	31732.45
2453.30451	31756.15
2456.07226	31758.75
2458.83827	31723.15
2461.60254	31755.15
2464.36507	31706.65
2467.12586	31735.15
2469.88492	31774.25
2472.64224	31772.85
2475.39782	31789.95
2478.15167	31866.85
2480.90379	31914.85
2483.65417	32066.55
2486.40283	32098.05
2489.14976	32124.05
2491.89497	32195.65
2494.63845	32208.65
2497.3802	32195.75
2500.12024	32174.75
2502.85855	32166.75
2505.59514	32137.45
2508.33002	32085.05
2511.06318	31989.65
2513.79462	32004.55
2516.52435	31909.15
2519.25237	31924.95
2521.97867	31884.15
2524.70327	31922.05
2527.42616	31916.05
2530.14734	31919.75
2532.86681	31895.05
2535.58458	31995.95
2538.30065	31913.95
2541.01501	31972.65
2543.72768	31961.95
2546.43864	31910.15
2549.14791	31870.05
2551.85548	31832.85
2554.56136	31805.25
2557.26554	31735.95
2559.96803	31813.15
2562.66883	31742.15
2565.36794	31742.85
2568.06536	31765.75
2570.7611	31771.05
2573.45514	31807.95
2576.14751	31758.45
2578.83819	31734.35
2581.52719	31747.75
2584.21451	31729.75
2586.90015	31736.65
2589.58411	31784.25
2592.2664	31836.05
2594.94701	31817.15
2597.62594	31890.25
2600.30321	31813.35
2602.9788	31766.75
2605.65273	31743.35
2608.32498	31753.05
2610.99557	31786.05
2613.66449	31810.85
2616.33175	31803.25
2618.99734	31807.95
2621.66128	31851.75
2624.32355	31930.25
2626.98416	31942.55
2629.64311	31940.05
2632.30041	31925.15
2634.95605	31907.85
2637.61004	31843.25
2640.26238	31864.35
2642.91306	31872.55
2645.56209	31824.75
2648.20948	31799.95
2650.85521	31689.25
2653.4993	31690.35
2656.14175	31662.25
2658.78255	31781.55
2661.42171	31768.95
2664.05923	31862.55
2666.6951	31830.05
2669.32934	31882.95
2671.96194	31888.15
2674.59291	31934.35
2677.22224	31905.85
2679.84993	31918.95
2682.476	31871.05
2685.10043	31840.75
2687.72324	31742.55
2690.34441	31761.45
2692.96396	31718.65
2695.58188	31721.15
2698.19818	31614.65
2700.81285	31660.35
2703.4259	31650.45
2706.03733	31772.25
2708.64714	31739.75
2711.25533	31806.65
2713.86191	31759.65
2716.46687	31838.45
2719.07021	31771.95
2721.67194	31823.95
2724.27206	31860.75
2726.87057	31871.75
2729.46747	31886.75
2732.06276	31972.35
2734.65644	31918.15
2737.24852	31893.85
2739.83899	31844.85
2742.42786	31845.15
2745.01513	31780.95
2747.60079	31826.55
2750.18486	31851.45
2752.76733	31879.45
2755.3482	31868.85
2757.92747	31860.25
2760.50515	31824.75
2763.08123	31749.95
2765.65573	31780.05
2768.22863	31812.15
2770.79994	31769.45
2773.36967	31794.25
2775.9378	31765.95
2778.50435	31740.75
2781.06932	31748.55
2783.6327	31745.75
2786.1945	31796.45
2788.75471	31733.95
2791.31335	31672.45
2793.87041	31633.15
2796.42589	31559.65
2798.97979	31615.45
2801.53212	31527.95
2804.08288	31574.95
2806.63206	31445.75
2809.17967	31425.65
2811.72571	31382.65
2814.27018	31335.95
2816.81308	31314.95
2819.35442	31280.65
2821.89419	31254.15
2824.43239	31283.85
2826.96904	31214.85
2829.50412	31226.55
2832.03763	31181.75
2834.56959	31216.35
2837.1	31166.55
2839.62884	31222.45
2842.15613	31130.15
2844.68186	31149.25
2847.20604	31030.45
2849.72867	31037.65
2852.24974	31015.65
2854.76927	30967.15
2857.28724	30934.65
2859.80367	30988.55
2862.31855	30975.35
2864.83189	30984.05
2867.34368	30982.45
2869.85393	30983.25
2872.36264	30911.55
2874.8698	30884.35
2877.37543	30902.75
2879.87952	30929.95
2882.38207	30943.75
2884.88308	30933.45
2887.38256	30999.55
2889.88051	30981.45
2892.37692	30978.25
2894.8718	31041.75
2897.36515	31067.05
2899.85698	31020.65
2902.34727	31125.75
2904.83604	31125.75
2907.32328	31223.55
2909.809	31230.95
2912.29319	31297.55
2914.77587	31263.65
2917.25702	31275.35
2919.73665	31228.75
2922.21476	31266.45
2924.69136	31193.45
2927.16644	31197.25
2929.64	31113.25
2932.11205	31090.05
2934.58258	30955.05
2937.05161	30994.35
2939.51912	30982.35
2941.98513	30954.75
2944.44962	30952.85
2946.91261	30829.55
2949.37409	30947.35
2951.83407	30920.25
2954.29254	30972.05
2956.74951	30941.35
2959.20498	30921.55
2961.65895	30969.65
2964.11142	31047.75
2966.56239	30938.65
2969.01186	30873.35
2971.45984	30759.35
2973.90632	30714.45
2976.35131	30655.25
2978.7948	30560.55
2981.23681	30551.85
2983.67732	30553.75
2986.11635	30497.15
2988.55388	30397.55
2990.98993	30393.45
2993.4245	30313.85
2995.85758	30244.75
2998.28917	30191.15
3000.71928	30144.45
3003.14791	30061.25
3005.57506	30014.15
3008.00073	29957.65
3010.42493	29948.25
3012.84764	29894.45
3015.26888	29901.95
3017.68865	29823.45
3020.10694	29815.15
3022.52376	29715.15
3024.9391	29660.25
3027.35298	29610.05
3029.76539	29668.95
3032.17632	29656.85
3034.5858	29624.65
3036.9938	29655.15
3039.40034	29633.95
3041.80542	29592.85
3044.20903	29514.95
3046.61118	29561.05
3049.01187	29496.15
3051.4111	29460.15
3053.80888	29323.35
3056.20519	29353.05
3058.60005	29294.65
3060.99345	29237.05
3063.3854	29112.85
3065.7759	29004.45
3068.16494	29007.65
3070.55254	28867.55
3072.93868	28842.95
3075.32338	28775.05
3077.70662	28689.55
3080.08842	28599.15
3082.46878	28605.55
3084.84769	28579.05
3087.22515	28600.25
3089.60118	28598.05
3091.97576	28563.65
3094.3489	28591.25
3096.72061	28567.65
3099.09087	28589.55
3101.4597	28578.25
3103.82709	28598.25
3106.19305	28565.55
3108.55757	28562.15
3110.92066	28416.15
3113.28232	28454.05
3115.64255	28393.55
3118.00134	28370.95
3120.35871	28343.95
3122.71466	28279.25
3125.06917	28214.55
3127.42226	28130.65
3129.77393	28143.05
3132.12417	28106.45
3134.47299	28090.75
3136.82039	28115.55
3139.16636	28080.25
3141.51092	28044.05
3143.85406	28072.75
3146.19579	27987.35
3148.53609	28035.75
3150.87499	28086.75
3153.21246	28067.65
3155.54853	28044.45
3157.88318	28008.45
3160.21642	28110.65
3162.54826	28116.85
3164.87868	28166.05
3167.2077	28204.85
3169.5353	28152.25
3171.86151	28085.05
3174.18631	28030.35
3176.5097	28037.15
3178.83169	28035.35
3181.15228	28063.85
3183.47147	28009.25
3185.78926	27942.75
3188.10565	27940.25
3190.42065	27931.85
3192.73424	27927.25
3195.04645	27867.15
3197.35725	27904.75
3199.66667	27835.45
3201.97469	27895.55
3204.28132	27800.15
3206.58656	27933.85
3208.8904	27854.75
3211.19287	27908.65
3213.49394	27890.45
3215.79363	27920.55
3218.09193	27948.55
3220.38884	27969.35
3222.68438	27949.25
3224.97853	27953.85
3227.2713	27984.35
3229.56269	28000.45
3231.8527	27973.85
3234.14133	27966.25
3236.42858	27946.75
3238.71446	27934.95
