Data from AgNPs_UA_5uM_CRN_0uM_R6G_10uM_Q_RamanShift__5__10-55-05-294.txt Node

Date: Mon Jul 18 10:55:05 BST 2022
User: TCL
Spectrometer: QEP01345
Trigger mode: 4
Integration Time (sec): 7.000000E0
Scans to average: 10
Electric dark correction enabled: true
Nonlinearity correction enabled: false
Boxcar width: 0
XAxis mode: Raman Shifts
Number of Pixels in Spectrum: 1044
>>>>>Begin Spectral Data<<<<<
46.04893	-1.35
50.45542	-2.65
54.85868	-1.75
59.25871	-1.45
63.6555	165.75
68.04907	173.25
72.43941	177.75
76.82654	187.05
81.21044	190.15
85.59113	194.65
89.96862	202.35
94.34289	205.45
98.71396	219.15
103.08183	223.45
107.4465	226.15
111.80798	239.25
116.16626	241.05
120.52136	256.85
124.87327	269.55
129.222	289.75
133.56755	305.35
137.90993	335.55
142.24913	374.15
146.58517	423.65
150.91804	502.85
155.24774	606.15
159.57429	767.55
163.89768	986.45
168.21792	1330.35
172.53501	1832.75
176.84895	2569.05
181.15975	3640.95
185.46741	5106.45
189.77193	7066.05
194.07331	9465.85
198.37157	12167.95
202.6667	15047.95
206.9587	17841.95
211.24758	20607.95
215.53334	23527.35
219.81599	26553.15
224.09553	29971.05
228.37195	33784.25
232.64527	37867.75
236.91549	42047.45
241.18261	46009.35
245.44663	49245.45
249.70755	52089.75
253.96539	54447.35
258.22014	56466.25
262.4718	58255.05
266.72039	59382.55
270.96589	59912.75
275.20832	59811.45
279.44768	59214.15
283.68397	58416.45
287.91719	57859.55
292.14735	57745.25
296.37445	58132.65
300.59849	59177.65
304.81948	60577.45
309.03742	61787.45
313.25231	62257.05
317.46415	61683.05
321.67296	60091.75
325.87872	58640.55
330.08145	57917.75
334.28114	57890.15
338.47781	58531.65
342.67145	59598.65
346.86207	61029.55
351.04966	62800.95
355.23424	64507.35
359.4158	65880.45
363.59435	66671.55
367.76989	67121.55
371.94243	67282.35
376.11196	67377.25
380.27849	67600.45
384.44203	68155.85
388.60257	68728.75
392.76012	69319.55
396.91468	70108.65
401.06626	71040.85
405.21485	71655.75
409.36047	70948.45
413.50311	69342.95
417.64277	68033.55
421.77947	67441.55
425.9132	67239.45
430.04396	67431.25
434.17176	67746.35
438.2966	68727.95
442.41849	70383.15
446.53742	72994.15
450.6534	75530.25
454.76644	77002.75
458.87653	77135.15
462.98368	76273.15
467.08789	74932.65
471.18916	73197.25
475.2875	71120.65
479.38291	69353.15
483.4754	67917.25
487.56496	66948.45
491.6516	66394.75
495.73531	66250.95
499.81612	66577.45
503.89401	67307.05
507.96899	67546.55
512.04106	67535.75
516.11023	67692.25
520.1765	67907.85
524.23987	68159.65
528.30034	68318.05
532.35792	68135.25
536.41261	67167.95
540.46441	65891.55
544.51333	65457.75
548.55936	65933.55
552.60252	67472.95
556.64279	69320.05
560.6802	70760.25
564.71473	71359.25
568.7464	71967.75
572.7752	72637.05
576.80114	73118.75
580.82422	74202.45
584.84444	76405.15
588.86181	79602.05
592.87633	82668.45
596.888	83592.85
600.89682	82414.15
604.9028	85361.55
608.90594	96986.55
612.90624	108379.85
616.90371	99691.85
620.89834	79711.45
624.89015	71355.15
628.87913	70499.55
632.86528	71477.85
636.84862	71705.25
640.82913	70000.35
644.80683	67474.05
648.78172	65955.05
652.75379	66020.35
656.72306	67552.95
660.68952	69581.85
664.65319	69154.05
668.61405	68053.95
672.57211	68660.15
676.52738	68878.55
680.47986	67611.05
684.42955	66032.45
688.37646	65653.95
692.32058	66519.15
696.26192	68237.25
700.20048	69805.95
704.13626	70069.35
708.06928	69199.45
711.99952	68325.55
715.927	68241.05
719.85171	68750.25
723.77365	68573.75
727.69284	67482.05
731.60928	66601.05
735.52295	66531.65
739.43388	66818.85
743.34206	67249.25
747.24749	67486.55
751.15017	67917.55
755.05012	69082.75
758.94733	71661.85
762.8418	76713.95
766.73354	84544.35
770.62254	91394.85
774.50882	93022.75
778.39237	89595.55
782.27321	83594.65
786.15132	77138.95
790.02671	72386.45
793.89938	69872.15
797.76935	68605.95
801.6366	68061.75
805.50115	67552.95
809.36299	67073.05
813.22213	66663.45
817.07857	66276.55
820.93231	66075.85
824.78336	66067.35
828.63172	66128.05
832.47738	65983.05
836.32036	65712.75
840.16066	65736.45
843.99827	65741.25
847.8332	65741.45
851.66546	65870.45
855.49504	66018.95
859.32195	66091.25
863.1462	65977.15
866.96777	65924.35
870.78668	65951.45
874.60293	66142.95
878.41652	66458.05
882.22745	67025.15
886.03573	67237.65
889.84136	67281.95
893.64433	66885.45
897.44466	66431.95
901.24235	66220.65
905.0374	65936.15
908.8298	65621.95
912.61957	65500.65
916.40671	65710.65
920.19121	66239.35
923.97308	67114.95
927.75233	67866.55
931.52895	68061.55
935.30295	67454.15
939.07433	66148.95
942.84309	65218.55
946.60924	64791.85
950.37278	64698.25
954.13371	64736.15
957.89203	64716.15
961.64774	64759.25
965.40086	64749.35
969.15137	64747.35
972.89929	64772.35
976.64461	64870.15
980.38733	65108.55
984.12747	65456.65
987.86502	65872.85
991.59999	66534.85
995.33237	67574.35
999.06217	69251.05
1002.78939	71269.95
1006.51404	73288.35
1010.23611	75164.45
1013.95561	76528.95
1017.67255	76908.35
1021.38692	76096.55
1025.09872	74308.95
1028.80796	72936.75
1032.51465	72807.15
1036.21877	73455.55
1039.92035	73798.25
1043.61937	73625.35
1047.31584	72976.25
1051.00976	72231.25
1054.70114	71970.25
1058.38998	72243.65
1062.07627	72938.55
1065.76003	73829.75
1069.44126	75238.85
1073.11995	77473.65
1076.79611	79772.95
1080.46974	80962.45
1084.14085	81619.15
1087.80943	82621.65
1091.47549	83442.75
1095.13903	83538.15
1098.80005	82583.05
1102.45857	81589.15
1106.11456	80411.15
1109.76805	79168.85
1113.41903	78784.25
1117.06751	79409.95
1120.71348	80381.55
1124.35696	81666.05
1127.99793	82835.95
1131.63641	82597.35
1135.2724	81228.45
1138.90589	80016.25
1142.5369	79358.55
1146.16542	79460.15
1149.79145	79580.95
1153.415	79368.15
1157.03607	79204.95
1160.65467	80122.15
1164.27079	82512.45
1167.88443	86285.15
1171.49561	91670.65
1175.10432	99025.35
1178.71056	108508.45
1182.31434	116830.45
1185.91565	120559.75
1189.51451	119857.55
1193.11091	116587.65
1196.70485	112387.75
1200.29634	108467.95
1203.88538	105306.75
1207.47197	102387.05
1211.05612	99410.85
1214.63782	96675.15
1218.21708	94606.85
1221.79391	93586.25
1225.36829	93395.65
1228.94024	92951.75
1232.50976	91481.25
1236.07685	89724.35
1239.6415	88830.45
1243.20374	88813.65
1246.76355	89666.05
1250.32093	91240.35
1253.8759	93553.25
1257.42845	96890.75
1260.97859	100717.05
1264.52631	104573.75
1268.07163	108208.05
1271.61453	111158.95
1275.15503	113336.35
1278.69312	114771.95
1282.22882	115167.15
1285.76211	116437.55
1289.29301	118713.55
1292.82151	121944.05
1296.34761	126392.95
1299.87133	132478.05
1303.39266	141271.45
1306.9116	152359.15
1310.42815	163745.45
1313.94233	170446.45
1317.45412	168716.85
1320.96354	161671.25
1324.47058	153594.15
1327.97525	146189.15
1331.47754	141013.65
1334.97747	138667.85
1338.47502	138683.55
1341.97022	140705.65
1345.46305	144320.75
1348.95352	148589.05
1352.44163	153260.85
1355.92738	159855.75
1359.41078	168846.15
1362.89183	175704.75
1366.37053	170771.25
1369.84688	153004.55
1373.32088	133751.45
1376.79254	121782.95
1380.26186	116729.95
1383.72883	114990.15
1387.19347	113652.95
1390.65578	111496.45
1394.11575	109473.35
1397.57339	108416.95
1401.0287	108279.15
1404.48168	108496.65
1407.93234	108939.35
1411.38068	109431.85
1414.82669	108863.25
1418.27039	107069.15
1421.71177	105157.65
1425.15083	104068.65
1428.58758	104535.55
1432.02203	106501.15
1435.45416	109349.55
1438.88399	111185.25
1442.31151	111666.95
1445.73673	111507.35
1449.15965	111069.15
1452.58027	110080.55
1455.9986	109301.35
1459.41463	109959.95
1462.82837	111986.25
1466.23982	114313.35
1469.64898	115899.65
1473.05586	116846.75
1476.46045	117107.45
1479.86276	116867.95
1483.26279	116424.05
1486.66054	116908.45
1490.05602	118543.35
1493.44922	121244.95
1496.84016	125059.45
1500.22882	131025.15
1503.61521	138904.55
1506.99934	146698.95
1510.38121	151293.65
1513.76081	150031.55
1517.13816	142663.25
1520.51324	132774.75
1523.88607	124695.15
1527.25665	120253.55
1530.62498	118503.95
1533.99105	117560.65
1537.35488	116516.75
1540.71647	115264.15
1544.07581	113515.75
1547.4329	111633.85
1550.78776	109627.15
1554.14038	108078.85
1557.49077	107413.45
1560.83892	107678.75
1564.18484	108961.05
1567.52853	110647.45
1570.86999	111934.35
1574.20922	112554.15
1577.54624	111924.55
1580.88103	108975.45
1584.2136	106380.65
1587.54395	106534.45
1590.87208	110600.15
1594.19801	118375.55
1597.52172	126951.45
1600.84321	131145.15
1604.16251	127889.65
1607.47959	120188.75
1610.79447	110538.45
1614.10715	100870.85
1617.41763	92936.15
1620.7259	87621.25
1624.03199	85049.65
1627.33587	85069.35
1630.63757	87617.95
1633.93707	93206.55
1637.23439	102665.45
1640.52951	116366.95
1643.82246	132318.95
1647.11321	144093.65
1650.40179	145316.05
1653.68819	133672.75
1656.97241	115001.75
1660.25446	97632.35
1663.53433	85689.05
1666.81203	78455.85
1670.08756	74034.85
1673.36092	71320.55
1676.63211	69397.35
1679.90115	68041.75
1683.16801	66963.25
1686.43272	66224.35
1689.69527	65672.45
1692.95567	65242.15
1696.2139	64870.25
1699.46999	64628.75
1702.72392	64540.05
1705.97571	64372.55
1709.22535	64285.25
1712.47284	64375.55
1715.71819	64364.25
1718.96139	64259.35
1722.20246	63988.75
1725.44139	63581.55
1728.67818	63182.55
1731.91284	62875.35
1735.14537	62503.95
1738.37576	62266.55
1741.60403	62002.45
1744.83017	61840.75
1748.05418	61596.15
1751.27607	61464.45
1754.49584	61295.65
1757.71349	61207.65
1760.92903	61093.95
1764.14244	60993.65
1767.35375	60904.65
1770.56294	60696.15
1773.77002	60624.75
1776.97499	60540.35
1780.17785	60417.85
1783.37861	60315.95
1786.57727	60131.55
1789.77382	60089.55
1792.96828	59925.35
1796.16064	59809.55
1799.3509	59802.85
1802.53907	59612.85
1805.72514	59477.35
1808.90913	59258.95
1812.09102	59163.15
1815.27083	58997.05
1818.44856	58917.75
1821.6242	58884.45
1824.79776	58793.75
1827.96924	58539.55
1831.13864	58420.45
1834.30597	58425.75
1837.47122	58327.25
1840.6344	58282.05
1843.7955	58417.15
1846.95454	58290.85
1850.11151	58199.25
1853.26642	58092.95
1856.41926	57985.45
1859.57004	57968.65
1862.71876	57975.45
1865.86542	58004.55
1869.01003	57954.15
1872.15258	57951.25
1875.29308	57810.55
1878.43152	57690.95
1881.56792	57723.65
1884.70227	57691.75
1887.83457	57552.45
1890.96482	57532.45
1894.09304	57550.05
1897.21921	57459.35
1900.34335	57416.15
1903.46544	57321.05
1906.58551	57264.75
1909.70353	57114.85
1912.81953	57048.45
1915.93349	56913.75
1919.04543	56780.85
1922.15534	56789.55
1925.26322	56640.25
1928.36908	56450.75
1931.47292	56355.25
1934.57473	56157.25
1937.67453	56046.25
1940.77232	55880.75
1943.86808	55678.05
1946.96184	55495.35
1950.05358	55288.15
1953.14331	55243.45
1956.23103	55050.65
1959.31675	54884.45
1962.40046	54815.25
1965.48217	54680.35
1968.56188	54510.85
1971.63959	54417.45
1974.7153	54188.85
1977.78901	54135.15
1980.86073	53915.85
1983.93046	53782.35
1986.99819	53469.55
1990.06394	53386.25
1993.1277	53221.65
1996.18947	53079.85
1999.24925	53026.35
2002.30706	52842.15
2005.36288	52773.55
2008.41672	52666.85
2011.46859	52464.75
2014.51848	52313.05
2017.56639	52232.95
2020.61233	52212.85
2023.6563	52054.55
2026.6983	51837.85
2029.73833	51625.75
2032.7764	51549.25
2035.8125	51455.65
2038.84664	51333.95
2041.87881	51287.75
2044.90903	51128.75
2047.93729	51116.65
2050.96359	51047.15
2053.98794	50999.05
2057.01034	50939.65
2060.03078	50902.05
2063.04927	50736.55
2066.06582	50712.45
2069.08042	50580.05
2072.09307	50613.05
2075.10378	50559.25
2078.11255	50476.95
2081.11938	50484.25
2084.12426	50373.75
2087.12722	50335.55
2090.12824	50344.75
2093.12732	50455.45
2096.12447	50427.65
2099.11969	50486.15
2102.11299	50563.85
2105.10435	50522.85
2108.09379	50563.25
2111.08131	50586.45
2114.0669	50544.55
2117.05057	50553.25
2120.03233	50659.25
2123.01216	50603.95
2125.99008	50631.35
2128.96609	50725.35
2131.94018	50823.55
2134.91236	50856.05
2137.88263	50826.95
2140.851	50917.35
2143.81746	50885.65
2146.78201	50902.25
2149.74466	50945.35
2152.7054	50851.35
2155.66425	50858.95
2158.6212	50859.95
2161.57625	50799.15
2164.52941	50739.95
2167.48067	50762.65
2170.43004	50797.35
2173.37752	50728.25
2176.32311	50669.85
2179.26681	50640.75
2182.20863	50707.65
2185.14856	50753.35
2188.08661	50684.85
2191.02278	50699.15
2193.95707	50694.35
2196.88948	50651.05
2199.82001	50649.55
2202.74867	50613.45
2205.67545	50571.55
2208.60037	50456.35
2211.52341	50353.35
2214.44458	50240.35
2217.36388	50156.05
2220.28132	50154.85
2223.1969	50000.25
2226.11061	49854.95
2229.02246	49793.25
2231.93245	49757.15
2234.84058	49686.55
2237.74686	49574.65
2240.65128	49518.25
2243.55385	49396.65
2246.45456	49303.55
2249.35343	49262.15
2252.25044	49268.05
2255.14561	49175.15
2258.03893	49193.95
2260.93041	49102.35
2263.82004	48904.25
2266.70783	48784.55
2269.59378	48758.45
2272.4779	48735.55
2275.36017	48563.45
2278.24061	48450.45
2281.11922	48425.65
2283.996	48315.15
2286.87094	48324.05
2289.74405	48149.45
2292.61534	48143.05
2295.4848	48023.25
2298.35243	48088.75
2301.21824	48043.95
2304.08223	48060.35
2306.94439	48002.95
2309.80474	48045.35
2312.66327	48055.45
2315.51999	48041.05
2318.37489	48082.25
2321.22797	47993.55
2324.07925	47950.55
2326.92871	47804.95
2329.77637	47791.65
2332.62222	47769.35
2335.46626	47670.45
2338.3085	47709.15
2341.14893	47726.95
2343.98756	47686.15
2346.8244	47714.65
2349.65943	47770.75
2352.49267	47782.15
2355.32411	47716.95
2358.15376	47701.95
2360.98161	47674.45
2363.80768	47719.35
2366.63195	47675.05
2369.45444	47472.45
2372.27514	47484.95
2375.09405	47505.05
2377.91118	47394.25
2380.72652	47251.65
2383.54009	47066.85
2386.35187	47047.15
2389.16188	47029.85
2391.97011	46921.85
2394.77657	46893.05
2397.58125	46760.15
2400.38416	46634.65
2403.18529	46547.25
2405.98466	46546.55
2408.78226	46531.75
2411.57809	46462.65
2414.37216	46446.25
2417.16446	46409.95
2419.955	46280.75
2422.74378	46378.35
2425.5308	46292.15
2428.31606	46237.05
2431.09956	46305.05
2433.88131	46156.65
2436.6613	46198.15
2439.43954	46198.55
2442.21603	46216.05
2444.99077	46204.05
2447.76377	46137.45
2450.53501	46105.35
2453.30451	46146.15
2456.07226	46094.95
2458.83827	46049.45
2461.60254	46043.95
2464.36507	46038.35
2467.12586	46089.05
2469.88492	46085.45
2472.64224	46027.15
2475.39782	45968.55
2478.15167	46049.65
2480.90379	46174.55
2483.65417	46226.45
2486.40283	46266.15
2489.14976	46320.65
2491.89497	46270.75
2494.63845	46237.45
2497.3802	46080.35
2500.12024	46050.75
2502.85855	46011.35
2505.59514	45941.75
2508.33002	45902.95
2511.06318	45811.55
2513.79462	45798.75
2516.52435	45812.65
2519.25237	45762.35
2521.97867	45759.85
2524.70327	45801.25
2527.42616	45766.45
2530.14734	45804.25
2532.86681	45664.85
2535.58458	45635.25
2538.30065	45662.15
2541.01501	45710.15
2543.72768	45726.95
2546.43864	45718.85
2549.14791	45639.65
2551.85548	45694.85
2554.56136	45550.85
2557.26554	45482.25
2559.96803	45445.55
2562.66883	45379.35
2565.36794	45346.95
2568.06536	45296.35
2570.7611	45152.25
2573.45514	45107.75
2576.14751	45077.65
2578.83819	44966.15
2581.52719	45024.55
2584.21451	44959.05
2586.90015	44901.35
2589.58411	44879.25
2592.2664	44895.65
2594.94701	44766.45
2597.62594	44782.85
2600.30321	44767.15
2602.9788	44723.65
2605.65273	44657.55
2608.32498	44674.05
2610.99557	44680.25
2613.66449	44784.35
2616.33175	44732.15
2618.99734	44695.85
2621.66128	44570.65
2624.32355	44486.65
2626.98416	44528.15
2629.64311	44483.25
2632.30041	44487.45
2634.95605	44352.95
2637.61004	44341.15
2640.26238	44294.75
2642.91306	44277.55
2645.56209	44192.35
2648.20948	44227.75
2650.85521	44239.95
2653.4993	44271.35
2656.14175	44308.25
2658.78255	44397.15
2661.42171	44406.05
2664.05923	44567.65
2666.6951	44548.55
2669.32934	44572.25
2671.96194	44534.55
2674.59291	44514.65
2677.22224	44444.05
2679.84993	44458.25
2682.476	44362.85
2685.10043	44346.65
2687.72324	44336.15
2690.34441	44370.65
2692.96396	44211.05
2695.58188	44293.65
2698.19818	44231.95
2700.81285	44264.95
2703.4259	44262.05
2706.03733	44366.05
2708.64714	44358.45
2711.25533	44344.45
2713.86191	44322.05
2716.46687	44527.45
2719.07021	44442.05
2721.67194	44489.55
2724.27206	44491.75
2726.87057	44492.85
2729.46747	44411.35
2732.06276	44524.35
2734.65644	44497.45
2737.24852	44520.55
2739.83899	44406.05
2742.42786	44413.05
2745.01513	44291.65
2747.60079	44312.15
2750.18486	44281.75
2752.76733	44311.05
2755.3482	44367.05
2757.92747	44400.15
2760.50515	44327.95
2763.08123	44268.55
2765.65573	44134.75
2768.22863	44168.95
2770.79994	44143.15
2773.36967	44130.25
2775.9378	44112.75
2778.50435	44024.35
2781.06932	44035.35
2783.6327	44060.85
2786.1945	43999.05
2788.75471	43906.65
2791.31335	43751.25
2793.87041	43691.65
2796.42589	43563.75
2798.97979	43640.25
2801.53212	43505.65
2804.08288	43517.95
2806.63206	43355.45
2809.17967	43345.35
2811.72571	43246.85
2814.27018	43106.65
2816.81308	43044.55
2819.35442	42976.45
2821.89419	42766.65
2824.43239	42810.15
2826.96904	42731.05
2829.50412	42695.05
2832.03763	42699.85
2834.56959	42717.15
2837.1	42621.55
2839.62884	42640.35
2842.15613	42497.05
2844.68186	42411.95
2847.20604	42319.65
2849.72867	42317.15
2852.24974	42217.35
2854.76927	42172.95
2857.28724	42154.15
2859.80367	42223.35
2862.31855	42200.05
2864.83189	42266.25
2867.34368	42196.65
2869.85393	42203.55
2872.36264	42092.85
2874.8698	41968.85
2877.37543	42034.35
2879.87952	41995.35
2882.38207	41951.75
2884.88308	41869.95
2887.38256	41829.75
2889.88051	41852.45
2892.37692	41809.05
2894.8718	41825.55
2897.36515	41983.85
2899.85698	41979.75
2902.34727	42036.95
2904.83604	42048.85
2907.32328	42202.65
2909.809	42278.25
2912.29319	42296.95
2914.77587	42374.75
2917.25702	42316.85
2919.73665	42151.75
2922.21476	42257.75
2924.69136	42106.45
2927.16644	42011.35
2929.64	41986.85
2932.11205	41841.85
2934.58258	41702.15
2937.05161	41705.45
2939.51912	41663.05
2941.98513	41620.65
2944.44962	41522.65
2946.91261	41452.45
2949.37409	41530.95
2951.83407	41485.85
2954.29254	41485.85
2956.74951	41483.95
2959.20498	41445.75
2961.65895	41409.45
2964.11142	41429.25
2966.56239	41323.35
2969.01186	41348.65
2971.45984	41240.35
2973.90632	41206.55
2976.35131	41116.65
2978.7948	41066.35
2981.23681	41003.65
2983.67732	40924.15
2986.11635	40847.85
2988.55388	40788.05
2990.98993	40714.25
2993.4245	40562.75
2995.85758	40493.05
2998.28917	40301.35
3000.71928	40359.95
3003.14791	40226.95
3005.57506	40206.75
3008.00073	39935.75
3010.42493	39917.85
3012.84764	39833.95
3015.26888	39779.85
3017.68865	39718.45
3020.10694	39682.15
3022.52376	39562.35
3024.9391	39542.15
3027.35298	39484.25
3029.76539	39537.75
3032.17632	39476.25
3034.5858	39354.95
3036.9938	39355.75
3039.40034	39280.65
3041.80542	39259.45
3044.20903	39080.45
3046.61118	39099.45
3049.01187	38978.55
3051.4111	38981.05
3053.80888	38886.45
3056.20519	38806.05
3058.60005	38648.05
3060.99345	38524.25
3063.3854	38442.25
3065.7759	38372.05
3068.16494	38188.05
3070.55254	38034.05
3072.93868	38012.85
3075.32338	37924.35
3077.70662	37864.65
3080.08842	37710.95
3082.46878	37715.15
3084.84769	37668.45
3087.22515	37707.05
3089.60118	37613.75
3091.97576	37569.05
3094.3489	37532.95
3096.72061	37483.65
3099.09087	37484.45
3101.4597	37426.95
3103.82709	37340.25
3106.19305	37277.95
3108.55757	37299.65
3110.92066	37207.95
3113.28232	37177.65
3115.64255	37083.65
3118.00134	37062.45
3120.35871	36950.95
3122.71466	36818.95
3125.06917	36708.95
3127.42226	36569.05
3129.77393	36599.05
3132.12417	36491.45
3134.47299	36470.55
3136.82039	36435.95
3139.16636	36369.15
3141.51092	36383.05
3143.85406	36343.25
3146.19579	36359.95
3148.53609	36308.85
3150.87499	36400.65
3153.21246	36393.05
3155.54853	36364.35
3157.88318	36307.15
3160.21642	36330.25
3162.54826	36327.55
3164.87868	36269.95
3167.2077	36278.15
3169.5353	36258.75
3171.86151	36139.45
3174.18631	36068.75
3176.5097	36045.55
3178.83169	35961.45
3181.15228	36002.55
3183.47147	35932.65
3185.78926	35831.25
3188.10565	35746.25
3190.42065	35766.35
3192.73424	35781.05
3195.04645	35781.65
3197.35725	35647.35
3199.66667	35620.95
3201.97469	35597.75
3204.28132	35506.85
3206.58656	35472.95
3208.8904	35451.45
3211.19287	35458.95
3213.49394	35459.15
3215.79363	35479.95
3218.09193	35510.95
3220.38884	35466.85
3222.68438	35510.65
3224.97853	35433.25
