Data from AgNPs_UA_1uM_CRN_0uM_R6G_10uM_Q_RamanShift__9__12-21-15-875.txt Node

Date: Wed Jul 13 12:21:15 BST 2022
User: TCL
Spectrometer: QEP01345
Trigger mode: 4
Integration Time (sec): 7.000000E0
Scans to average: 10
Electric dark correction enabled: true
Nonlinearity correction enabled: false
Boxcar width: 0
XAxis mode: Raman Shifts
Number of Pixels in Spectrum: 1044
>>>>>Begin Spectral Data<<<<<
46.04893	-0.925
50.45542	-0.925
54.85868	-2.125
59.25871	-0.225
63.6555	98.775
68.04907	106.475
72.43941	110.175
76.82654	112.975
81.21044	119.675
85.59113	124.075
89.96862	126.375
94.34289	129.975
98.71396	135.175
103.08183	135.475
107.4465	143.675
111.80798	144.675
116.16626	152.575
120.52136	157.175
124.87327	162.075
129.222	174.075
133.56755	179.175
137.90993	200.375
142.24913	212.175
146.58517	239.475
150.91804	271.075
155.24774	330.975
159.57429	397.475
163.89768	517.875
168.21792	675.075
172.53501	920.075
176.84895	1284.975
181.15975	1797.475
185.46741	2523.675
189.77193	3489.175
194.07331	4660.475
198.37157	5994.175
202.6667	7377.075
206.9587	8795.175
211.24758	10162.475
215.53334	11532.075
219.81599	13017.775
224.09553	14656.975
228.37195	16440.975
232.64527	18385.975
236.91549	20351.275
241.18261	22296.275
245.44663	24154.375
249.70755	25712.375
253.96539	27070.075
258.22014	28274.475
262.4718	29267.675
266.72039	29916.475
270.96589	30191.275
275.20832	30128.575
279.44768	29874.875
283.68397	29558.675
287.91719	29296.975
292.14735	29151.175
296.37445	29243.875
300.59849	29466.575
304.81948	29857.775
309.03742	30237.275
313.25231	30306.375
317.46415	30025.875
321.67296	29470.775
325.87872	28943.175
330.08145	28681.275
334.28114	28754.875
338.47781	29064.275
342.67145	29538.175
346.86207	30151.275
351.04966	30898.575
355.23424	31573.375
359.4158	32125.975
363.59435	32437.175
367.76989	32574.975
371.94243	32671.075
376.11196	32742.375
380.27849	32810.075
384.44203	32902.475
388.60257	33088.575
392.76012	33399.075
396.91468	33818.475
401.06626	34333.275
405.21485	34580.675
409.36047	34288.775
413.50311	33679.975
417.64277	33383.875
421.77947	33335.775
425.9132	33463.375
430.04396	33614.475
434.17176	33723.475
438.2966	33994.675
442.41849	34521.375
446.53742	35170.275
450.6534	35829.875
454.76644	36268.475
458.87653	36399.975
462.98368	36299.775
467.08789	36047.375
471.18916	35707.375
475.2875	35196.475
479.38291	34743.975
483.4754	34493.875
487.56496	34317.775
491.6516	34230.075
495.73531	34232.975
499.81612	34340.975
503.89401	34559.775
507.96899	34738.175
512.04106	34857.075
516.11023	34857.375
520.1765	34849.175
524.23987	34858.575
528.30034	34774.375
532.35792	34638.475
536.41261	34376.375
540.46441	34089.075
544.51333	34000.075
548.55936	34253.575
552.60252	34726.175
556.64279	35359.275
560.6802	35765.475
564.71473	35995.575
568.7464	36441.875
572.7752	36947.375
576.80114	37334.375
580.82422	37902.875
584.84444	38742.075
588.86181	39905.175
592.87633	40933.775
596.888	41071.975
600.89682	40432.775
604.9028	41208.875
608.90594	44794.875
612.90624	48282.375
616.90371	45193.875
620.89834	38802.075
624.89015	36245.975
628.87913	35980.075
632.86528	36342.575
636.84862	36530.475
640.82913	36063.975
644.80683	35373.875
648.78172	34991.275
652.75379	35145.575
656.72306	35699.375
660.68952	36238.975
664.65319	35970.575
668.61405	35567.375
672.57211	35572.175
676.52738	35748.175
680.47986	35574.675
684.42955	35287.075
688.37646	35217.475
692.32058	35437.975
696.26192	35935.375
700.20048	36376.175
704.13626	36615.375
708.06928	36577.775
711.99952	36429.275
715.927	36351.475
719.85171	36449.575
723.77365	36354.475
727.69284	36039.075
731.60928	35803.075
735.52295	35744.275
739.43388	35848.175
743.34206	35989.075
747.24749	36134.775
751.15017	36366.775
755.05012	36795.375
758.94733	37685.975
762.8418	39487.875
766.73354	42277.175
770.62254	44467.075
774.50882	44602.775
778.39237	43105.375
782.27321	40953.075
786.15132	38992.175
790.02671	37599.075
793.89938	36901.475
797.76935	36543.675
801.6366	36375.775
805.50115	36258.175
809.36299	36129.375
813.22213	36051.075
817.07857	35975.375
820.93231	35976.175
824.78336	35968.575
828.63172	35961.875
832.47738	35934.175
836.32036	35897.175
840.16066	35878.175
843.99827	35920.275
847.8332	35914.375
851.66546	36034.975
855.49504	36090.475
859.32195	36122.175
863.1462	36106.575
866.96777	36089.875
870.78668	36095.375
874.60293	36188.575
878.41652	36343.175
882.22745	36489.675
886.03573	36659.675
889.84136	36694.675
893.64433	36597.475
897.44466	36535.075
901.24235	36435.275
905.0374	36342.075
908.8298	36239.975
912.61957	36190.475
916.40671	36381.375
920.19121	36611.775
923.97308	36856.475
927.75233	37058.775
931.52895	36980.275
935.30295	36610.175
939.07433	36119.075
942.84309	35803.575
946.60924	35744.375
950.37278	35668.375
954.13371	35626.975
957.89203	35574.975
961.64774	35527.675
965.40086	35489.475
969.15137	35498.475
972.89929	35431.475
976.64461	35404.775
980.38733	35468.575
984.12747	35453.275
987.86502	35577.575
991.59999	35719.775
995.33237	35910.075
999.06217	36219.075
1002.78939	36671.975
1006.51404	37222.975
1010.23611	37751.175
1013.95561	38041.675
1017.67255	38107.675
1021.38692	37847.875
1025.09872	37413.175
1028.80796	37030.875
1032.51465	36950.075
1036.21877	36916.775
1039.92035	36987.575
1043.61937	37083.875
1047.31584	37099.975
1051.00976	37189.075
1054.70114	37313.975
1058.38998	37460.475
1062.07627	37663.075
1065.76003	37968.275
1069.44126	38345.175
1073.11995	38918.375
1076.79611	39536.675
1080.46974	39952.275
1084.14085	40263.275
1087.80943	40609.875
1091.47549	40704.775
1095.13903	40510.475
1098.80005	40076.875
1102.45857	39596.175
1106.11456	39247.975
1109.76805	38930.775
1113.41903	38914.375
1117.06751	39170.075
1120.71348	39592.475
1124.35696	40112.275
1127.99793	40546.975
1131.63641	40421.975
1135.2724	39903.275
1138.90589	39518.475
1142.5369	39335.675
1146.16542	39286.475
1149.79145	39258.875
1153.415	39294.275
1157.03607	39395.875
1160.65467	39833.675
1164.27079	40661.075
1167.88443	41912.975
1171.49561	43577.875
1175.10432	45873.475
1178.71056	48741.775
1182.31434	51039.075
1185.91565	51876.175
1189.51451	51366.875
1193.11091	50341.475
1196.70485	49027.575
1200.29634	47729.975
1203.88538	46613.575
1207.47197	45610.175
1211.05612	44817.175
1214.63782	44026.775
1218.21708	43291.275
1221.79391	42746.875
1225.36829	42565.875
1228.94024	42395.275
1232.50976	42287.275
1236.07685	41994.075
1239.6415	41680.775
1243.20374	41662.275
1246.76355	41867.075
1250.32093	42131.975
1253.8759	42630.775
1257.42845	43448.275
1260.97859	44505.675
1264.52631	45531.475
1268.07163	46401.475
1271.61453	47140.275
1275.15503	47731.075
1278.69312	48240.375
1282.22882	48776.875
1285.76211	49574.075
1289.29301	50719.975
1292.82151	52013.875
1296.34761	53500.475
1299.87133	55483.275
1303.39266	57995.375
1306.9116	61021.875
1310.42815	63972.675
1313.94233	65317.675
1317.45412	64222.075
1320.96354	61946.775
1324.47058	59975.275
1327.97525	58358.975
1331.47754	57207.675
1334.97747	56717.475
1338.47502	56557.075
1341.97022	56884.675
1345.46305	57855.475
1348.95352	59196.475
1352.44163	60695.875
1355.92738	62383.775
1359.41078	65212.375
1362.89183	67827.575
1366.37053	66375.075
1369.84688	60743.875
1373.32088	54644.475
1376.79254	50756.375
1380.26186	49084.775
1383.72883	48463.575
1387.19347	47912.675
1390.65578	47182.775
1394.11575	46623.875
1397.57339	46384.975
1401.0287	46305.075
1404.48168	46237.375
1407.93234	46123.275
1411.38068	45870.475
1414.82669	45409.375
1418.27039	44781.975
1421.71177	44142.675
1425.15083	43624.075
1428.58758	43476.075
1432.02203	43922.175
1435.45416	44546.175
1438.88399	45130.575
1442.31151	45318.475
1445.73673	45393.275
1449.15965	45321.075
1452.58027	45205.075
1455.9986	45093.075
1459.41463	45221.775
1462.82837	45775.575
1466.23982	46391.875
1469.64898	46956.075
1473.05586	47320.275
1476.46045	47591.475
1479.86276	47677.475
1483.26279	47826.075
1486.66054	48248.275
1490.05602	49005.075
1493.44922	49954.875
1496.84016	51445.375
1500.22882	53711.475
1503.61521	56670.475
1506.99934	59771.475
1510.38121	61928.375
1513.76081	61735.875
1517.13816	59188.275
1520.51324	55495.075
1523.88607	52588.875
1527.25665	50903.375
1530.62498	50114.075
1533.99105	49634.475
1537.35488	49020.175
1540.71647	48297.475
1544.07581	47478.675
1547.4329	46814.275
1550.78776	46323.075
1554.14038	45929.075
1557.49077	45855.275
1560.83892	46079.775
1564.18484	46485.375
1567.52853	47051.875
1570.86999	47611.075
1574.20922	48054.575
1577.54624	48039.575
1580.88103	47151.775
1584.2136	46265.075
1587.54395	46179.075
1590.87208	47185.775
1594.19801	49015.375
1597.52172	50998.875
1600.84321	51506.775
1604.16251	50253.575
1607.47959	48310.175
1610.79447	46103.275
1614.10715	43710.175
1617.41763	41664.575
1620.7259	40235.175
1624.03199	39446.375
1627.33587	39415.875
1630.63757	39958.675
1633.93707	41427.575
1637.23439	44114.475
1640.52951	48231.175
1643.82246	53216.075
1647.11321	57549.975
1650.40179	58747.775
1653.68819	55702.475
1656.97241	49932.575
1660.25446	44406.275
1663.53433	40527.775
1666.81203	38170.975
1670.08756	36705.975
1673.36092	35838.775
1676.63211	35257.475
1679.90115	34852.575
1683.16801	34490.375
1686.43272	34316.675
1689.69527	34100.075
1692.95567	33914.575
1696.2139	33835.275
1699.46999	33769.975
1702.72392	33692.375
1705.97571	33680.775
1709.22535	33729.475
1712.47284	33728.275
1715.71819	33698.475
1718.96139	33628.175
1722.20246	33580.675
1725.44139	33485.675
1728.67818	33384.575
1731.91284	33235.675
1735.14537	33094.075
1738.37576	33035.675
1741.60403	32915.075
1744.83017	32839.275
1748.05418	32801.675
1751.27607	32674.575
1754.49584	32674.775
1757.71349	32652.475
1760.92903	32618.075
1764.14244	32543.975
1767.35375	32530.575
1770.56294	32528.575
1773.77002	32485.575
1776.97499	32453.875
1780.17785	32406.775
1783.37861	32343.675
1786.57727	32227.175
1789.77382	32210.775
1792.96828	32161.075
1796.16064	32181.775
1799.3509	32096.875
1802.53907	32100.975
1805.72514	32016.875
1808.90913	31982.775
1812.09102	31850.875
1815.27083	31835.275
1818.44856	31716.175
1821.6242	31706.375
1824.79776	31617.075
1827.96924	31625.575
1831.13864	31582.775
1834.30597	31543.775
1837.47122	31465.975
1840.6344	31439.875
1843.7955	31517.075
1846.95454	31448.275
1850.11151	31446.775
1853.26642	31464.275
1856.41926	31363.375
1859.57004	31364.575
1862.71876	31329.875
1865.86542	31371.175
1869.01003	31394.675
1872.15258	31271.775
1875.29308	31222.775
1878.43152	31180.675
1881.56792	31140.475
1884.70227	31144.175
1887.83457	31077.575
1890.96482	31042.775
1894.09304	30997.975
1897.21921	30959.975
1900.34335	30941.675
1903.46544	30855.575
1906.58551	30884.975
1909.70353	30814.175
1912.81953	30802.475
1915.93349	30814.775
1919.04543	30716.375
1922.15534	30637.075
1925.26322	30578.875
1928.36908	30538.975
1931.47292	30467.775
1934.57473	30405.175
1937.67453	30298.975
1940.77232	30268.475
1943.86808	30186.675
1946.96184	30107.875
1950.05358	30047.975
1953.14331	29942.575
1956.23103	29877.175
1959.31675	29773.675
1962.40046	29702.075
1965.48217	29633.675
1968.56188	29554.175
1971.63959	29457.375
1974.7153	29372.975
1977.78901	29326.975
1980.86073	29228.475
1983.93046	29169.775
1986.99819	29048.175
1990.06394	28929.575
1993.1277	28864.675
1996.18947	28774.975
1999.24925	28731.375
2002.30706	28670.975
2005.36288	28546.275
2008.41672	28494.375
2011.46859	28384.475
2014.51848	28342.275
2017.56639	28243.175
2020.61233	28203.275
2023.6563	28091.375
2026.6983	28002.875
2029.73833	27939.175
2032.7764	27895.975
2035.8125	27817.675
2038.84664	27762.675
2041.87881	27732.775
2044.90903	27685.375
2047.93729	27608.375
2050.96359	27645.275
2053.98794	27568.375
2057.01034	27577.775
2060.03078	27474.775
2063.04927	27450.475
2066.06582	27497.375
2069.08042	27470.375
2072.09307	27362.675
2075.10378	27343.175
2078.11255	27349.875
2081.11938	27387.675
2084.12426	27338.575
2087.12722	27343.475
2090.12824	27327.575
2093.12732	27319.975
2096.12447	27327.975
2099.11969	27315.475
2102.11299	27339.175
2105.10435	27356.875
2108.09379	27347.075
2111.08131	27390.575
2114.0669	27381.175
2117.05057	27406.875
2120.03233	27451.375
2123.01216	27473.575
2125.99008	27501.275
2128.96609	27547.775
2131.94018	27518.175
2134.91236	27552.275
2137.88263	27572.775
2140.851	27596.075
2143.81746	27620.975
2146.78201	27579.075
2149.74466	27580.975
2152.7054	27666.875
2155.66425	27632.175
2158.6212	27556.775
2161.57625	27555.675
2164.52941	27549.675
2167.48067	27550.375
2170.43004	27563.775
2173.37752	27500.875
2176.32311	27566.575
2179.26681	27600.475
2182.20863	27526.275
2185.14856	27567.275
2188.08661	27546.975
2191.02278	27539.575
2193.95707	27500.275
2196.88948	27521.575
2199.82001	27469.675
2202.74867	27435.975
2205.67545	27431.275
2208.60037	27360.175
2211.52341	27333.575
2214.44458	27271.875
2217.36388	27219.175
2220.28132	27174.375
2223.1969	27107.075
2226.11061	27117.375
2229.02246	27037.575
2231.93245	27013.275
2234.84058	26938.775
2237.74686	26915.575
2240.65128	26887.775
2243.55385	26871.775
2246.45456	26839.775
2249.35343	26822.775
2252.25044	26781.975
2255.14561	26706.275
2258.03893	26660.075
2260.93041	26644.275
2263.82004	26576.375
2266.70783	26525.475
2269.59378	26441.275
2272.4779	26437.575
2275.36017	26332.475
2278.24061	26303.475
2281.11922	26211.575
2283.996	26176.475
2286.87094	26149.375
2289.74405	26110.875
2292.61534	26070.975
2295.4848	26048.775
2298.35243	26020.975
2301.21824	25993.275
2304.08223	25950.875
2306.94439	25946.475
2309.80474	25990.575
2312.66327	25986.075
2315.51999	25943.275
2318.37489	25881.275
2321.22797	25827.775
2324.07925	25829.175
2326.92871	25773.875
2329.77637	25723.275
2332.62222	25668.375
2335.46626	25645.975
2338.3085	25608.575
2341.14893	25526.675
2343.98756	25493.575
2346.8244	25488.175
2349.65943	25484.675
2352.49267	25507.575
2355.32411	25540.675
2358.15376	25564.875
2360.98161	25540.375
2363.80768	25466.375
2366.63195	25458.475
2369.45444	25459.775
2372.27514	25454.675
2375.09405	25440.175
2377.91118	25346.975
2380.72652	25265.175
2383.54009	25280.175
2386.35187	25187.675
2389.16188	25113.775
2391.97011	25038.975
2394.77657	25016.775
2397.58125	24968.675
2400.38416	24912.375
2403.18529	24896.175
2405.98466	24865.275
2408.78226	24819.675
2411.57809	24799.475
2414.37216	24809.875
2417.16446	24762.575
2419.955	24755.975
2422.74378	24736.075
2425.5308	24742.375
2428.31606	24733.175
2431.09956	24720.875
2433.88131	24664.175
2436.6613	24673.275
2439.43954	24612.775
2442.21603	24592.175
2444.99077	24616.775
2447.76377	24623.775
2450.53501	24590.775
2453.30451	24558.175
2456.07226	24513.175
2458.83827	24480.075
2461.60254	24420.575
2464.36507	24454.275
2467.12586	24421.175
2469.88492	24393.775
2472.64224	24397.875
2475.39782	24371.975
2478.15167	24361.475
2480.90379	24362.575
2483.65417	24358.475
2486.40283	24301.075
2489.14976	24306.375
2491.89497	24302.775
2494.63845	24295.075
2497.3802	24292.575
2500.12024	24267.475
2502.85855	24273.675
2505.59514	24233.175
2508.33002	24227.275
2511.06318	24182.875
2513.79462	24122.575
2516.52435	24073.175
2519.25237	24049.075
2521.97867	23999.875
2524.70327	24045.375
2527.42616	23948.575
2530.14734	23954.175
2532.86681	23935.975
2535.58458	23877.475
2538.30065	23859.175
2541.01501	23902.875
2543.72768	23799.075
2546.43864	23752.475
2549.14791	23760.175
2551.85548	23700.275
2554.56136	23636.575
2557.26554	23624.975
2559.96803	23598.575
2562.66883	23556.475
2565.36794	23524.975
2568.06536	23483.875
2570.7611	23418.575
2573.45514	23455.875
2576.14751	23423.975
2578.83819	23346.275
2581.52719	23327.375
2584.21451	23280.475
2586.90015	23250.575
2589.58411	23184.175
2592.2664	23168.875
2594.94701	23088.275
2597.62594	23087.775
2600.30321	23044.475
2602.9788	23048.975
2605.65273	22973.075
2608.32498	22994.575
2610.99557	22946.575
2613.66449	22944.075
2616.33175	22913.275
2618.99734	22923.875
2621.66128	22860.175
2624.32355	22842.475
2626.98416	22804.275
2629.64311	22787.575
2632.30041	22776.075
2634.95605	22770.675
2637.61004	22709.775
2640.26238	22616.675
2642.91306	22575.775
2645.56209	22551.375
2648.20948	22525.275
2650.85521	22585.275
2653.4993	22598.575
2656.14175	22541.375
2658.78255	22569.575
2661.42171	22588.875
2664.05923	22611.775
2666.6951	22578.975
2669.32934	22592.275
2671.96194	22558.875
2674.59291	22554.375
2677.22224	22578.775
2679.84993	22610.175
2682.476	22592.375
2685.10043	22561.175
2687.72324	22537.775
2690.34441	22538.775
2692.96396	22542.075
2695.58188	22542.675
2698.19818	22504.475
2700.81285	22521.175
2703.4259	22508.875
2706.03733	22520.275
2708.64714	22548.875
2711.25533	22543.275
2713.86191	22536.075
2716.46687	22544.275
2719.07021	22547.175
2721.67194	22561.275
2724.27206	22516.375
2726.87057	22570.375
2729.46747	22607.275
2732.06276	22598.475
2734.65644	22565.075
2737.24852	22610.275
2739.83899	22506.275
2742.42786	22508.075
2745.01513	22421.575
2747.60079	22448.675
2750.18486	22388.975
2752.76733	22356.875
2755.3482	22327.875
2757.92747	22316.575
2760.50515	22258.575
2763.08123	22238.475
2765.65573	22235.475
2768.22863	22218.275
2770.79994	22187.775
2773.36967	22216.975
2775.9378	22135.875
2778.50435	22135.975
2781.06932	22094.175
2783.6327	22048.575
2786.1945	22014.575
2788.75471	22016.575
2791.31335	21941.875
2793.87041	21952.575
2796.42589	21875.375
2798.97979	21891.575
2801.53212	21819.575
2804.08288	21779.875
2806.63206	21664.975
2809.17967	21660.975
2811.72571	21598.375
2814.27018	21595.075
2816.81308	21540.475
2819.35442	21487.175
2821.89419	21447.475
2824.43239	21439.975
2826.96904	21406.775
2829.50412	21370.475
2832.03763	21374.875
2834.56959	21364.075
2837.1	21301.475
2839.62884	21276.675
2842.15613	21274.975
2844.68186	21258.675
2847.20604	21247.875
2849.72867	21190.075
2852.24974	21165.975
2854.76927	21157.675
2857.28724	21159.775
2859.80367	21125.775
2862.31855	21112.575
2864.83189	21076.575
2867.34368	21026.075
2869.85393	21004.575
2872.36264	20983.175
2874.8698	20931.775
2877.37543	20938.875
2879.87952	20906.075
2882.38207	20882.875
2884.88308	20854.775
2887.38256	20846.875
2889.88051	20817.575
2892.37692	20822.975
2894.8718	20844.775
2897.36515	20864.975
2899.85698	20867.575
2902.34727	20927.675
2904.83604	20880.275
2907.32328	20898.375
2909.809	20925.975
2912.29319	20951.275
2914.77587	20870.975
2917.25702	20936.775
2919.73665	20929.975
2922.21476	20875.475
2924.69136	20851.175
2927.16644	20821.775
2929.64	20826.175
2932.11205	20740.775
2934.58258	20692.675
2937.05161	20761.275
2939.51912	20735.475
2941.98513	20723.675
2944.44962	20705.875
2946.91261	20602.775
2949.37409	20661.675
2951.83407	20616.475
2954.29254	20690.775
2956.74951	20606.675
2959.20498	20619.375
2961.65895	20624.675
2964.11142	20618.875
2966.56239	20591.375
2969.01186	20617.075
2971.45984	20579.075
2973.90632	20593.275
2976.35131	20504.175
2978.7948	20479.575
2981.23681	20452.475
2983.67732	20427.275
2986.11635	20385.175
2988.55388	20329.875
2990.98993	20297.875
2993.4245	20232.975
2995.85758	20185.275
2998.28917	20168.675
3000.71928	20106.375
3003.14791	20053.375
3005.57506	20046.075
3008.00073	19973.875
3010.42493	19964.075
3012.84764	19914.375
3015.26888	19906.375
3017.68865	19855.775
3020.10694	19818.675
3022.52376	19783.575
3024.9391	19752.175
3027.35298	19745.275
3029.76539	19722.575
3032.17632	19692.775
3034.5858	19635.075
3036.9938	19621.075
3039.40034	19599.975
3041.80542	19571.975
3044.20903	19525.175
3046.61118	19490.175
3049.01187	19425.975
3051.4111	19468.075
3053.80888	19421.775
3056.20519	19433.275
3058.60005	19344.775
3060.99345	19316.875
3063.3854	19271.175
3065.7759	19207.275
3068.16494	19181.975
3070.55254	19060.775
3072.93868	19086.675
3075.32338	19019.975
3077.70662	18970.575
3080.08842	18946.875
3082.46878	18924.875
3084.84769	18884.175
3087.22515	18892.875
3089.60118	18840.975
3091.97576	18849.475
3094.3489	18844.475
3096.72061	18840.775
3099.09087	18844.975
3101.4597	18847.975
3103.82709	18823.275
3106.19305	18807.175
3108.55757	18768.375
3110.92066	18711.475
3113.28232	18729.275
3115.64255	18673.375
3118.00134	18695.375
3120.35871	18662.975
3122.71466	18570.375
3125.06917	18552.575
3127.42226	18537.675
3129.77393	18542.675
