Data from AgNPs_UA_5uM_CRN_0uM_R6G_10uM_Q_RamanShift__22__11-14-55-316.txt Node

Date: Mon Jul 18 11:14:55 BST 2022
User: TCL
Spectrometer: QEP01345
Trigger mode: 4
Integration Time (sec): 7.000000E0
Scans to average: 10
Electric dark correction enabled: true
Nonlinearity correction enabled: false
Boxcar width: 0
XAxis mode: Raman Shifts
Number of Pixels in Spectrum: 1044
>>>>>Begin Spectral Data<<<<<
46.04893	-1.675
50.45542	-2.775
54.85868	-2.075
59.25871	-1.875
63.6555	167.325
68.04907	173.025
72.43941	176.825
76.82654	181.425
81.21044	185.625
85.59113	188.925
89.96862	198.625
94.34289	203.125
98.71396	212.625
103.08183	214.425
107.4465	218.825
111.80798	230.525
116.16626	238.225
120.52136	252.125
124.87327	258.725
129.222	280.525
133.56755	299.125
137.90993	326.625
142.24913	358.725
146.58517	405.425
150.91804	471.525
155.24774	567.525
159.57429	713.125
163.89768	920.225
168.21792	1226.625
172.53501	1668.925
176.84895	2335.025
181.15975	3303.725
185.46741	4605.725
189.77193	6359.625
194.07331	8456.925
198.37157	10878.225
202.6667	13420.925
206.9587	15874.325
211.24758	18339.425
215.53334	20833.525
219.81599	23485.225
224.09553	26473.025
228.37195	29855.825
232.64527	33535.525
236.91549	37340.325
241.18261	41073.625
245.44663	44395.225
249.70755	47396.325
253.96539	49958.925
258.22014	52187.325
262.4718	53944.825
266.72039	55213.825
270.96589	55758.225
275.20832	55797.025
279.44768	55399.725
283.68397	54714.425
287.91719	54192.025
292.14735	53884.125
296.37445	54085.125
300.59849	54542.125
304.81948	55110.025
309.03742	55541.125
313.25231	55304.025
317.46415	54255.725
321.67296	52765.525
325.87872	51628.025
330.08145	51261.625
334.28114	51487.725
338.47781	52190.425
342.67145	52993.625
346.86207	54185.625
351.04966	55621.925
355.23424	57240.125
359.4158	58759.125
363.59435	59990.225
367.76989	60722.625
371.94243	61279.325
376.11196	61636.225
380.27849	62043.225
384.44203	62410.025
388.60257	62727.825
392.76012	63116.225
396.91468	63876.125
401.06626	65017.025
405.21485	65779.525
409.36047	65618.625
413.50311	64562.325
417.64277	63682.225
421.77947	63425.225
425.9132	63511.025
430.04396	63959.025
434.17176	64683.225
438.2966	65878.225
442.41849	67554.925
446.53742	69984.025
450.6534	72523.825
454.76644	74518.125
458.87653	75104.025
462.98368	74372.725
467.08789	72985.525
471.18916	71209.125
475.2875	69263.625
479.38291	67635.725
483.4754	66521.925
487.56496	65509.625
491.6516	64589.925
495.73531	63982.125
499.81612	63876.725
503.89401	64145.925
507.96899	64357.125
512.04106	64358.125
516.11023	64550.825
520.1765	64789.125
524.23987	64858.925
528.30034	64717.025
532.35792	64363.125
536.41261	63697.825
540.46441	62942.425
544.51333	62732.825
548.55936	63424.125
552.60252	64417.625
556.64279	65477.625
560.6802	66092.525
564.71473	66566.325
568.7464	67533.025
572.7752	68445.725
576.80114	68750.625
580.82422	69212.525
584.84444	70452.325
588.86181	72332.025
592.87633	74492.625
596.888	75981.125
600.89682	76874.525
604.9028	81348.125
608.90594	91759.625
612.90624	100247.425
616.90371	92204.225
620.89834	76795.025
624.89015	71516.325
628.87913	71142.825
632.86528	70029.325
636.84862	68293.625
640.82913	66517.925
644.80683	64499.525
648.78172	63224.625
652.75379	63285.125
656.72306	64712.025
660.68952	66375.525
664.65319	66032.625
668.61405	65022.725
672.57211	64762.925
676.52738	64747.625
680.47986	64298.225
684.42955	63996.525
688.37646	64115.925
692.32058	64625.625
696.26192	65391.525
700.20048	66051.225
704.13626	66127.825
708.06928	65461.325
711.99952	64838.525
715.927	64783.725
719.85171	64939.825
723.77365	64688.925
727.69284	64091.925
731.60928	63654.625
735.52295	63889.325
739.43388	64349.725
743.34206	64770.625
747.24749	65243.525
751.15017	65814.025
755.05012	66876.925
758.94733	68860.625
762.8418	72711.125
766.73354	78649.925
770.62254	84247.025
774.50882	85782.525
778.39237	82143.625
782.27321	75843.325
786.15132	70500.425
790.02671	67286.325
793.89938	65908.025
797.76935	65463.425
801.6366	65268.325
805.50115	65039.725
809.36299	64568.325
813.22213	64189.625
817.07857	63894.525
820.93231	63838.925
824.78336	63918.525
828.63172	64160.925
832.47738	64264.925
836.32036	64551.225
840.16066	65045.925
843.99827	65549.425
847.8332	65248.525
851.66546	64708.225
855.49504	64558.325
859.32195	64469.625
863.1462	64126.925
866.96777	63756.525
870.78668	63593.925
874.60293	63615.125
878.41652	63824.325
882.22745	64180.425
886.03573	64415.725
889.84136	64449.125
893.64433	64051.125
897.44466	63753.125
901.24235	63554.225
905.0374	63440.925
908.8298	63275.025
912.61957	63406.525
916.40671	64058.725
920.19121	65114.125
923.97308	66400.925
927.75233	67382.525
931.52895	67629.925
935.30295	66841.425
939.07433	65405.425
942.84309	64513.325
946.60924	64191.525
950.37278	63848.625
954.13371	63230.225
957.89203	62744.825
961.64774	62483.825
965.40086	62251.125
969.15137	62064.225
972.89929	61921.425
976.64461	62046.725
980.38733	62346.525
984.12747	62888.025
987.86502	63708.525
991.59999	65105.625
995.33237	67385.025
999.06217	71216.025
1002.78939	75117.825
1006.51404	76520.625
1010.23611	76631.125
1013.95561	77167.925
1017.67255	77866.725
1021.38692	77661.425
1025.09872	77829.325
1028.80796	80121.625
1032.51465	84483.325
1036.21877	87815.625
1039.92035	87455.425
1043.61937	84446.325
1047.31584	79878.025
1051.00976	75488.725
1054.70114	73163.925
1058.38998	72581.125
1062.07627	72614.225
1065.76003	72385.525
1069.44126	72518.625
1073.11995	72882.625
1076.79611	73658.225
1080.46974	74348.925
1084.14085	75203.825
1087.80943	76118.325
1091.47549	76072.225
1095.13903	75041.025
1098.80005	73619.625
1102.45857	72617.125
1106.11456	72380.925
1109.76805	72853.225
1113.41903	73646.725
1117.06751	74696.225
1120.71348	75614.925
1124.35696	76356.225
1127.99793	77109.325
1131.63641	77003.725
1135.2724	76096.225
1138.90589	75113.525
1142.5369	74339.225
1146.16542	73886.425
1149.79145	73855.425
1153.415	74370.425
1157.03607	75152.425
1160.65467	76658.225
1164.27079	79166.425
1167.88443	83086.225
1171.49561	88743.125
1175.10432	96541.725
1178.71056	106394.925
1182.31434	115389.725
1185.91565	120428.725
1189.51451	120001.425
1193.11091	114451.125
1196.70485	107414.625
1200.29634	101443.725
1203.88538	97120.925
1207.47197	93610.425
1211.05612	91133.025
1214.63782	90200.225
1218.21708	91118.925
1221.79391	92586.025
1225.36829	93593.225
1228.94024	92643.325
1232.50976	90191.625
1236.07685	88354.325
1239.6415	87751.425
1243.20374	87937.525
1246.76355	88778.525
1250.32093	90447.925
1253.8759	92983.425
1257.42845	96134.925
1260.97859	98779.125
1264.52631	101044.025
1268.07163	103650.725
1271.61453	106710.225
1275.15503	110616.925
1278.69312	114778.025
1282.22882	117853.925
1285.76211	119894.425
1289.29301	121344.425
1292.82151	123260.925
1296.34761	126767.325
1299.87133	132504.225
1303.39266	141188.125
1306.9116	152675.325
1310.42815	164782.625
1313.94233	172525.025
1317.45412	172092.625
1320.96354	166263.325
1324.47058	158927.525
1327.97525	152455.925
1331.47754	148474.625
1334.97747	147260.425
1338.47502	147955.425
1341.97022	149532.525
1345.46305	150434.925
1348.95352	150379.325
1352.44163	151422.625
1355.92738	155866.925
1359.41078	164797.425
1362.89183	172073.925
1366.37053	167232.625
1369.84688	150998.525
1373.32088	133483.225
1376.79254	121972.825
1380.26186	116259.625
1383.72883	114181.525
1387.19347	112864.025
1390.65578	110863.625
1394.11575	109686.125
1397.57339	110619.625
1401.0287	112997.825
1404.48168	115575.325
1407.93234	117895.625
1411.38068	119677.325
1414.82669	119589.225
1418.27039	116737.225
1421.71177	112760.125
1425.15083	109653.125
1428.58758	108478.125
1432.02203	109343.325
1435.45416	111308.525
1438.88399	112832.125
1442.31151	113647.225
1445.73673	114186.025
1449.15965	114520.125
1452.58027	114027.025
1455.9986	112992.125
1459.41463	112672.525
1462.82837	113995.325
1466.23982	116313.125
1469.64898	118869.525
1473.05586	120767.925
1476.46045	122165.425
1479.86276	123152.125
1483.26279	123564.325
1486.66054	124219.025
1490.05602	124965.125
1493.44922	126060.225
1496.84016	127127.025
1500.22882	129022.125
1503.61521	132215.425
1506.99934	136648.225
1510.38121	140594.725
1513.76081	141465.025
1517.13816	137944.025
1520.51324	131965.825
1523.88607	126164.825
1527.25665	122400.225
1530.62498	120107.825
1533.99105	118649.825
1537.35488	117709.325
1540.71647	117166.025
1544.07581	116203.125
1547.4329	114664.125
1550.78776	112693.225
1554.14038	110953.925
1557.49077	109826.225
1560.83892	109169.925
1564.18484	108847.425
1567.52853	108805.625
1570.86999	108652.325
1574.20922	109000.725
1577.54624	109221.025
1580.88103	108419.325
1584.2136	108317.525
1587.54395	111052.525
1590.87208	117758.025
1594.19801	128363.125
1597.52172	140129.925
1600.84321	145850.025
1604.16251	141569.425
1607.47959	130371.525
1610.79447	117399.425
1614.10715	105950.925
1617.41763	97490.625
1620.7259	92081.025
1624.03199	89645.825
1627.33587	90356.925
1630.63757	93839.625
1633.93707	100021.525
1637.23439	108393.725
1640.52951	118182.725
1643.82246	127903.125
1647.11321	133972.425
1650.40179	132843.225
1653.68819	122959.325
1656.97241	108027.925
1660.25446	94218.725
1663.53433	84346.625
1666.81203	78006.825
1670.08756	74090.525
1673.36092	71461.825
1676.63211	69649.025
1679.90115	68327.825
1683.16801	67248.225
1686.43272	66607.825
1689.69527	65996.225
1692.95567	65630.025
1696.2139	65255.725
1699.46999	65084.125
1702.72392	64985.525
1705.97571	64937.225
1709.22535	64858.425
1712.47284	64907.825
1715.71819	64887.225
1718.96139	64758.425
1722.20246	64489.325
1725.44139	64102.025
1728.67818	63866.225
1731.91284	63472.625
1735.14537	63286.725
1738.37576	63024.725
1741.60403	62841.925
1744.83017	62672.725
1748.05418	62544.925
1751.27607	62474.525
1754.49584	62322.225
1757.71349	62332.525
1760.92903	62260.325
1764.14244	62187.325
1767.35375	62141.425
1770.56294	62034.825
1773.77002	61992.425
1776.97499	62056.225
1780.17785	61915.425
1783.37861	61824.925
1786.57727	61755.925
1789.77382	61727.825
1792.96828	61691.425
1796.16064	61678.425
1799.3509	61700.825
1802.53907	61602.825
1805.72514	61520.425
1808.90913	61439.325
1812.09102	61318.025
1815.27083	61182.825
1818.44856	61079.825
1821.6242	61069.725
1824.79776	61009.025
1827.96924	60893.825
1831.13864	60713.525
1834.30597	60772.125
1837.47122	60776.825
1840.6344	60683.425
1843.7955	60799.425
1846.95454	60826.925
1850.11151	60719.025
1853.26642	60649.825
1856.41926	60641.625
1859.57004	60719.025
1862.71876	60791.725
1865.86542	60836.325
1869.01003	60849.325
1872.15258	60881.125
1875.29308	60895.625
1878.43152	60791.825
1881.56792	60777.325
1884.70227	60770.025
1887.83457	60734.625
1890.96482	60730.725
1894.09304	60812.325
1897.21921	60729.625
1900.34335	60785.825
1903.46544	60782.025
1906.58551	60752.325
1909.70353	60706.525
1912.81953	60631.425
1915.93349	60590.225
1919.04543	60498.925
1922.15534	60554.625
1925.26322	60404.525
1928.36908	60390.225
1931.47292	60360.625
1934.57473	60128.225
1937.67453	60116.725
1940.77232	59932.925
1943.86808	59795.825
1946.96184	59608.525
1950.05358	59403.125
1953.14331	59205.725
1956.23103	59128.125
1959.31675	58889.925
1962.40046	58778.425
1965.48217	58616.225
1968.56188	58475.925
1971.63959	58342.725
1974.7153	58195.425
1977.78901	58064.525
1980.86073	57901.825
1983.93046	57691.725
1986.99819	57479.725
1990.06394	57355.425
1993.1277	57229.825
1996.18947	57017.125
1999.24925	56934.125
2002.30706	56850.025
2005.36288	56787.725
2008.41672	56707.025
2011.46859	56515.325
2014.51848	56389.525
2017.56639	56375.725
2020.61233	56286.125
2023.6563	56189.725
2026.6983	56036.125
2029.73833	55900.525
2032.7764	55774.525
2035.8125	55768.225
2038.84664	55733.725
2041.87881	55750.825
2044.90903	55568.025
2047.93729	55498.025
2050.96359	55539.325
2053.98794	55517.825
2057.01034	55501.225
2060.03078	55437.325
2063.04927	55380.225
2066.06582	55303.525
2069.08042	55235.125
2072.09307	55257.425
2075.10378	55192.725
2078.11255	55121.325
2081.11938	55080.725
2084.12426	55016.825
2087.12722	54917.225
2090.12824	54862.525
2093.12732	54902.025
2096.12447	54929.225
2099.11969	55025.925
2102.11299	54992.725
2105.10435	55093.425
2108.09379	55129.625
2111.08131	55154.125
2114.0669	55060.825
2117.05057	55150.625
2120.03233	55237.825
2123.01216	55255.325
2125.99008	55290.925
2128.96609	55386.625
2131.94018	55499.525
2134.91236	55494.025
2137.88263	55478.825
2140.851	55598.725
2143.81746	55572.725
2146.78201	55654.825
2149.74466	55777.925
2152.7054	55813.425
2155.66425	55767.925
2158.6212	55713.825
2161.57625	55669.225
2164.52941	55676.325
2167.48067	55656.625
2170.43004	55733.425
2173.37752	55775.625
2176.32311	55732.925
2179.26681	55721.625
2182.20863	55767.125
2185.14856	55899.425
2188.08661	56001.525
2191.02278	56053.725
2193.95707	56000.725
2196.88948	56034.025
2199.82001	56080.225
2202.74867	56147.925
2205.67545	56144.325
2208.60037	56150.725
2211.52341	56099.225
2214.44458	56041.825
2217.36388	56004.625
2220.28132	56037.025
2223.1969	55933.525
2226.11061	55882.625
2229.02246	55769.725
2231.93245	55743.025
2234.84058	55643.525
2237.74686	55373.625
2240.65128	55339.525
2243.55385	55229.925
2246.45456	55236.725
2249.35343	55157.325
2252.25044	55112.125
2255.14561	55097.425
2258.03893	55006.125
2260.93041	54991.825
2263.82004	54831.525
2266.70783	54774.425
2269.59378	54677.625
2272.4779	54600.125
2275.36017	54367.225
2278.24061	54300.925
2281.11922	54185.125
2283.996	54174.925
2286.87094	54132.125
2289.74405	54052.425
2292.61534	54052.325
2295.4848	54078.225
2298.35243	54180.525
2301.21824	54197.125
2304.08223	54238.925
2306.94439	54364.725
2309.80474	54472.125
2312.66327	54614.725
2315.51999	54646.725
2318.37489	54754.325
2321.22797	54783.325
2324.07925	54711.625
2326.92871	54587.225
2329.77637	54656.425
2332.62222	54672.025
2335.46626	54744.325
2338.3085	54858.825
2341.14893	54953.025
2343.98756	55045.325
2346.8244	55064.925
2349.65943	55283.125
2352.49267	55273.525
2355.32411	55302.325
2358.15376	55152.025
2360.98161	55074.225
2363.80768	54986.525
2366.63195	54918.625
2369.45444	54682.425
2372.27514	54561.225
2375.09405	54448.625
2377.91118	54361.225
2380.72652	54156.725
2383.54009	54001.825
2386.35187	54047.025
2389.16188	53976.225
2391.97011	53887.325
2394.77657	53927.125
2397.58125	53860.425
2400.38416	53692.725
2403.18529	53559.625
2405.98466	53598.325
2408.78226	53430.425
2411.57809	53324.825
2414.37216	53202.725
2417.16446	53106.725
2419.955	52922.525
2422.74378	52971.825
2425.5308	52927.925
2428.31606	52830.625
2431.09956	52848.925
2433.88131	52810.025
2436.6613	52888.725
2439.43954	52959.625
2442.21603	52961.325
2444.99077	52932.125
2447.76377	52904.725
2450.53501	52792.625
2453.30451	52836.925
2456.07226	52781.725
2458.83827	52725.825
2461.60254	52739.825
2464.36507	52814.825
2467.12586	52825.725
2469.88492	52843.225
2472.64224	52748.725
2475.39782	52780.525
2478.15167	52912.625
2480.90379	53087.925
2483.65417	53234.325
2486.40283	53321.325
2489.14976	53424.425
2491.89497	53424.525
2494.63845	53536.825
2497.3802	53411.525
2500.12024	53530.725
2502.85855	53444.325
2505.59514	53461.125
2508.33002	53374.125
2511.06318	53331.625
2513.79462	53345.925
2516.52435	53282.725
2519.25237	53251.325
2521.97867	53192.325
2524.70327	53237.025
2527.42616	53191.625
2530.14734	53203.325
2532.86681	53215.325
2535.58458	53205.825
2538.30065	53234.525
2541.01501	53402.525
2543.72768	53344.125
2546.43864	53339.125
2549.14791	53213.625
2551.85548	53299.725
2554.56136	53187.025
2557.26554	53152.425
2559.96803	53053.625
2562.66883	53044.425
2565.36794	53052.125
2568.06536	52973.825
2570.7611	52974.525
2573.45514	52922.525
2576.14751	52881.525
2578.83819	52921.425
2581.52719	52990.525
2584.21451	52986.025
2586.90015	53071.825
2589.58411	53072.825
2592.2664	53122.425
2594.94701	53050.025
2597.62594	53165.725
2600.30321	53149.025
2602.9788	53142.925
2605.65273	53029.925
2608.32498	53045.625
2610.99557	53126.425
2613.66449	53228.825
2616.33175	53256.025
2618.99734	53362.825
2621.66128	53376.125
2624.32355	53421.025
2626.98416	53608.625
2629.64311	53741.125
2632.30041	53763.425
2634.95605	53744.625
2637.61004	53627.125
2640.26238	53632.725
2642.91306	53458.025
2645.56209	53369.125
2648.20948	53247.525
2650.85521	53151.325
2653.4993	53094.725
2656.14175	53091.925
2658.78255	53212.325
2661.42171	53281.425
2664.05923	53385.525
2666.6951	53467.125
2669.32934	53538.525
2671.96194	53605.325
2674.59291	53613.525
2677.22224	53506.125
2679.84993	53469.425
2682.476	53432.125
2685.10043	53376.325
2687.72324	53214.325
2690.34441	53237.225
2692.96396	53148.025
2695.58188	53124.625
2698.19818	53040.425
2700.81285	53152.525
2703.4259	53030.625
2706.03733	53146.725
2708.64714	53111.125
2711.25533	53112.025
2713.86191	53150.125
2716.46687	53354.525
2719.07021	53340.925
2721.67194	53373.025
2724.27206	53308.025
2726.87057	53380.125
2729.46747	53267.725
2732.06276	53381.225
2734.65644	53358.125
2737.24852	53442.425
2739.83899	53370.125
2742.42786	53350.225
2745.01513	53235.325
2747.60079	53225.425
2750.18486	53264.925
2752.76733	53376.725
2755.3482	53351.925
2757.92747	53435.025
2760.50515	53431.325
2763.08123	53390.925
2765.65573	53262.125
2768.22863	53327.025
2770.79994	53340.225
2773.36967	53397.425
2775.9378	53366.625
2778.50435	53368.125
2781.06932	53516.225
2783.6327	53490.525
2786.1945	53437.925
2788.75471	53388.625
2791.31335	53246.425
2793.87041	53157.125
2796.42589	53027.725
2798.97979	53046.225
2801.53212	52971.125
2804.08288	52988.125
2806.63206	52880.425
2809.17967	52778.625
2811.72571	52754.925
2814.27018	52660.325
2816.81308	52519.525
2819.35442	52521.225
2821.89419	52355.625
2824.43239	52474.125
2826.96904	52406.925
2829.50412	52413.325
2832.03763	52422.625
2834.56959	52483.125
2837.1	52458.225
2839.62884	52450.025
2842.15613	52311.025
2844.68186	52238.425
2847.20604	52114.425
2849.72867	52149.525
2852.24974	52078.125
2854.76927	51982.225
2857.28724	51950.525
2859.80367	51966.725
2862.31855	51997.625
2864.83189	52041.225
2867.34368	51959.825
2869.85393	51992.125
2872.36264	51819.625
2874.8698	51823.725
2877.37543	51882.525
2879.87952	51849.225
2882.38207	51831.925
2884.88308	51858.325
2887.38256	51865.425
2889.88051	51845.225
2892.37692	51887.125
2894.8718	51923.825
2897.36515	52104.825
2899.85698	52126.825
2902.34727	52257.525
2904.83604	52302.925
2907.32328	52494.825
2909.809	52572.625
2912.29319	52684.825
2914.77587	52636.125
2917.25702	52628.625
2919.73665	52497.725
2922.21476	52591.325
2924.69136	52451.625
2927.16644	52351.525
2929.64	52315.425
2932.11205	52218.325
2934.58258	51970.125
2937.05161	52033.425
2939.51912	52043.725
2941.98513	52012.425
2944.44962	52051.425
2946.91261	51914.325
2949.37409	51996.925
2951.83407	51946.325
2954.29254	51976.225
2956.74951	51977.525
2959.20498	51969.525
2961.65895	51825.525
2964.11142	51894.425
2966.56239	51866.425
2969.01186	51820.025
2971.45984	51706.825
2973.90632	51638.325
2976.35131	51471.825
2978.7948	51421.225
2981.23681	51254.025
2983.67732	51151.625
2986.11635	51018.925
2988.55388	50968.325
2990.98993	50929.425
2993.4245	50718.625
2995.85758	50654.925
2998.28917	50564.425
3000.71928	50464.625
3003.14791	50358.425
3005.57506	50232.225
3008.00073	49989.025
3010.42493	49916.325
3012.84764	49835.225
3015.26888	49786.925
3017.68865	49738.225
3020.10694	49642.825
3022.52376	49512.225
3024.9391	49498.125
3027.35298	49440.725
3029.76539	49488.125
3032.17632	49423.925
3034.5858	49410.825
3036.9938	49366.025
3039.40034	49376.625
3041.80542	49391.925
3044.20903	49208.825
3046.61118	49173.625
3049.01187	49035.025
3051.4111	49058.925
3053.80888	48978.025
3056.20519	48915.625
3058.60005	48651.325
3060.99345	48508.925
3063.3854	48422.125
3065.7759	48311.925
3068.16494	48207.125
3070.55254	47966.925
3072.93868	47914.925
3075.32338	47724.425
3077.70662	47711.925
3080.08842	47545.525
3082.46878	47563.725
3084.84769	47533.425
3087.22515	47487.425
3089.60118	47528.625
3091.97576	47427.925
3094.3489	47418.125
3096.72061	47337.225
3099.09087	47411.925
3101.4597	47335.225
3103.82709	47273.425
3106.19305	47172.825
3108.55757	47188.225
3110.92066	47122.725
3113.28232	47085.625
3115.64255	47025.025
