Data from AgNPs_UA_5uM_CRN_0uM_R6G_10uM_Q_RamanShift__26__11-19-35-322.txt Node

Date: Mon Jul 18 11:19:35 BST 2022
User: TCL
Spectrometer: QEP01345
Trigger mode: 4
Integration Time (sec): 7.000000E0
Scans to average: 10
Electric dark correction enabled: true
Nonlinearity correction enabled: false
Boxcar width: 0
XAxis mode: Raman Shifts
Number of Pixels in Spectrum: 1044
>>>>>Begin Spectral Data<<<<<
46.04893	-1.0375
50.45542	-2.0375
54.85868	-2.6375
59.25871	-2.0375
63.6555	158.0625
68.04907	164.4625
72.43941	172.2625
76.82654	178.4625
81.21044	185.2625
85.59113	185.5625
89.96862	190.0625
94.34289	197.6625
98.71396	202.4625
103.08183	212.9625
107.4465	217.7625
111.80798	221.7625
116.16626	231.2625
120.52136	239.4625
124.87327	252.4625
129.222	261.8625
133.56755	280.4625
137.90993	305.3625
142.24913	337.2625
146.58517	381.2625
150.91804	447.3625
155.24774	531.3625
159.57429	656.9625
163.89768	841.4625
168.21792	1130.5625
172.53501	1548.1625
176.84895	2142.2625
181.15975	3015.1625
185.46741	4219.0625
189.77193	5800.3625
194.07331	7754.8625
198.37157	9966.8625
202.6667	12288.5625
206.9587	14567.9625
211.24758	16806.6625
215.53334	19139.2625
219.81599	21580.5625
224.09553	24340.7625
228.37195	27452.8625
232.64527	30938.7625
236.91549	34493.5625
241.18261	37965.8625
245.44663	41079.6625
249.70755	43879.2625
253.96539	46278.8625
258.22014	48261.2625
262.4718	49996.1625
266.72039	51121.6625
270.96589	51710.5625
275.20832	51728.9625
279.44768	51335.2625
283.68397	50739.0625
287.91719	50297.5625
292.14735	50008.6625
296.37445	50190.5625
300.59849	50804.8625
304.81948	51631.4625
309.03742	52021.6625
313.25231	51775.1625
317.46415	50625.7625
321.67296	48981.8625
325.87872	47730.3625
330.08145	47312.2625
334.28114	47569.8625
338.47781	48302.3625
342.67145	49175.8625
346.86207	50451.0625
351.04966	52073.3625
355.23424	53846.4625
359.4158	55532.0625
363.59435	56801.1625
367.76989	57577.8625
371.94243	58105.3625
376.11196	58367.8625
380.27849	58706.9625
384.44203	59051.0625
388.60257	59147.0625
392.76012	59556.7625
396.91468	60340.7625
401.06626	61550.1625
405.21485	62481.7625
409.36047	62300.9625
413.50311	61275.2625
417.64277	60300.1625
421.77947	59956.5625
425.9132	60032.2625
430.04396	60507.8625
434.17176	61259.7625
438.2966	62527.8625
442.41849	64328.9625
446.53742	66672.0625
450.6534	69314.4625
454.76644	71297.8625
458.87653	72052.6625
462.98368	71368.1625
467.08789	69889.5625
471.18916	67872.8625
475.2875	65778.4625
479.38291	64181.0625
483.4754	63070.0625
487.56496	62141.0625
491.6516	61123.6625
495.73531	60385.2625
499.81612	60204.6625
503.89401	60394.3625
507.96899	60600.6625
512.04106	60805.3625
516.11023	61178.3625
520.1765	61510.4625
524.23987	61644.0625
528.30034	61413.0625
532.35792	60987.5625
536.41261	60359.7625
540.46441	59683.8625
544.51333	59616.6625
548.55936	60272.6625
552.60252	61207.1625
556.64279	61826.5625
560.6802	62063.0625
564.71473	62441.0625
568.7464	63436.5625
572.7752	64422.5625
576.80114	64381.8625
580.82422	64566.1625
584.84444	65558.8625
588.86181	67095.4625
592.87633	68916.9625
596.888	70431.8625
600.89682	72187.4625
604.9028	77968.0625
608.90594	89578.6625
612.90624	98817.3625
616.90371	90768.5625
620.89834	75071.1625
624.89015	69889.4625
628.87913	69618.1625
632.86528	67824.6625
636.84862	65527.7625
640.82913	63636.0625
644.80683	61604.1625
648.78172	60432.4625
652.75379	60687.6625
656.72306	62375.0625
660.68952	64195.9625
664.65319	63957.5625
668.61405	62852.1625
672.57211	62356.4625
676.52738	62073.1625
680.47986	61767.7625
684.42955	61670.0625
688.37646	61973.4625
692.32058	62391.6625
696.26192	62803.1625
700.20048	63376.3625
704.13626	63378.6625
708.06928	62718.0625
711.99952	62163.9625
715.927	62223.4625
719.85171	62247.3625
723.77365	61846.1625
727.69284	61274.9625
731.60928	61165.3625
735.52295	61377.5625
739.43388	61879.3625
743.34206	62434.2625
747.24749	63134.4625
751.15017	63738.4625
755.05012	64978.2625
758.94733	67019.2625
762.8418	70882.7625
766.73354	76849.2625
770.62254	82455.7625
774.50882	84233.8625
778.39237	80577.5625
782.27321	73932.5625
786.15132	68243.8625
790.02671	65031.0625
793.89938	63729.7625
797.76935	63383.1625
801.6366	63250.9625
805.50115	62971.3625
809.36299	62555.9625
813.22213	62144.2625
817.07857	61985.7625
820.93231	61985.3625
824.78336	62154.7625
828.63172	62492.8625
832.47738	62706.5625
836.32036	63135.1625
840.16066	63856.9625
843.99827	64318.7625
847.8332	63881.8625
851.66546	63125.7625
855.49504	63000.8625
859.32195	62857.4625
863.1462	62369.2625
866.96777	61978.7625
870.78668	61708.8625
874.60293	61875.9625
878.41652	61946.4625
882.22745	62321.9625
886.03573	62559.4625
889.84136	62437.4625
893.64433	62110.0625
897.44466	61821.3625
901.24235	61782.5625
905.0374	61733.5625
908.8298	61651.1625
912.61957	61931.5625
916.40671	62666.0625
920.19121	63867.3625
923.97308	65224.9625
927.75233	66265.5625
931.52895	66699.9625
935.30295	65843.3625
939.07433	64234.8625
942.84309	63272.4625
946.60924	62927.6625
950.37278	62498.2625
954.13371	61736.1625
957.89203	61000.7625
961.64774	60732.4625
965.40086	60452.8625
969.15137	60164.4625
972.89929	60099.7625
976.64461	60195.2625
980.38733	60509.4625
984.12747	61049.5625
987.86502	61888.6625
991.59999	63231.5625
995.33237	65811.9625
999.06217	70216.8625
1002.78939	74725.8625
1006.51404	76206.5625
1010.23611	76151.7625
1013.95561	76988.7625
1017.67255	77977.9625
1021.38692	77949.8625
1025.09872	78568.7625
1028.80796	81533.0625
1032.51465	86901.7625
1036.21877	90581.1625
1039.92035	89771.6625
1043.61937	85975.5625
1047.31584	80493.3625
1051.00976	75356.6625
1054.70114	72752.7625
1058.38998	72161.8625
1062.07627	71995.2625
1065.76003	71555.7625
1069.44126	71152.2625
1073.11995	71420.9625
1076.79611	71804.6625
1080.46974	72316.5625
1084.14085	73125.2625
1087.80943	73959.9625
1091.47549	73834.3625
1095.13903	72524.0625
1098.80005	71005.2625
1102.45857	69980.9625
1106.11456	69866.5625
1109.76805	70545.9625
1113.41903	71544.5625
1117.06751	72615.3625
1120.71348	73744.5625
1124.35696	74753.8625
1127.99793	75464.0625
1131.63641	75313.3625
1135.2724	74189.1625
1138.90589	73044.5625
1142.5369	72064.1625
1146.16542	71439.1625
1149.79145	71329.5625
1153.415	71950.0625
1157.03607	72715.6625
1160.65467	73939.3625
1164.27079	76171.0625
1167.88443	79710.3625
1171.49561	85063.8625
1175.10432	92872.6625
1178.71056	102953.0625
1182.31434	112312.5625
1185.91565	118014.8625
1189.51451	118212.7625
1193.11091	112191.2625
1196.70485	104180.4625
1200.29634	97744.5625
1203.88538	93129.2625
1207.47197	89561.1625
1211.05612	87163.0625
1214.63782	86745.7625
1218.21708	87870.8625
1221.79391	89587.1625
1225.36829	90766.4625
1228.94024	90196.6625
1232.50976	88143.1625
1236.07685	86537.6625
1239.6415	86215.8625
1243.20374	86388.9625
1246.76355	87199.7625
1250.32093	88814.7625
1253.8759	91678.2625
1257.42845	94935.2625
1260.97859	97564.5625
1264.52631	99289.6625
1268.07163	101340.7625
1271.61453	104241.3625
1275.15503	108108.5625
1278.69312	112736.9625
1282.22882	116523.6625
1285.76211	118730.4625
1289.29301	119927.4625
1292.82151	121354.2625
1296.34761	124302.5625
1299.87133	129676.3625
1303.39266	138152.9625
1306.9116	150033.5625
1310.42815	162786.2625
1313.94233	170729.8625
1317.45412	169572.3625
1320.96354	162585.9625
1324.47058	154313.3625
1327.97525	147917.3625
1331.47754	144698.9625
1334.97747	144538.7625
1338.47502	146220.6625
1341.97022	148702.2625
1345.46305	150172.1625
1348.95352	150499.0625
1352.44163	151391.0625
1355.92738	155853.9625
1359.41078	165554.2625
1362.89183	173268.8625
1366.37053	167742.7625
1369.84688	150403.6625
1373.32088	132669.4625
1376.79254	120854.7625
1380.26186	114970.2625
1383.72883	112443.0625
1387.19347	110854.0625
1390.65578	108619.0625
1394.11575	107297.2625
1397.57339	107871.5625
1401.0287	110305.2625
1404.48168	113356.3625
1407.93234	116574.0625
1411.38068	119558.7625
1414.82669	120332.2625
1418.27039	117729.6625
1421.71177	113487.1625
1425.15083	110263.8625
1428.58758	109217.0625
1432.02203	110142.7625
1435.45416	111937.0625
1438.88399	112960.8625
1442.31151	113396.9625
1445.73673	113596.4625
1449.15965	113616.8625
1452.58027	112652.4625
1455.9986	111109.7625
1459.41463	110401.9625
1462.82837	111101.1625
1466.23982	113203.5625
1469.64898	115889.1625
1473.05586	117815.3625
1476.46045	119648.0625
1479.86276	121439.8625
1483.26279	122713.5625
1486.66054	123928.4625
1490.05602	125393.4625
1493.44922	127264.8625
1496.84016	129185.9625
1500.22882	131494.5625
1503.61521	134955.3625
1506.99934	139563.1625
1510.38121	143614.7625
1513.76081	144411.9625
1517.13816	140752.8625
1520.51324	134194.2625
1523.88607	128091.2625
1527.25665	123793.6625
1530.62498	121027.0625
1533.99105	119207.0625
1537.35488	118100.3625
1540.71647	117663.6625
1544.07581	117044.9625
1547.4329	115642.0625
1550.78776	113637.9625
1554.14038	111811.1625
1557.49077	110506.3625
1560.83892	109575.2625
1564.18484	109046.7625
1567.52853	108606.5625
1570.86999	108033.1625
1574.20922	107867.8625
1577.54624	107731.1625
1580.88103	106609.5625
1584.2136	106194.2625
1587.54395	108784.8625
1590.87208	115966.7625
1594.19801	127684.3625
1597.52172	141103.7625
1600.84321	148524.4625
1604.16251	145047.0625
1607.47959	133199.0625
1610.79447	119069.7625
1614.10715	106754.1625
1617.41763	98059.7625
1620.7259	92679.9625
1624.03199	90503.4625
1627.33587	91324.2625
1630.63757	95040.6625
1633.93707	101241.9625
1637.23439	109178.1625
1640.52951	117741.4625
1643.82246	125535.7625
1647.11321	129954.3625
1650.40179	128637.9625
1653.68819	119690.5625
1656.97241	105937.0625
1660.25446	93155.5625
1663.53433	83858.7625
1666.81203	77969.4625
1670.08756	74176.6625
1673.36092	71649.5625
1676.63211	69923.9625
1679.90115	68677.6625
1683.16801	67729.7625
1686.43272	66943.9625
1689.69527	66401.0625
1692.95567	66078.4625
1696.2139	65842.6625
1699.46999	65655.2625
1702.72392	65655.6625
1705.97571	65516.2625
1709.22535	65454.0625
1712.47284	65547.1625
1715.71819	65593.3625
1718.96139	65515.6625
1722.20246	65302.9625
1725.44139	64915.9625
1728.67818	64602.8625
1731.91284	64391.8625
1735.14537	64055.9625
1738.37576	63841.4625
1741.60403	63652.5625
1744.83017	63471.2625
1748.05418	63382.9625
1751.27607	63363.6625
1754.49584	63248.5625
1757.71349	63237.2625
1760.92903	63143.4625
1764.14244	63105.8625
1767.35375	63100.5625
1770.56294	62963.8625
1773.77002	63003.9625
1776.97499	62991.5625
1780.17785	62886.9625
1783.37861	62816.0625
1786.57727	62834.5625
1789.77382	62808.0625
1792.96828	62767.6625
1796.16064	62869.8625
1799.3509	62848.4625
1802.53907	62771.3625
1805.72514	62657.1625
1808.90913	62594.4625
1812.09102	62558.6625
1815.27083	62341.8625
1818.44856	62241.4625
1821.6242	62315.5625
1824.79776	62120.7625
1827.96924	62086.9625
1831.13864	61912.6625
1834.30597	62005.4625
1837.47122	61864.9625
1840.6344	61900.5625
1843.7955	62016.0625
1846.95454	62033.9625
1850.11151	61985.6625
1853.26642	61941.9625
1856.41926	61943.2625
1859.57004	62014.3625
1862.71876	62090.2625
1865.86542	62182.6625
1869.01003	62170.7625
1872.15258	62309.9625
1875.29308	62289.1625
1878.43152	62208.6625
1881.56792	62162.8625
1884.70227	62244.3625
1887.83457	62094.9625
1890.96482	62102.9625
1894.09304	62246.9625
1897.21921	62180.5625
1900.34335	62167.5625
1903.46544	62144.2625
1906.58551	62174.3625
1909.70353	62134.0625
1912.81953	62128.7625
1915.93349	62047.0625
1919.04543	62017.5625
1922.15534	62026.0625
1925.26322	62011.8625
1928.36908	61931.5625
1931.47292	61886.7625
1934.57473	61757.7625
1937.67453	61648.4625
1940.77232	61635.2625
1943.86808	61429.9625
1946.96184	61193.3625
1950.05358	61064.0625
1953.14331	60881.6625
1956.23103	60669.2625
1959.31675	60411.3625
1962.40046	60372.1625
1965.48217	60213.0625
1968.56188	60042.8625
1971.63959	59923.5625
1974.7153	59753.8625
1977.78901	59654.7625
1980.86073	59453.8625
1983.93046	59239.2625
1986.99819	58995.8625
1990.06394	58889.9625
1993.1277	58744.2625
1996.18947	58599.6625
1999.24925	58498.9625
2002.30706	58398.8625
2005.36288	58304.0625
2008.41672	58256.6625
2011.46859	58064.1625
2014.51848	57903.4625
2017.56639	57893.5625
2020.61233	57837.1625
2023.6563	57685.4625
2026.6983	57546.0625
2029.73833	57406.8625
2032.7764	57310.9625
2035.8125	57334.1625
2038.84664	57291.3625
2041.87881	57240.6625
2044.90903	57165.5625
2047.93729	57021.5625
2050.96359	57178.2625
2053.98794	57069.1625
2057.01034	57061.0625
2060.03078	57010.5625
2063.04927	56869.9625
2066.06582	56806.4625
2069.08042	56742.7625
2072.09307	56824.2625
2075.10378	56722.6625
2078.11255	56624.2625
2081.11938	56587.0625
2084.12426	56476.9625
2087.12722	56317.3625
2090.12824	56243.6625
2093.12732	56274.5625
2096.12447	56367.0625
2099.11969	56391.6625
2102.11299	56435.2625
2105.10435	56465.3625
2108.09379	56476.6625
2111.08131	56520.2625
2114.0669	56482.9625
2117.05057	56467.5625
2120.03233	56565.9625
2123.01216	56558.0625
2125.99008	56609.3625
2128.96609	56720.4625
2131.94018	56759.4625
2134.91236	56786.1625
2137.88263	56856.6625
2140.851	56858.2625
2143.81746	56888.7625
2146.78201	57007.8625
2149.74466	57055.1625
2152.7054	57096.8625
2155.66425	57039.0625
2158.6212	57089.6625
2161.57625	57068.2625
2164.52941	57045.4625
2167.48067	57031.2625
2170.43004	57067.4625
2173.37752	56962.3625
2176.32311	56971.9625
2179.26681	56965.4625
2182.20863	57132.8625
2185.14856	57218.7625
2188.08661	57267.2625
2191.02278	57336.2625
2193.95707	57374.4625
2196.88948	57389.5625
2199.82001	57416.8625
2202.74867	57466.8625
2205.67545	57539.9625
2208.60037	57483.7625
2211.52341	57513.4625
2214.44458	57492.2625
2217.36388	57384.4625
2220.28132	57462.2625
2223.1969	57357.2625
2226.11061	57303.9625
2229.02246	57217.9625
2231.93245	57157.2625
2234.84058	56998.1625
2237.74686	56766.7625
2240.65128	56663.5625
2243.55385	56572.0625
2246.45456	56558.1625
2249.35343	56460.0625
2252.25044	56463.5625
2255.14561	56379.1625
2258.03893	56370.9625
2260.93041	56245.5625
2263.82004	56120.9625
2266.70783	56057.6625
2269.59378	55904.9625
2272.4779	55866.1625
2275.36017	55652.7625
2278.24061	55402.8625
2281.11922	55439.1625
2283.996	55349.1625
2286.87094	55339.5625
2289.74405	55351.2625
2292.61534	55308.1625
2295.4848	55316.6625
2298.35243	55398.5625
2301.21824	55420.7625
2304.08223	55439.8625
2306.94439	55617.0625
2309.80474	55760.4625
2312.66327	55938.5625
2315.51999	56018.3625
2318.37489	56096.4625
2321.22797	56077.8625
2324.07925	56051.9625
2326.92871	56054.4625
2329.77637	55982.6625
2332.62222	56047.9625
2335.46626	56093.5625
2338.3085	56229.1625
2341.14893	56404.5625
2343.98756	56544.0625
2346.8244	56638.3625
2349.65943	56841.1625
2352.49267	56872.4625
2355.32411	56849.7625
2358.15376	56699.7625
2360.98161	56578.3625
2363.80768	56547.1625
2366.63195	56323.6625
2369.45444	56064.1625
2372.27514	55922.8625
2375.09405	55769.9625
2377.91118	55611.0625
2380.72652	55432.4625
2383.54009	55247.5625
2386.35187	55188.8625
2389.16188	55168.5625
2391.97011	55176.2625
2394.77657	55128.4625
2397.58125	55048.1625
2400.38416	54955.2625
2403.18529	54782.8625
2405.98466	54766.8625
2408.78226	54549.9625
2411.57809	54386.4625
2414.37216	54272.8625
2417.16446	54130.0625
2419.955	53945.7625
2422.74378	54044.2625
2425.5308	53910.4625
2428.31606	53884.8625
2431.09956	53921.5625
2433.88131	53863.6625
2436.6613	53964.8625
2439.43954	53939.5625
2442.21603	53936.8625
2444.99077	53873.5625
2447.76377	53880.7625
2450.53501	53802.2625
2453.30451	53866.3625
2456.07226	53708.2625
2458.83827	53636.9625
2461.60254	53693.4625
2464.36507	53721.9625
2467.12586	53733.3625
2469.88492	53764.0625
2472.64224	53702.2625
2475.39782	53703.8625
2478.15167	53874.3625
2480.90379	54002.9625
2483.65417	54206.2625
2486.40283	54313.2625
2489.14976	54467.6625
2491.89497	54486.4625
2494.63845	54553.6625
2497.3802	54536.1625
2500.12024	54595.7625
2502.85855	54572.3625
2505.59514	54550.6625
2508.33002	54424.2625
2511.06318	54339.4625
2513.79462	54292.7625
2516.52435	54233.0625
2519.25237	54148.0625
2521.97867	54174.8625
2524.70327	54184.4625
2527.42616	54121.2625
2530.14734	54194.3625
2532.86681	54075.8625
2535.58458	54179.4625
2538.30065	54222.3625
2541.01501	54349.2625
2543.72768	54293.8625
2546.43864	54287.1625
2549.14791	54177.2625
2551.85548	54251.3625
2554.56136	54172.9625
2557.26554	54089.0625
2559.96803	54027.3625
2562.66883	53955.5625
2565.36794	53951.5625
2568.06536	53847.4625
2570.7611	53822.5625
2573.45514	53839.5625
2576.14751	53781.8625
2578.83819	53766.7625
2581.52719	53906.9625
2584.21451	54020.2625
2586.90015	54041.9625
2589.58411	54049.2625
2592.2664	54106.8625
2594.94701	54087.4625
2597.62594	54194.4625
2600.30321	54241.6625
2602.9788	54195.7625
2605.65273	54091.3625
2608.32498	54074.8625
2610.99557	54147.6625
2613.66449	54242.8625
2616.33175	54353.0625
2618.99734	54357.6625
2621.66128	54515.8625
2624.32355	54617.1625
2626.98416	54817.0625
2629.64311	54958.8625
2632.30041	55012.0625
2634.95605	54950.0625
2637.61004	54829.3625
2640.26238	54800.9625
2642.91306	54576.3625
2645.56209	54458.3625
2648.20948	54321.7625
2650.85521	54206.3625
2653.4993	54118.2625
2656.14175	54061.0625
2658.78255	54197.0625
2661.42171	54290.7625
2664.05923	54482.6625
2666.6951	54447.2625
2669.32934	54621.8625
2671.96194	54635.0625
2674.59291	54720.8625
2677.22224	54606.5625
2679.84993	54623.6625
2682.476	54444.5625
2685.10043	54464.1625
2687.72324	54304.9625
2690.34441	54345.4625
2692.96396	54151.8625
2695.58188	54207.8625
2698.19818	54054.1625
2700.81285	54119.4625
2703.4259	53998.9625
2706.03733	54113.5625
2708.64714	54084.5625
2711.25533	54075.7625
2713.86191	54100.2625
2716.46687	54301.2625
2719.07021	54258.3625
2721.67194	54283.3625
2724.27206	54236.6625
2726.87057	54294.8625
2729.46747	54251.2625
2732.06276	54314.3625
2734.65644	54223.9625
2737.24852	54324.0625
2739.83899	54336.8625
2742.42786	54304.6625
2745.01513	54147.6625
2747.60079	54095.7625
2750.18486	54117.7625
2752.76733	54229.1625
2755.3482	54254.8625
2757.92747	54323.7625
2760.50515	54351.7625
2763.08123	54292.8625
2765.65573	54184.1625
2768.22863	54222.6625
2770.79994	54260.5625
2773.36967	54340.2625
2775.9378	54274.9625
2778.50435	54304.8625
2781.06932	54367.4625
2783.6327	54461.7625
2786.1945	54398.7625
2788.75471	54339.0625
2791.31335	54180.0625
2793.87041	54109.8625
2796.42589	53917.9625
2798.97979	54005.2625
2801.53212	53880.3625
2804.08288	53893.3625
2806.63206	53715.6625
2809.17967	53728.2625
2811.72571	53646.5625
2814.27018	53589.9625
2816.81308	53473.0625
2819.35442	53384.4625
2821.89419	53373.9625
2824.43239	53421.6625
2826.96904	53417.1625
2829.50412	53367.1625
2832.03763	53422.1625
2834.56959	53463.4625
2837.1	53406.3625
2839.62884	53516.4625
2842.15613	53337.9625
2844.68186	53292.5625
2847.20604	53153.8625
2849.72867	53117.7625
2852.24974	52997.9625
2854.76927	53043.2625
2857.28724	52864.7625
2859.80367	52904.6625
2862.31855	52920.8625
2864.83189	52961.7625
2867.34368	52907.0625
2869.85393	52881.0625
2872.36264	52779.4625
2874.8698	52715.5625
2877.37543	52792.0625
2879.87952	52739.1625
2882.38207	52728.9625
2884.88308	52723.3625
2887.38256	52786.9625
2889.88051	52758.6625
2892.37692	52741.3625
2894.8718	52841.0625
2897.36515	52998.0625
2899.85698	52922.6625
2902.34727	53089.4625
2904.83604	53109.2625
2907.32328	53367.2625
2909.809	53462.0625
2912.29319	53565.3625
2914.77587	53581.1625
2917.25702	53485.2625
2919.73665	53409.8625
2922.21476	53382.3625
2924.69136	53319.5625
2927.16644	53191.6625
2929.64	53119.7625
2932.11205	53015.1625
2934.58258	52813.6625
2937.05161	52836.2625
2939.51912	52872.2625
2941.98513	52848.1625
2944.44962	52864.5625
2946.91261	52717.6625
2949.37409	52797.2625
2951.83407	52734.6625
2954.29254	52827.8625
2956.74951	52753.4625
2959.20498	52721.5625
2961.65895	52638.8625
2964.11142	52580.0625
2966.56239	52571.7625
2969.01186	52520.9625
2971.45984	52358.6625
2973.90632	52312.5625
2976.35131	52121.3625
2978.7948	52011.6625
2981.23681	51825.5625
2983.67732	51766.3625
2986.11635	51609.5625
2988.55388	51499.7625
2990.98993	51448.1625
2993.4245	51269.5625
2995.85758	51182.2625
2998.28917	51036.2625
3000.71928	51009.2625
3003.14791	50836.6625
3005.57506	50780.3625
3008.00073	50500.3625
3010.42493	50417.6625
3012.84764	50317.0625
