Data from AgNPs_UA_2uM_CRN_0uM_R6G_10uM_Q_RamanShift__6__13-08-01-904.txt Node

Date: Wed Jul 13 13:08:01 BST 2022
User: TCL
Spectrometer: QEP01345
Trigger mode: 4
Integration Time (sec): 7.000000E0
Scans to average: 10
Electric dark correction enabled: true
Nonlinearity correction enabled: false
Boxcar width: 0
XAxis mode: Raman Shifts
Number of Pixels in Spectrum: 1044
>>>>>Begin Spectral Data<<<<<
46.04893	-1.625
50.45542	-1.825
54.85868	-0.225
59.25871	-1.825
63.6555	104.975
68.04907	111.775
72.43941	113.475
76.82654	116.875
81.21044	127.075
85.59113	131.375
89.96862	139.475
94.34289	137.575
98.71396	140.175
103.08183	149.375
107.4465	150.875
111.80798	155.975
116.16626	160.875
120.52136	166.675
124.87327	173.275
129.222	178.275
133.56755	194.475
137.90993	209.075
142.24913	223.375
146.58517	252.875
150.91804	294.975
155.24774	348.675
159.57429	429.575
163.89768	547.475
168.21792	722.675
172.53501	975.475
176.84895	1365.175
181.15975	1927.675
185.46741	2694.075
189.77193	3703.975
194.07331	4968.575
198.37157	6376.975
202.6667	7862.975
206.9587	9326.975
211.24758	10782.175
215.53334	12236.475
219.81599	13841.975
224.09553	15582.375
228.37195	17485.175
232.64527	19573.775
236.91549	21763.475
241.18261	23920.975
245.44663	25725.375
249.70755	27340.575
253.96539	28790.775
258.22014	30028.975
262.4718	31062.675
266.72039	31707.275
270.96589	32006.175
275.20832	31913.775
279.44768	31682.075
283.68397	31365.975
287.91719	31030.975
292.14735	30934.275
296.37445	31067.175
300.59849	31423.175
304.81948	31848.075
309.03742	32225.575
313.25231	32329.675
317.46415	31950.075
321.67296	31332.775
325.87872	30795.075
330.08145	30538.475
334.28114	30554.775
338.47781	30874.175
342.67145	31391.075
346.86207	32035.575
351.04966	32819.575
355.23424	33508.375
359.4158	33997.875
363.59435	34305.975
367.76989	34447.475
371.94243	34523.575
376.11196	34569.575
380.27849	34659.375
384.44203	34813.575
388.60257	35039.175
392.76012	35262.975
396.91468	35688.275
401.06626	36218.975
405.21485	36451.775
409.36047	36191.075
413.50311	35609.475
417.64277	35243.575
421.77947	35170.575
425.9132	35274.275
430.04396	35435.975
434.17176	35579.875
438.2966	36039.575
442.41849	36739.075
446.53742	37898.875
450.6534	38977.775
454.76644	39522.275
458.87653	39513.575
462.98368	39137.875
467.08789	38550.275
471.18916	37893.775
475.2875	37210.275
479.38291	36613.675
483.4754	36271.075
487.56496	36006.275
491.6516	35775.375
495.73531	35628.175
499.81612	35691.475
503.89401	35984.075
507.96899	36044.075
512.04106	36070.875
516.11023	36055.375
520.1765	36026.175
524.23987	36118.175
528.30034	36133.575
532.35792	35918.375
536.41261	35587.875
540.46441	35196.675
544.51333	35115.175
548.55936	35385.675
552.60252	36009.375
556.64279	36881.475
560.6802	37421.175
564.71473	37723.175
568.7464	38263.175
572.7752	38943.075
576.80114	39518.575
580.82422	40272.475
584.84444	41557.575
588.86181	43450.075
592.87633	45322.075
596.888	45416.775
600.89682	43881.175
604.9028	44077.675
608.90594	47725.175
612.90624	51258.675
616.90371	47329.975
620.89834	40094.175
624.89015	37393.075
628.87913	37180.875
632.86528	37406.875
636.84862	37367.675
640.82913	36738.975
644.80683	35940.475
648.78172	35483.075
652.75379	35598.275
656.72306	36317.275
660.68952	36898.275
664.65319	36536.575
668.61405	35944.775
672.57211	35952.275
676.52738	36102.675
680.47986	35980.775
684.42955	35623.175
688.37646	35545.075
692.32058	35898.975
696.26192	36412.175
700.20048	36920.675
704.13626	37191.175
708.06928	37076.175
711.99952	36921.375
715.927	36937.675
719.85171	37103.775
723.77365	36951.175
727.69284	36502.375
731.60928	36141.875
735.52295	36226.875
739.43388	36324.075
743.34206	36484.675
747.24749	36657.175
751.15017	36942.075
755.05012	37543.275
758.94733	38611.875
762.8418	40748.575
766.73354	43985.375
770.62254	46567.475
774.50882	46566.575
778.39237	44509.875
782.27321	41769.175
786.15132	39405.275
790.02671	37948.575
793.89938	37133.975
797.76935	36832.875
801.6366	36636.175
805.50115	36523.375
809.36299	36400.475
813.22213	36286.275
817.07857	36188.675
820.93231	36066.075
824.78336	36029.875
828.63172	36036.475
832.47738	36044.475
836.32036	36043.375
840.16066	36086.475
843.99827	36144.775
847.8332	36118.775
851.66546	36206.175
855.49504	36311.175
859.32195	36295.675
863.1462	36216.275
866.96777	36138.575
870.78668	36153.875
874.60293	36218.775
878.41652	36373.375
882.22745	36565.275
886.03573	36645.975
889.84136	36648.075
893.64433	36454.975
897.44466	36340.475
901.24235	36281.475
905.0374	36224.975
908.8298	36121.375
912.61957	36200.775
916.40671	36387.075
920.19121	36777.575
923.97308	37170.575
927.75233	37315.175
931.52895	37097.375
935.30295	36653.775
939.07433	36048.775
942.84309	35712.175
946.60924	35558.775
950.37278	35499.075
954.13371	35471.975
957.89203	35423.675
961.64774	35372.375
965.40086	35357.775
969.15137	35359.075
972.89929	35285.475
976.64461	35273.575
980.38733	35299.775
984.12747	35414.975
987.86502	35634.875
991.59999	35873.775
995.33237	36254.475
999.06217	36827.375
1002.78939	37541.275
1006.51404	38178.175
1010.23611	38813.375
1013.95561	39096.175
1017.67255	39137.775
1021.38692	38766.475
1025.09872	38136.575
1028.80796	37882.575
1032.51465	38124.175
1036.21877	38423.875
1039.92035	38514.075
1043.61937	38450.075
1047.31584	38153.975
1051.00976	37859.175
1054.70114	37752.375
1058.38998	37873.875
1062.07627	38089.775
1065.76003	38419.975
1069.44126	38756.675
1073.11995	39384.275
1076.79611	40004.575
1080.46974	40426.275
1084.14085	40801.775
1087.80943	41247.075
1091.47549	41400.075
1095.13903	41140.475
1098.80005	40533.475
1102.45857	39827.275
1106.11456	39378.975
1109.76805	39277.675
1113.41903	39371.175
1117.06751	39659.875
1120.71348	40203.875
1124.35696	40720.275
1127.99793	41153.675
1131.63641	41074.075
1135.2724	40627.675
1138.90589	40241.975
1142.5369	40170.175
1146.16542	40283.675
1149.79145	40418.775
1153.415	40514.275
1157.03607	40776.775
1160.65467	41399.475
1164.27079	42733.875
1167.88443	44467.575
1171.49561	46865.075
1175.10432	50000.575
1178.71056	53897.175
1182.31434	56942.475
1185.91565	57675.975
1189.51451	56497.775
1193.11091	54587.275
1196.70485	52640.175
1200.29634	50906.375
1203.88538	49672.275
1207.47197	48646.575
1211.05612	47764.875
1214.63782	46997.375
1218.21708	46349.875
1221.79391	45928.975
1225.36829	45813.075
1228.94024	45643.575
1232.50976	45006.675
1236.07685	44259.175
1239.6415	43721.275
1243.20374	43683.575
1246.76355	43945.275
1250.32093	44481.675
1253.8759	45188.675
1257.42845	46302.875
1260.97859	47488.675
1264.52631	48745.275
1268.07163	49966.475
1271.61453	51065.375
1275.15503	52120.075
1278.69312	53094.875
1282.22882	54081.375
1285.76211	55393.175
1289.29301	57164.175
1292.82151	59197.675
1296.34761	61714.875
1299.87133	64935.275
1303.39266	68914.375
1306.9116	73062.875
1310.42815	77045.675
1313.94233	78966.775
1317.45412	77637.675
1320.96354	74624.575
1324.47058	71637.275
1327.97525	69051.675
1331.47754	67196.975
1334.97747	65990.475
1338.47502	65331.375
1341.97022	65091.975
1345.46305	65435.375
1348.95352	66442.175
1352.44163	67952.675
1355.92738	70748.075
1359.41078	75029.675
1362.89183	78670.375
1366.37053	77156.475
1369.84688	70039.775
1373.32088	61973.575
1376.79254	56918.375
1380.26186	54963.775
1383.72883	54710.675
1387.19347	54494.675
1390.65578	53742.475
1394.11575	53153.075
1397.57339	53177.675
1401.0287	53328.275
1404.48168	53370.675
1407.93234	53090.075
1411.38068	52335.475
1414.82669	51385.575
1418.27039	50225.675
1421.71177	48995.575
1425.15083	48095.875
1428.58758	47900.075
1432.02203	48515.175
1435.45416	49680.175
1438.88399	50670.675
1442.31151	51124.675
1445.73673	51289.875
1449.15965	51298.675
1452.58027	51004.075
1455.9986	50659.575
1459.41463	50750.275
1462.82837	51297.775
1466.23982	52107.875
1469.64898	52906.475
1473.05586	53478.875
1476.46045	53751.875
1479.86276	53748.975
1483.26279	53684.075
1486.66054	54016.375
1490.05602	54743.775
1493.44922	55826.475
1496.84016	57191.075
1500.22882	59356.275
1503.61521	62225.575
1506.99934	65399.675
1510.38121	67808.075
1513.76081	67804.375
1517.13816	65130.775
1520.51324	61341.175
1523.88607	58537.275
1527.25665	57129.075
1530.62498	56654.075
1533.99105	56292.375
1537.35488	55487.775
1540.71647	54395.175
1544.07581	53132.875
1547.4329	51951.475
1550.78776	51087.875
1554.14038	50570.775
1557.49077	50272.375
1560.83892	50378.575
1564.18484	50872.475
1567.52853	51444.475
1570.86999	52118.575
1574.20922	52812.075
1577.54624	52909.975
1580.88103	52172.075
1584.2136	51538.275
1587.54395	52122.175
1590.87208	54100.575
1594.19801	57077.675
1597.52172	59974.375
1600.84321	60645.575
1604.16251	58502.575
1607.47959	54915.875
1610.79447	51091.275
1614.10715	47491.775
1617.41763	44704.275
1620.7259	42917.475
1624.03199	42149.775
1627.33587	42329.675
1630.63757	43347.575
1633.93707	45597.775
1637.23439	49561.975
1640.52951	55532.075
1643.82246	62712.675
1647.11321	68322.875
1650.40179	69121.875
1653.68819	64149.375
1656.97241	55989.875
1660.25446	48525.975
1663.53433	43337.175
1666.81203	40231.875
1670.08756	38355.175
1673.36092	37147.075
1676.63211	36367.775
1679.90115	35743.075
1683.16801	35404.675
1686.43272	35072.375
1689.69527	34863.275
1692.95567	34670.475
1696.2139	34576.075
1699.46999	34509.975
1702.72392	34392.575
1705.97571	34404.175
1709.22535	34361.375
1712.47284	34381.575
1715.71819	34351.175
1718.96139	34268.075
1722.20246	34202.275
1725.44139	34057.675
1728.67818	33916.675
1731.91284	33790.775
1735.14537	33639.375
1738.37576	33490.675
1741.60403	33381.075
1744.83017	33309.775
1748.05418	33295.875
1751.27607	33225.475
1754.49584	33153.375
1757.71349	33103.475
1760.92903	33106.975
1764.14244	33044.175
1767.35375	32985.875
1770.56294	32984.575
1773.77002	32983.375
1776.97499	32947.275
1780.17785	32825.875
1783.37861	32796.175
1786.57727	32724.075
1789.77382	32716.675
1792.96828	32697.175
1796.16064	32612.375
1799.3509	32602.275
1802.53907	32546.375
1805.72514	32507.875
1808.90913	32398.875
1812.09102	32347.175
1815.27083	32248.575
1818.44856	32187.875
1821.6242	32168.275
1824.79776	32123.275
1827.96924	32073.575
1831.13864	32046.575
1834.30597	32066.875
1837.47122	32045.275
1840.6344	32004.875
1843.7955	31952.075
1846.95454	31928.375
1850.11151	31925.775
1853.26642	31846.275
1856.41926	31855.975
1859.57004	31873.675
1862.71876	31887.275
1865.86542	31833.575
1869.01003	31804.775
1872.15258	31766.375
1875.29308	31751.775
1878.43152	31713.775
1881.56792	31702.475
1884.70227	31662.475
1887.83457	31663.675
1890.96482	31627.775
1894.09304	31564.875
1897.21921	31599.175
1900.34335	31570.575
1903.46544	31513.475
1906.58551	31520.775
1909.70353	31518.275
1912.81953	31435.775
1915.93349	31405.075
1919.04543	31375.375
1922.15534	31257.175
1925.26322	31185.475
1928.36908	31179.575
1931.47292	31158.075
1934.57473	31100.475
1937.67453	31015.775
1940.77232	30932.175
1943.86808	30829.575
1946.96184	30790.775
1950.05358	30689.675
1953.14331	30617.175
1956.23103	30527.475
1959.31675	30482.375
1962.40046	30425.075
1965.48217	30330.475
1968.56188	30239.275
1971.63959	30132.575
1974.7153	30069.375
1977.78901	29991.675
1980.86073	29908.175
1983.93046	29857.475
1986.99819	29663.875
1990.06394	29636.975
1993.1277	29591.075
1996.18947	29449.475
1999.24925	29456.875
2002.30706	29394.975
2005.36288	29309.875
2008.41672	29217.775
2011.46859	29140.475
2014.51848	29069.175
2017.56639	28972.475
2020.61233	28897.375
2023.6563	28865.175
2026.6983	28788.875
2029.73833	28696.775
2032.7764	28636.775
2035.8125	28610.575
2038.84664	28558.075
2041.87881	28481.775
2044.90903	28451.775
2047.93729	28405.675
2050.96359	28406.675
2053.98794	28374.175
2057.01034	28381.675
2060.03078	28324.975
2063.04927	28282.975
2066.06582	28237.675
2069.08042	28219.375
2072.09307	28226.575
2075.10378	28236.575
2078.11255	28211.575
2081.11938	28216.175
2084.12426	28162.275
2087.12722	28114.775
2090.12824	28114.675
2093.12732	28127.775
2096.12447	28176.575
2099.11969	28193.975
2102.11299	28177.575
2105.10435	28181.175
2108.09379	28204.575
2111.08131	28242.375
2114.0669	28248.575
2117.05057	28303.575
2120.03233	28287.675
2123.01216	28342.075
2125.99008	28343.575
2128.96609	28421.675
2131.94018	28441.075
2134.91236	28479.775
2137.88263	28480.775
2140.851	28426.275
2143.81746	28501.275
2146.78201	28504.675
2149.74466	28537.575
2152.7054	28565.875
2155.66425	28479.375
2158.6212	28496.475
2161.57625	28458.975
2164.52941	28516.375
2167.48067	28500.075
2170.43004	28503.475
2173.37752	28455.775
2176.32311	28492.475
2179.26681	28443.175
2182.20863	28458.575
2185.14856	28479.775
2188.08661	28496.175
2191.02278	28512.775
2193.95707	28522.875
2196.88948	28482.375
2199.82001	28434.575
2202.74867	28393.175
2205.67545	28380.975
2208.60037	28330.475
2211.52341	28328.575
2214.44458	28280.275
2217.36388	28195.975
2220.28132	28190.975
2223.1969	28106.075
2226.11061	28086.175
2229.02246	28016.675
2231.93245	27998.075
2234.84058	27957.275
2237.74686	27969.675
2240.65128	27919.775
2243.55385	27929.275
2246.45456	27906.775
2249.35343	27866.675
2252.25044	27849.975
2255.14561	27818.675
2258.03893	27778.475
2260.93041	27727.575
2263.82004	27663.475
2266.70783	27618.575
2269.59378	27550.775
2272.4779	27456.475
2275.36017	27405.675
2278.24061	27333.975
2281.11922	27295.575
2283.996	27286.175
2286.87094	27232.175
2289.74405	27167.275
2292.61534	27174.375
2295.4848	27159.375
2298.35243	27199.875
2301.21824	27121.875
2304.08223	27163.275
2306.94439	27139.275
2309.80474	27122.075
2312.66327	27164.175
2315.51999	27128.875
2318.37489	27075.075
2321.22797	27063.075
2324.07925	27051.175
2326.92871	26989.475
2329.77637	26988.875
2332.62222	26930.675
2335.46626	26920.975
2338.3085	26918.075
2341.14893	26876.775
2343.98756	26896.675
2346.8244	26811.575
2349.65943	26842.175
2352.49267	26802.275
2355.32411	26864.875
2358.15376	26880.975
2360.98161	26849.175
2363.80768	26826.775
2366.63195	26795.775
2369.45444	26782.075
2372.27514	26726.675
2375.09405	26721.875
2377.91118	26678.575
2380.72652	26644.175
2383.54009	26564.875
2386.35187	26553.575
2389.16188	26451.575
2391.97011	26407.475
2394.77657	26351.075
2397.58125	26282.375
2400.38416	26278.975
2403.18529	26229.175
2405.98466	26240.075
2408.78226	26163.775
2411.57809	26119.775
2414.37216	26145.275
2417.16446	26131.975
2419.955	26057.775
2422.74378	26084.975
2425.5308	26039.875
2428.31606	26015.475
2431.09956	26038.475
2433.88131	25972.875
2436.6613	25975.775
2439.43954	25999.775
2442.21603	25982.475
2444.99077	25954.075
2447.76377	25980.275
2450.53501	25962.375
2453.30451	25949.875
2456.07226	25921.975
2458.83827	25914.275
2461.60254	25883.575
2464.36507	25817.775
2467.12586	25830.475
2469.88492	25796.275
2472.64224	25845.875
2475.39782	25828.475
2478.15167	25872.775
2480.90379	25869.875
2483.65417	25945.575
2486.40283	25932.475
2489.14976	25935.675
2491.89497	25866.275
2494.63845	25872.475
2497.3802	25865.175
2500.12024	25884.075
2502.85855	25841.775
2505.59514	25815.275
2508.33002	25767.975
2511.06318	25801.375
2513.79462	25675.775
2516.52435	25667.775
2519.25237	25628.275
2521.97867	25589.275
2524.70327	25590.575
2527.42616	25554.075
2530.14734	25553.975
2532.86681	25535.575
2535.58458	25500.675
2538.30065	25458.175
2541.01501	25435.275
2543.72768	25456.375
2546.43864	25419.475
2549.14791	25402.375
2551.85548	25381.975
2554.56136	25346.175
2557.26554	25306.875
2559.96803	25245.175
2562.66883	25221.175
2565.36794	25241.175
2568.06536	25202.175
2570.7611	25153.675
2573.45514	25154.375
2576.14751	25167.575
2578.83819	25084.875
2581.52719	25063.375
2584.21451	25041.575
2586.90015	25012.675
2589.58411	25016.475
2592.2664	25011.375
2594.94701	24914.475
2597.62594	24933.475
2600.30321	24877.875
2602.9788	24882.175
2605.65273	24825.575
2608.32498	24829.475
2610.99557	24822.975
2613.66449	24812.475
2616.33175	24802.675
2618.99734	24858.975
2621.66128	24793.675
2624.32355	24734.875
2626.98416	24756.275
2629.64311	24694.275
2632.30041	24653.875
2634.95605	24646.175
2637.61004	24584.175
2640.26238	24551.175
2642.91306	24553.575
2645.56209	24500.975
2648.20948	24541.875
2650.85521	24483.975
2653.4993	24541.275
2656.14175	24522.075
2658.78255	24576.075
2661.42171	24532.875
2664.05923	24576.675
2666.6951	24562.175
2669.32934	24616.575
2671.96194	24594.975
2674.59291	24626.475
2677.22224	24596.675
2679.84993	24614.175
2682.476	24524.175
2685.10043	24602.775
2687.72324	24539.075
2690.34441	24580.875
2692.96396	24557.175
2695.58188	24544.775
2698.19818	24548.575
2700.81285	24522.975
2703.4259	24563.275
2706.03733	24567.675
2708.64714	24556.275
2711.25533	24651.975
2713.86191	24597.375
2716.46687	24631.675
2719.07021	24604.675
2721.67194	24651.275
2724.27206	24602.275
2726.87057	24625.775
2729.46747	24645.875
2732.06276	24755.675
2734.65644	24670.175
2737.24852	24702.475
2739.83899	24636.675
2742.42786	24623.975
2745.01513	24600.675
2747.60079	24534.675
2750.18486	24447.775
2752.76733	24487.275
2755.3482	24487.975
2757.92747	24477.975
2760.50515	24423.975
2763.08123	24434.375
2765.65573	24375.775
2768.22863	24406.675
2770.79994	24372.275
2773.36967	24410.975
2775.9378	24318.475
2778.50435	24312.675
2781.06932	24318.075
2783.6327	24319.075
2786.1945	24231.075
2788.75471	24308.475
2791.31335	24187.075
2793.87041	24183.675
2796.42589	24121.875
2798.97979	24135.775
2801.53212	24087.175
2804.08288	24081.175
2806.63206	23965.875
2809.17967	23959.875
2811.72571	23922.275
2814.27018	23880.375
2816.81308	23848.575
2819.35442	23773.675
2821.89419	23699.475
2824.43239	23712.475
2826.96904	23664.475
2829.50412	23684.675
2832.03763	23601.675
2834.56959	23586.175
2837.1	23583.075
2839.62884	23637.775
2842.15613	23575.075
2844.68186	23596.175
2847.20604	23554.975
2849.72867	23526.675
2852.24974	23458.975
2854.76927	23444.375
2857.28724	23419.175
2859.80367	23416.975
2862.31855	23359.675
2864.83189	23352.575
2867.34368	23331.375
2869.85393	23351.275
2872.36264	23275.975
2874.8698	23255.375
2877.37543	23240.675
2879.87952	23221.475
2882.38207	23212.175
2884.88308	23166.875
2887.38256	23188.475
2889.88051	23190.775
2892.37692	23234.275
2894.8718	23256.475
2897.36515	23246.775
2899.85698	23232.775
2902.34727	23297.575
2904.83604	23292.775
2907.32328	23370.975
2909.809	23332.575
2912.29319	23385.475
2914.77587	23371.175
2917.25702	23384.575
2919.73665	23366.875
2922.21476	23349.175
2924.69136	23273.975
2927.16644	23264.275
2929.64	23275.575
2932.11205	23262.075
2934.58258	23211.075
2937.05161	23202.675
2939.51912	23180.275
2941.98513	23210.975
2944.44962	23185.375
2946.91261	23109.275
2949.37409	23147.975
2951.83407	23176.175
2954.29254	23152.775
2956.74951	23152.875
2959.20498	23184.975
2961.65895	23126.875
2964.11142	23136.575
2966.56239	23107.175
2969.01186	23129.375
2971.45984	23013.075
2973.90632	23044.475
2976.35131	23008.375
2978.7948	22967.775
2981.23681	22944.875
2983.67732	22935.175
2986.11635	22848.575
2988.55388	22793.875
2990.98993	22786.175
2993.4245	22751.975
2995.85758	22684.575
2998.28917	22626.075
3000.71928	22606.075
3003.14791	22549.275
3005.57506	22510.975
3008.00073	22453.775
3010.42493	22426.975
3012.84764	22404.475
3015.26888	22425.475
3017.68865	22300.175
3020.10694	22317.175
3022.52376	22232.875
3024.9391	22210.175
3027.35298	22226.875
3029.76539	22207.975
3032.17632	22193.675
3034.5858	22147.775
3036.9938	22141.075
3039.40034	22081.775
3041.80542	22083.075
3044.20903	22004.175
3046.61118	22023.875
3049.01187	21981.375
3051.4111	21943.875
3053.80888	21938.975
3056.20519	21879.575
3058.60005	21819.375
3060.99345	21837.475
3063.3854	21770.875
3065.7759	21729.275
3068.16494	21675.475
3070.55254	21571.075
3072.93868	21554.375
3075.32338	21456.675
3077.70662	21430.075
3080.08842	21366.575
3082.46878	21358.075
3084.84769	21319.175
3087.22515	21307.875
3089.60118	21331.775
3091.97576	21312.275
3094.3489	21290.375
3096.72061	21294.575
3099.09087	21307.975
3101.4597	21253.375
3103.82709	21282.475
3106.19305	21226.075
3108.55757	21255.275
3110.92066	21203.275
3113.28232	21196.175
3115.64255	21147.975
3118.00134	21097.875
3120.35871	21090.475
3122.71466	21012.575
3125.06917	21001.775
3127.42226	20967.375
3129.77393	20952.475
