Data from AgNPs_UA_2uM_CRN_0uM_R6G_10uM_Q_RamanShift__15__13-18-31-915.txt Node

Date: Wed Jul 13 13:18:31 BST 2022
User: TCL
Spectrometer: QEP01345
Trigger mode: 4
Integration Time (sec): 7.000000E0
Scans to average: 10
Electric dark correction enabled: true
Nonlinearity correction enabled: false
Boxcar width: 0
XAxis mode: Raman Shifts
Number of Pixels in Spectrum: 1044
>>>>>Begin Spectral Data<<<<<
46.04893	-1.5875
50.45542	-2.9875
54.85868	-1.5875
59.25871	-1.0875
63.6555	137.6125
68.04907	141.5125
72.43941	146.9125
76.82654	150.7125
81.21044	163.1125
85.59113	170.4125
89.96862	172.7125
94.34289	175.3125
98.71396	182.3125
103.08183	190.1125
107.4465	193.7125
111.80798	198.0125
116.16626	205.0125
120.52136	215.3125
124.87327	220.9125
129.222	236.3125
133.56755	250.5125
137.90993	271.6125
142.24913	299.0125
146.58517	327.6125
150.91804	382.0125
155.24774	457.1125
159.57429	559.4125
163.89768	710.9125
168.21792	930.8125
172.53501	1293.0125
176.84895	1795.9125
181.15975	2520.4125
185.46741	3544.2125
189.77193	4901.8125
194.07331	6559.7125
198.37157	8463.6125
202.6667	10435.7125
206.9587	12388.7125
211.24758	14307.8125
215.53334	16234.3125
219.81599	18226.9125
224.09553	20465.4125
228.37195	22890.0125
232.64527	25556.9125
236.91549	28412.9125
241.18261	31319.4125
245.44663	34031.3125
249.70755	36520.0125
253.96539	38779.8125
258.22014	40697.1125
262.4718	42243.2125
266.72039	43254.1125
270.96589	43737.8125
275.20832	43818.0125
279.44768	43546.0125
283.68397	43193.5125
287.91719	42805.4125
292.14735	42537.1125
296.37445	42421.1125
300.59849	42456.5125
304.81948	42669.5125
309.03742	42739.4125
313.25231	42680.0125
317.46415	42306.6125
321.67296	41790.3125
325.87872	41316.3125
330.08145	41242.7125
334.28114	41427.0125
338.47781	41815.1125
342.67145	42395.6125
346.86207	43148.3125
351.04966	43891.1125
355.23424	44674.8125
359.4158	45352.6125
363.59435	45862.2125
367.76989	46263.8125
371.94243	46603.3125
376.11196	46839.0125
380.27849	47078.0125
384.44203	47294.0125
388.60257	47668.9125
392.76012	48048.8125
396.91468	48603.0125
401.06626	49285.1125
405.21485	49687.3125
409.36047	49613.4125
413.50311	49156.6125
417.64277	48923.7125
421.77947	48952.1125
425.9132	49156.4125
430.04396	49417.2125
434.17176	49645.1125
438.2966	50031.7125
442.41849	50615.2125
446.53742	51329.5125
450.6534	52128.1125
454.76644	52703.1125
458.87653	52998.7125
462.98368	53064.3125
467.08789	52961.6125
471.18916	52838.0125
475.2875	52559.9125
479.38291	52365.6125
483.4754	52160.2125
487.56496	52014.1125
491.6516	51930.5125
495.73531	51839.7125
499.81612	51834.8125
503.89401	52145.3125
507.96899	52397.1125
512.04106	52432.4125
516.11023	52492.2125
520.1765	52472.0125
524.23987	52493.5125
528.30034	52447.0125
532.35792	52367.9125
536.41261	52209.1125
540.46441	52003.5125
544.51333	52028.3125
548.55936	52369.3125
552.60252	52906.5125
556.64279	53493.5125
560.6802	53866.9125
564.71473	54189.4125
568.7464	54729.1125
572.7752	55265.7125
576.80114	55744.3125
580.82422	56293.4125
584.84444	56901.7125
588.86181	57342.6125
592.87633	57696.4125
596.888	57747.3125
600.89682	57952.1125
604.9028	59492.0125
608.90594	63090.6125
612.90624	66126.0125
616.90371	63062.0125
620.89834	57307.0125
624.89015	55099.6125
628.87913	55044.8125
632.86528	55491.5125
636.84862	55693.0125
640.82913	55427.0125
644.80683	54790.1125
648.78172	54425.4125
652.75379	54556.6125
656.72306	55096.2125
660.68952	55667.5125
664.65319	55542.8125
668.61405	55179.0125
672.57211	55310.6125
676.52738	55395.9125
680.47986	55266.1125
684.42955	55116.2125
688.37646	55187.9125
692.32058	55432.7125
696.26192	55925.1125
700.20048	56348.0125
704.13626	56662.7125
708.06928	56720.6125
711.99952	56653.7125
715.927	56497.5125
719.85171	56655.8125
723.77365	56611.8125
727.69284	56308.7125
731.60928	56158.7125
735.52295	56159.3125
739.43388	56272.8125
743.34206	56468.4125
747.24749	56486.7125
751.15017	56765.6125
755.05012	57228.6125
758.94733	58042.5125
762.8418	59824.0125
766.73354	62328.2125
770.62254	64503.0125
774.50882	64712.2125
778.39237	63328.9125
782.27321	61251.1125
786.15132	59428.0125
790.02671	58181.9125
793.89938	57479.9125
797.76935	57151.7125
801.6366	57084.7125
805.50115	56910.0125
809.36299	56966.2125
813.22213	56919.7125
817.07857	56954.1125
820.93231	56895.0125
824.78336	56962.4125
828.63172	57055.2125
832.47738	57058.6125
836.32036	57053.6125
840.16066	57078.2125
843.99827	57174.0125
847.8332	57180.5125
851.66546	57338.9125
855.49504	57459.3125
859.32195	57563.2125
863.1462	57583.7125
866.96777	57596.4125
870.78668	57603.0125
874.60293	57785.1125
878.41652	58024.1125
882.22745	58171.3125
886.03573	58280.9125
889.84136	58356.6125
893.64433	58297.4125
897.44466	58177.1125
901.24235	58156.2125
905.0374	58048.8125
908.8298	58016.1125
912.61957	58044.0125
916.40671	58189.3125
920.19121	58406.2125
923.97308	58690.5125
927.75233	58698.6125
931.52895	58560.7125
935.30295	58336.2125
939.07433	57825.0125
942.84309	57566.5125
946.60924	57421.0125
950.37278	57384.3125
954.13371	57373.4125
957.89203	57220.2125
961.64774	57221.1125
965.40086	57200.9125
969.15137	57198.4125
972.89929	57031.5125
976.64461	56978.8125
980.38733	57016.4125
984.12747	57131.4125
987.86502	57312.6125
991.59999	57528.9125
995.33237	57835.2125
999.06217	58170.4125
1002.78939	58441.0125
1006.51404	58998.7125
1010.23611	59455.3125
1013.95561	59671.1125
1017.67255	59768.6125
1021.38692	59670.8125
1025.09872	59318.9125
1028.80796	59002.4125
1032.51465	59028.3125
1036.21877	59115.6125
1039.92035	59145.4125
1043.61937	59242.4125
1047.31584	59330.7125
1051.00976	59427.7125
1054.70114	59549.9125
1058.38998	59780.4125
1062.07627	60112.7125
1065.76003	60440.7125
1069.44126	60885.9125
1073.11995	61513.5125
1076.79611	62118.3125
1080.46974	62439.0125
1084.14085	62591.1125
1087.80943	62874.0125
1091.47549	63022.7125
1095.13903	62961.2125
1098.80005	62663.7125
1102.45857	62302.4125
1106.11456	61889.5125
1109.76805	61626.1125
1113.41903	61440.4125
1117.06751	61484.9125
1120.71348	61849.4125
1124.35696	62266.2125
1127.99793	62587.4125
1131.63641	62571.8125
1135.2724	62177.4125
1138.90589	61931.8125
1142.5369	61768.4125
1146.16542	61760.5125
1149.79145	61755.9125
1153.415	61669.6125
1157.03607	61738.7125
1160.65467	62228.0125
1164.27079	63101.0125
1167.88443	64316.4125
1171.49561	65878.4125
1175.10432	68041.2125
1178.71056	70665.6125
1182.31434	72833.6125
1185.91565	73766.1125
1189.51451	73802.2125
1193.11091	73183.4125
1196.70485	72096.3125
1200.29634	70816.5125
1203.88538	69756.7125
1207.47197	68737.4125
1211.05612	67824.2125
1214.63782	67071.1125
1218.21708	66294.4125
1221.79391	65714.4125
1225.36829	65308.2125
1228.94024	65161.5125
1232.50976	64942.6125
1236.07685	64865.7125
1239.6415	64877.8125
1243.20374	64928.0125
1246.76355	65138.7125
1250.32093	65485.7125
1253.8759	66021.8125
1257.42845	66913.8125
1260.97859	67789.5125
1264.52631	68706.3125
1268.07163	69412.6125
1271.61453	70106.6125
1275.15503	70748.1125
1278.69312	71150.7125
1282.22882	71636.0125
1285.76211	72292.6125
1289.29301	73132.1125
1292.82151	74124.3125
1296.34761	75410.5125
1299.87133	77182.3125
1303.39266	79283.3125
1306.9116	81764.8125
1310.42815	84154.5125
1313.94233	85418.2125
1317.45412	84837.4125
1320.96354	83603.6125
1324.47058	82341.8125
1327.97525	81256.8125
1331.47754	80512.7125
1334.97747	80094.1125
1338.47502	80152.8125
1341.97022	80786.5125
1345.46305	81952.8125
1348.95352	83154.9125
1352.44163	84103.5125
1355.92738	84850.9125
1359.41078	86458.4125
1362.89183	87890.7125
1366.37053	86354.0125
1369.84688	81590.7125
1373.32088	76498.6125
1376.79254	73136.3125
1380.26186	71386.7125
1383.72883	70615.7125
1387.19347	70076.8125
1390.65578	69346.3125
1394.11575	68729.3125
1397.57339	68206.7125
1401.0287	68006.6125
1404.48168	67943.6125
1407.93234	67847.2125
1411.38068	67526.6125
1414.82669	67023.2125
1418.27039	66251.2125
1421.71177	65495.6125
1425.15083	64816.8125
1428.58758	64635.3125
1432.02203	64833.2125
1435.45416	65322.7125
1438.88399	65818.2125
1442.31151	66231.7125
1445.73673	66510.6125
1449.15965	66619.5125
1452.58027	66742.5125
1455.9986	66750.7125
1459.41463	66891.8125
1462.82837	67390.7125
1466.23982	68025.6125
1469.64898	68550.8125
1473.05586	69076.7125
1476.46045	69337.2125
1479.86276	69479.5125
1483.26279	69662.2125
1486.66054	70036.8125
1490.05602	70585.9125
1493.44922	71652.2125
1496.84016	73190.2125
1500.22882	75391.0125
1503.61521	78222.3125
1506.99934	80996.3125
1510.38121	82815.0125
1513.76081	82662.7125
1517.13816	80479.4125
1520.51324	77439.7125
1523.88607	74930.4125
1527.25665	73474.5125
1530.62498	72766.0125
1533.99105	72304.2125
1537.35488	71756.9125
1540.71647	71160.5125
1544.07581	70515.5125
1547.4329	69905.9125
1550.78776	69323.9125
1554.14038	69016.2125
1557.49077	68880.0125
1560.83892	69006.9125
1564.18484	69386.6125
1567.52853	69821.9125
1570.86999	70317.9125
1574.20922	70781.2125
1577.54624	70765.3125
1580.88103	70076.7125
1584.2136	69266.9125
1587.54395	69155.8125
1590.87208	69861.2125
1594.19801	71318.2125
1597.52172	72901.7125
1600.84321	73360.4125
1604.16251	72402.0125
1607.47959	70787.0125
1610.79447	68885.5125
1614.10715	66641.4125
1617.41763	64628.4125
1620.7259	63069.5125
1624.03199	62277.2125
1627.33587	62084.4125
1630.63757	62446.6125
1633.93707	63595.7125
1637.23439	65856.5125
1640.52951	69234.4125
1643.82246	73461.5125
1647.11321	76984.2125
1650.40179	78127.8125
1653.68819	75935.8125
1656.97241	71309.3125
1660.25446	66466.8125
1663.53433	62853.9125
1666.81203	60574.3125
1670.08756	59013.1125
1673.36092	58030.5125
1676.63211	57333.7125
1679.90115	56806.5125
1683.16801	56501.8125
1686.43272	56208.8125
1689.69527	55956.2125
1692.95567	55820.5125
1696.2139	55778.9125
1699.46999	55759.3125
1702.72392	55662.0125
1705.97571	55608.1125
1709.22535	55602.1125
1712.47284	55618.3125
1715.71819	55600.7125
1718.96139	55583.4125
1722.20246	55462.6125
1725.44139	55348.4125
1728.67818	55312.6125
1731.91284	55142.4125
1735.14537	54929.2125
1738.37576	54792.7125
1741.60403	54639.1125
1744.83017	54566.3125
1748.05418	54541.1125
1751.27607	54496.3125
1754.49584	54360.6125
1757.71349	54363.4125
1760.92903	54328.3125
1764.14244	54202.2125
1767.35375	54212.4125
1770.56294	54185.0125
1773.77002	54166.8125
1776.97499	54109.6125
1780.17785	54020.7125
1783.37861	53955.4125
1786.57727	53879.7125
1789.77382	53906.6125
1792.96828	53808.9125
1796.16064	53798.3125
1799.3509	53713.3125
1802.53907	53621.8125
1805.72514	53608.1125
1808.90913	53469.0125
1812.09102	53389.7125
1815.27083	53239.3125
1818.44856	53172.7125
1821.6242	53102.3125
1824.79776	53066.8125
1827.96924	53009.0125
1831.13864	52949.2125
1834.30597	52916.7125
1837.47122	52905.4125
1840.6344	52825.2125
1843.7955	52776.2125
1846.95454	52742.8125
1850.11151	52695.3125
1853.26642	52683.2125
1856.41926	52593.3125
1859.57004	52658.1125
1862.71876	52681.5125
1865.86542	52568.3125
1869.01003	52539.7125
1872.15258	52487.8125
1875.29308	52402.2125
1878.43152	52340.2125
1881.56792	52339.1125
1884.70227	52279.2125
1887.83457	52188.7125
1890.96482	52077.3125
1894.09304	52054.0125
1897.21921	52037.5125
1900.34335	51973.7125
1903.46544	51951.4125
1906.58551	51894.6125
1909.70353	51804.3125
1912.81953	51763.7125
1915.93349	51668.8125
1919.04543	51569.4125
1922.15534	51475.9125
1925.26322	51397.9125
1928.36908	51344.6125
1931.47292	51343.9125
1934.57473	51246.9125
1937.67453	51165.3125
1940.77232	50988.3125
1943.86808	50881.2125
1946.96184	50777.2125
1950.05358	50606.9125
1953.14331	50482.6125
1956.23103	50421.6125
1959.31675	50262.5125
1962.40046	50156.7125
1965.48217	50004.9125
1968.56188	49847.2125
1971.63959	49649.9125
1974.7153	49578.3125
1977.78901	49415.6125
1980.86073	49199.0125
1983.93046	49119.3125
1986.99819	49004.7125
1990.06394	48826.6125
1993.1277	48764.8125
1996.18947	48575.6125
1999.24925	48552.7125
2002.30706	48393.5125
2005.36288	48322.2125
2008.41672	48173.2125
2011.46859	47994.1125
2014.51848	47825.6125
2017.56639	47730.3125
2020.61233	47632.5125
2023.6563	47464.3125
2026.6983	47371.5125
2029.73833	47280.1125
2032.7764	47134.6125
2035.8125	47067.3125
2038.84664	46985.5125
2041.87881	46868.9125
2044.90903	46816.9125
2047.93729	46719.5125
2050.96359	46675.9125
2053.98794	46575.8125
2057.01034	46614.5125
2060.03078	46574.2125
2063.04927	46480.4125
2066.06582	46403.5125
2069.08042	46438.6125
2072.09307	46449.8125
2075.10378	46365.3125
2078.11255	46426.9125
2081.11938	46304.2125
2084.12426	46227.2125
2087.12722	46211.8125
2090.12824	46187.0125
2093.12732	46189.1125
2096.12447	46202.2125
2099.11969	46282.8125
2102.11299	46325.9125
2105.10435	46285.6125
2108.09379	46294.7125
2111.08131	46387.6125
2114.0669	46372.3125
2117.05057	46444.6125
2120.03233	46478.1125
2123.01216	46507.2125
2125.99008	46492.0125
2128.96609	46553.0125
2131.94018	46663.3125
2134.91236	46675.7125
2137.88263	46711.2125
2140.851	46697.0125
2143.81746	46772.7125
2146.78201	46804.2125
2149.74466	46868.7125
2152.7054	46859.7125
2155.66425	46821.2125
2158.6212	46733.6125
2161.57625	46713.2125
2164.52941	46752.1125
2167.48067	46787.4125
2170.43004	46761.3125
2173.37752	46725.9125
2176.32311	46690.1125
2179.26681	46674.6125
2182.20863	46604.7125
2185.14856	46682.9125
2188.08661	46736.5125
2191.02278	46720.4125
2193.95707	46638.9125
2196.88948	46632.6125
2199.82001	46604.9125
2202.74867	46511.9125
2205.67545	46454.3125
2208.60037	46354.5125
2211.52341	46312.6125
2214.44458	46284.1125
2217.36388	46160.2125
2220.28132	46064.8125
2223.1969	45940.2125
2226.11061	45865.1125
2229.02246	45759.1125
2231.93245	45720.4125
2234.84058	45674.2125
2237.74686	45584.4125
2240.65128	45611.0125
2243.55385	45552.7125
2246.45456	45498.1125
2249.35343	45485.0125
2252.25044	45457.9125
2255.14561	45428.9125
2258.03893	45393.6125
2260.93041	45289.8125
2263.82004	45179.7125
2266.70783	45090.6125
2269.59378	44921.0125
2272.4779	44763.1125
2275.36017	44738.5125
2278.24061	44592.7125
2281.11922	44539.8125
2283.996	44473.7125
2286.87094	44413.1125
2289.74405	44284.1125
2292.61534	44274.8125
2295.4848	44203.9125
2298.35243	44224.9125
2301.21824	44137.8125
2304.08223	44124.2125
2306.94439	44109.4125
2309.80474	44045.7125
2312.66327	44047.5125
2315.51999	43967.2125
2318.37489	43905.0125
2321.22797	43866.9125
2324.07925	43793.3125
2326.92871	43760.3125
2329.77637	43687.0125
2332.62222	43605.4125
2335.46626	43534.8125
2338.3085	43473.0125
2341.14893	43437.3125
2343.98756	43355.4125
2346.8244	43272.9125
2349.65943	43254.7125
2352.49267	43216.0125
2355.32411	43217.1125
2358.15376	43243.8125
2360.98161	43161.8125
2363.80768	43161.2125
2366.63195	43083.0125
2369.45444	43057.9125
2372.27514	43069.6125
2375.09405	43017.4125
2377.91118	42973.8125
2380.72652	42922.3125
2383.54009	42804.1125
2386.35187	42714.9125
2389.16188	42573.8125
2391.97011	42465.1125
2394.77657	42377.4125
2397.58125	42287.8125
2400.38416	42263.6125
2403.18529	42118.6125
2405.98466	42150.9125
2408.78226	42067.7125
2411.57809	41959.0125
2414.37216	41972.9125
2417.16446	41928.0125
2419.955	41878.7125
2422.74378	41880.7125
2425.5308	41826.4125
2428.31606	41842.4125
2431.09956	41827.6125
2433.88131	41678.2125
2436.6613	41643.2125
2439.43954	41658.6125
2442.21603	41644.1125
2444.99077	41522.9125
2447.76377	41586.5125
2450.53501	41477.0125
2453.30451	41477.9125
2456.07226	41419.3125
2458.83827	41354.0125
2461.60254	41351.0125
2464.36507	41190.0125
2467.12586	41124.6125
2469.88492	41068.8125
2472.64224	41080.5125
2475.39782	41086.1125
2478.15167	41134.4125
2480.90379	41098.2125
2483.65417	41049.5125
2486.40283	41095.8125
2489.14976	41029.4125
2491.89497	40939.3125
2494.63845	41048.9125
2497.3802	40932.2125
2500.12024	40983.1125
2502.85855	40890.9125
2505.59514	40851.2125
2508.33002	40800.9125
2511.06318	40797.6125
2513.79462	40676.0125
2516.52435	40565.0125
2519.25237	40519.9125
2521.97867	40441.1125
2524.70327	40478.5125
2527.42616	40388.7125
2530.14734	40342.5125
2532.86681	40228.8125
2535.58458	40188.7125
2538.30065	40112.2125
2541.01501	40105.0125
2543.72768	40075.8125
2546.43864	40074.5125
2549.14791	39905.3125
2551.85548	39884.3125
2554.56136	39788.0125
2557.26554	39684.5125
2559.96803	39613.0125
2562.66883	39575.5125
2565.36794	39493.1125
2568.06536	39432.1125
2570.7611	39335.5125
2573.45514	39242.2125
2576.14751	39242.8125
2578.83819	39141.5125
2581.52719	39117.3125
2584.21451	39049.5125
2586.90015	39009.6125
2589.58411	38914.2125
2592.2664	38803.6125
2594.94701	38738.7125
2597.62594	38726.0125
2600.30321	38649.1125
2602.9788	38608.2125
2605.65273	38496.4125
2608.32498	38501.9125
2610.99557	38439.3125
2613.66449	38383.9125
2616.33175	38353.6125
2618.99734	38391.0125
2621.66128	38281.8125
2624.32355	38252.6125
2626.98416	38139.9125
2629.64311	38054.7125
2632.30041	38034.7125
2634.95605	37910.3125
2637.61004	37896.1125
2640.26238	37860.2125
2642.91306	37806.9125
2645.56209	37757.5125
2648.20948	37735.4125
2650.85521	37741.7125
2653.4993	37685.0125
2656.14175	37716.0125
2658.78255	37695.4125
2661.42171	37679.5125
2664.05923	37707.2125
2666.6951	37656.2125
2669.32934	37665.4125
2671.96194	37644.9125
2674.59291	37605.6125
2677.22224	37670.6125
2679.84993	37628.2125
2682.476	37603.8125
2685.10043	37591.9125
2687.72324	37581.4125
2690.34441	37576.8125
2692.96396	37571.3125
2695.58188	37556.8125
2698.19818	37568.8125
2700.81285	37592.0125
2703.4259	37522.7125
2706.03733	37576.2125
2708.64714	37592.1125
2711.25533	37574.1125
2713.86191	37566.8125
2716.46687	37617.3125
2719.07021	37543.2125
2721.67194	37512.0125
2724.27206	37499.1125
2726.87057	37486.2125
2729.46747	37546.9125
2732.06276	37580.0125
2734.65644	37561.3125
2737.24852	37531.9125
2739.83899	37437.4125
2742.42786	37438.6125
2745.01513	37346.5125
2747.60079	37225.7125
2750.18486	37115.0125
2752.76733	37141.4125
2755.3482	37143.3125
2757.92747	37120.6125
2760.50515	36960.5125
2763.08123	36931.8125
2765.65573	36869.2125
2768.22863	36910.7125
2770.79994	36851.6125
2773.36967	36792.3125
2775.9378	36734.9125
2778.50435	36719.9125
2781.06932	36670.3125
2783.6327	36598.9125
2786.1945	36532.3125
2788.75471	36504.5125
2791.31335	36407.4125
2793.87041	36361.2125
2796.42589	36250.3125
2798.97979	36241.0125
2801.53212	36188.5125
2804.08288	36122.7125
2806.63206	35984.6125
2809.17967	35927.5125
2811.72571	35856.7125
2814.27018	35783.4125
2816.81308	35706.7125
2819.35442	35566.5125
2821.89419	35489.9125
2824.43239	35411.5125
2826.96904	35388.2125
2829.50412	35385.7125
2832.03763	35275.3125
2834.56959	35201.0125
2837.1	35210.7125
2839.62884	35222.9125
2842.15613	35137.0125
2844.68186	35191.6125
2847.20604	35143.4125
2849.72867	35098.7125
2852.24974	34974.3125
2854.76927	34925.3125
2857.28724	34846.5125
2859.80367	34876.7125
2862.31855	34810.5125
2864.83189	34728.1125
2867.34368	34677.3125
2869.85393	34618.3125
2872.36264	34573.0125
2874.8698	34562.0125
2877.37543	34495.5125
2879.87952	34461.8125
2882.38207	34421.5125
2884.88308	34403.0125
2887.38256	34452.4125
2889.88051	34363.2125
2892.37692	34384.1125
2894.8718	34429.1125
2897.36515	34525.2125
2899.85698	34412.0125
2902.34727	34456.5125
2904.83604	34455.5125
2907.32328	34529.3125
2909.809	34504.2125
2912.29319	34509.3125
2914.77587	34406.9125
2917.25702	34470.4125
2919.73665	34444.1125
2922.21476	34413.1125
2924.69136	34342.4125
2927.16644	34306.0125
2929.64	34310.9125
2932.11205	34284.6125
2934.58258	34162.4125
2937.05161	34238.5125
2939.51912	34264.4125
2941.98513	34184.7125
2944.44962	34155.1125
2946.91261	34008.7125
2949.37409	34098.1125
2951.83407	34085.0125
2954.29254	34091.2125
2956.74951	34081.5125
2959.20498	34077.9125
2961.65895	34017.8125
2964.11142	34052.9125
2966.56239	34040.1125
2969.01186	34047.8125
2971.45984	33903.6125
2973.90632	33921.1125
2976.35131	33903.1125
2978.7948	33878.0125
2981.23681	33781.7125
2983.67732	33731.9125
2986.11635	33655.8125
2988.55388	33599.7125
2990.98993	33593.4125
2993.4245	33484.8125
2995.85758	33432.2125
2998.28917	33306.1125
3000.71928	33273.1125
3003.14791	33246.2125
3005.57506	33194.4125
3008.00073	33069.2125
3010.42493	33027.6125
3012.84764	32941.0125
3015.26888	32984.5125
3017.68865	32913.7125
3020.10694	32864.7125
3022.52376	32799.5125
3024.9391	32743.6125
