Data from AgNPs_UA_50uM_CRN_0uM_R6G_10uM_Q_RamanShift__5__12-17-01-757.txt Node

Date: Tue Jul 26 12:17:01 BST 2022
User: TCL
Spectrometer: QEP01345
Trigger mode: 4
Integration Time (sec): 7.000000E0
Scans to average: 10
Electric dark correction enabled: true
Nonlinearity correction enabled: false
Boxcar width: 0
XAxis mode: Raman Shifts
Number of Pixels in Spectrum: 1044
>>>>>Begin Spectral Data<<<<<
46.04893	-0.0625
50.45542	-1.4625
54.85868	-0.0625
59.25871	-1.3625
63.6555	123.4375
68.04907	131.9375
72.43941	137.3375
76.82654	143.3375
81.21044	149.2375
85.59113	151.1375
89.96862	158.6375
94.34289	164.6375
98.71396	173.7375
103.08183	180.2375
107.4465	181.5375
111.80798	185.9375
116.16626	194.2375
120.52136	202.4375
124.87327	210.5375
129.222	222.5375
133.56755	242.9375
137.90993	256.4375
142.24913	280.8375
146.58517	312.4375
150.91804	355.6375
155.24774	424.4375
159.57429	532.5375
163.89768	688.1375
168.21792	908.2375
172.53501	1243.4375
176.84895	1744.9375
181.15975	2425.6375
185.46741	3414.3375
189.77193	4701.0375
194.07331	6302.8375
198.37157	8122.1375
202.6667	10048.0375
206.9587	11975.3375
211.24758	13863.6375
215.53334	15817.8375
219.81599	17919.3375
224.09553	20222.3375
228.37195	22702.5375
232.64527	25446.4375
236.91549	28281.1375
241.18261	30904.7375
245.44663	33172.2375
249.70755	35140.7375
253.96539	36800.7375
258.22014	38182.2375
262.4718	39354.2375
266.72039	40183.1375
270.96589	40620.8375
275.20832	40497.2375
279.44768	40102.2375
283.68397	39532.8375
287.91719	39177.5375
292.14735	38957.8375
296.37445	39223.7375
300.59849	39928.2375
304.81948	40876.9375
309.03742	41537.9375
313.25231	41838.8375
317.46415	41218.0375
321.67296	39944.8375
325.87872	38758.0375
330.08145	38095.8375
334.28114	38118.1375
338.47781	38516.7375
342.67145	39167.6375
346.86207	40109.2375
351.04966	41487.3375
355.23424	42692.1375
359.4158	43645.0375
363.59435	44381.3375
367.76989	44729.4375
371.94243	44851.3375
376.11196	44929.6375
380.27849	45013.5375
384.44203	45135.6375
388.60257	45404.1375
392.76012	45777.9375
396.91468	46263.9375
401.06626	47028.4375
405.21485	47412.8375
409.36047	47081.8375
413.50311	45841.1375
417.64277	44724.1375
421.77947	44051.1375
425.9132	43681.0375
430.04396	43586.3375
434.17176	43729.4375
438.2966	44157.0375
442.41849	44906.5375
446.53742	45955.1375
450.6534	47133.1375
454.76644	48006.2375
458.87653	48217.9375
462.98368	48191.3375
467.08789	47849.8375
471.18916	47085.7375
475.2875	46082.2375
479.38291	45099.0375
483.4754	44450.2375
487.56496	44113.8375
491.6516	43806.1375
495.73531	43691.6375
499.81612	43821.6375
503.89401	44346.2375
507.96899	44560.8375
512.04106	44603.2375
516.11023	44666.8375
520.1765	44749.6375
524.23987	44753.9375
528.30034	44665.4375
532.35792	44532.3375
536.41261	44148.7375
540.46441	43586.5375
544.51333	43288.5375
548.55936	43585.3375
552.60252	44276.0375
556.64279	45226.4375
560.6802	45990.9375
564.71473	46453.9375
568.7464	46878.8375
572.7752	47080.3375
576.80114	46870.6375
580.82422	46834.2375
584.84444	47370.9375
588.86181	48096.9375
592.87633	48818.1375
596.888	49393.6375
600.89682	50164.4375
604.9028	53447.1375
608.90594	61784.8375
612.90624	70853.1375
616.90371	66764.2375
620.89834	53120.3375
624.89015	46843.3375
628.87913	46001.8375
632.86528	46746.2375
636.84862	47361.4375
640.82913	46541.3375
644.80683	44803.4375
648.78172	43670.8375
652.75379	43646.1375
656.72306	44668.1375
660.68952	46043.2375
664.65319	45991.7375
668.61405	45236.7375
672.57211	45606.2375
676.52738	45880.4375
680.47986	45131.7375
684.42955	44155.1375
688.37646	43771.8375
692.32058	44178.7375
696.26192	45035.6375
700.20048	45989.5375
704.13626	46274.4375
708.06928	45831.4375
711.99952	45180.5375
715.927	45033.0375
719.85171	45266.2375
723.77365	45292.5375
727.69284	44756.7375
731.60928	44203.2375
735.52295	44046.2375
739.43388	44146.5375
743.34206	44325.4375
747.24749	44461.5375
751.15017	44611.3375
755.05012	45129.6375
758.94733	46487.0375
762.8418	49738.6375
766.73354	54813.4375
770.62254	59411.4375
774.50882	61107.8375
778.39237	59497.1375
782.27321	55798.7375
786.15132	51388.9375
790.02671	47970.7375
793.89938	46066.3375
797.76935	45102.9375
801.6366	44607.1375
805.50115	44271.4375
809.36299	44014.7375
813.22213	43754.6375
817.07857	43619.6375
820.93231	43636.1375
824.78336	43642.9375
828.63172	43676.4375
832.47738	43696.5375
836.32036	43546.8375
840.16066	43367.7375
843.99827	43380.5375
847.8332	43419.8375
851.66546	43427.1375
855.49504	43573.8375
859.32195	43623.5375
863.1462	43577.2375
866.96777	43545.5375
870.78668	43584.0375
874.60293	43677.0375
878.41652	43880.7375
882.22745	44113.0375
886.03573	44328.6375
889.84136	44310.8375
893.64433	44055.3375
897.44466	43842.2375
901.24235	43696.6375
905.0374	43554.8375
908.8298	43468.2375
912.61957	43320.8375
916.40671	43339.0375
920.19121	43558.4375
923.97308	43883.8375
927.75233	44210.2375
931.52895	44375.6375
935.30295	44054.5375
939.07433	43427.4375
942.84309	42854.2375
946.60924	42564.1375
950.37278	42482.5375
954.13371	42499.9375
957.89203	42473.0375
961.64774	42438.5375
965.40086	42437.0375
969.15137	42433.4375
972.89929	42444.3375
976.64461	42396.5375
980.38733	42460.2375
984.12747	42558.4375
987.86502	42736.5375
991.59999	43033.3375
995.33237	43485.0375
999.06217	44056.7375
1002.78939	44885.5375
1006.51404	45813.9375
1010.23611	46749.9375
1013.95561	47413.6375
1017.67255	47657.0375
1021.38692	47289.7375
1025.09872	46573.5375
1028.80796	45921.9375
1032.51465	45684.7375
1036.21877	45871.0375
1039.92035	46016.4375
1043.61937	46098.1375
1047.31584	46068.3375
1051.00976	46021.9375
1054.70114	46074.1375
1058.38998	46213.0375
1062.07627	46634.3375
1065.76003	47126.7375
1069.44126	47783.2375
1073.11995	48981.8375
1076.79611	50417.7375
1080.46974	51269.9375
1084.14085	51690.4375
1087.80943	52156.3375
1091.47549	52486.7375
1095.13903	52544.0375
1098.80005	52521.2375
1102.45857	52398.2375
1106.11456	51999.9375
1109.76805	51132.0375
1113.41903	50629.3375
1117.06751	50783.7375
1120.71348	51396.1375
1124.35696	52143.3375
1127.99793	52758.9375
1131.63641	52549.8375
1135.2724	51495.8375
1138.90589	50617.2375
1142.5369	50135.3375
1146.16542	49749.9375
1149.79145	49500.3375
1153.415	49156.0375
1157.03607	48999.2375
1160.65467	49386.6375
1164.27079	50520.0375
1167.88443	52388.0375
1171.49561	55069.3375
1175.10432	58938.9375
1178.71056	64011.1375
1182.31434	68651.7375
1185.91565	70931.0375
1189.51451	70981.7375
1193.11091	69772.5375
1196.70485	67658.8375
1200.29634	65433.3375
1203.88538	63235.1375
1207.47197	60953.5375
1211.05612	58855.1375
1214.63782	56946.5375
1218.21708	55509.9375
1221.79391	54545.0375
1225.36829	54117.6375
1228.94024	53891.7375
1232.50976	53498.2375
1236.07685	53233.0375
1239.6415	53040.8375
1243.20374	53221.4375
1246.76355	53609.1375
1250.32093	54165.7375
1253.8759	55099.1375
1257.42845	56620.2375
1260.97859	58638.6375
1264.52631	60738.4375
1268.07163	62466.7375
1271.61453	63833.3375
1275.15503	64714.7375
1278.69312	64996.3375
1282.22882	65085.5375
1285.76211	65523.9375
1289.29301	66567.9375
1292.82151	67941.3375
1296.34761	69782.6375
1299.87133	72484.6375
1303.39266	76359.0375
1306.9116	81928.5375
1310.42815	87936.4375
1313.94233	91397.8375
1317.45412	90243.4375
1320.96354	86819.0375
1324.47058	83021.5375
1327.97525	79389.5375
1331.47754	76715.9375
1334.97747	75594.2375
1338.47502	75907.8375
1341.97022	77434.4375
1345.46305	80345.6375
1348.95352	84135.5375
1352.44163	87848.1375
1355.92738	91609.4375
1359.41078	96498.0375
1362.89183	100664.1375
1366.37053	97926.8375
1369.84688	87611.0375
1373.32088	76473.1375
1376.79254	69569.6375
1380.26186	66164.0375
1383.72883	64399.6375
1387.19347	63172.9375
1390.65578	61652.2375
1394.11575	60105.9375
1397.57339	58848.4375
1401.0287	58269.8375
1404.48168	58192.3375
1407.93234	58585.7375
1411.38068	59051.2375
1414.82669	59200.4375
1418.27039	58876.3375
1421.71177	58323.5375
1425.15083	57745.5375
1428.58758	57567.1375
1432.02203	57914.1375
1435.45416	58661.4375
1438.88399	59170.0375
1442.31151	59194.1375
1445.73673	59107.3375
1449.15965	59205.4375
1452.58027	58987.0375
1455.9986	58684.6375
1459.41463	58841.5375
1462.82837	59795.5375
1466.23982	60923.0375
1469.64898	61919.7375
1473.05586	62606.6375
1476.46045	63015.0375
1479.86276	63317.1375
1483.26279	63742.3375
1486.66054	64564.1375
1490.05602	65903.4375
1493.44922	68036.8375
1496.84016	71258.5375
1500.22882	75898.8375
1503.61521	81914.7375
1506.99934	87839.8375
1510.38121	91457.1375
1513.76081	90992.6375
1517.13816	86051.2375
1520.51324	78899.7375
1523.88607	72556.9375
1527.25665	68439.5375
1530.62498	66268.6375
1533.99105	64999.5375
1537.35488	63917.8375
1540.71647	62952.2375
1544.07581	62119.6375
1547.4329	61356.7375
1550.78776	60714.4375
1554.14038	60255.8375
1557.49077	60183.3375
1560.83892	60757.6375
1564.18484	61912.5375
1567.52853	63366.9375
1570.86999	64250.3375
1574.20922	64702.9375
1577.54624	64358.6375
1580.88103	62512.8375
1584.2136	60178.0375
1587.54395	59179.8375
1590.87208	60002.4375
1594.19801	62659.9375
1597.52172	65930.1375
1600.84321	67683.8375
1604.16251	66623.9375
1607.47959	64167.5375
1610.79447	60737.8375
1614.10715	56740.5375
1617.41763	53022.8375
1620.7259	50503.6375
1624.03199	49101.2375
1627.33587	48900.3375
1630.63757	49661.2375
1633.93707	51716.2375
1637.23439	55453.7375
1640.52951	61223.8375
1643.82246	68583.0375
1647.11321	75495.3375
1650.40179	78197.9375
1653.68819	74330.1375
1656.97241	65760.7375
1660.25446	57041.5375
1663.53433	50921.0375
1666.81203	47049.6375
1670.08756	44698.6375
1673.36092	43241.5375
1676.63211	42255.6375
1679.90115	41542.2375
1683.16801	40979.6375
1686.43272	40580.9375
1689.69527	40267.6375
1692.95567	40048.5375
1696.2139	39901.9375
1699.46999	39752.6375
1702.72392	39661.3375
1705.97571	39615.4375
1709.22535	39604.0375
1712.47284	39569.9375
1715.71819	39543.9375
1718.96139	39352.9375
1722.20246	39205.0375
1725.44139	39134.6375
1728.67818	38971.9375
1731.91284	38693.6375
1735.14537	38415.0375
1738.37576	38390.7375
1741.60403	38167.2375
1744.83017	38011.9375
1748.05418	37880.7375
1751.27607	37780.0375
1754.49584	37684.8375
1757.71349	37605.6375
1760.92903	37523.7375
1764.14244	37464.4375
1767.35375	37429.0375
1770.56294	37393.0375
1773.77002	37349.9375
1776.97499	37286.6375
1780.17785	37209.9375
1783.37861	37110.0375
1786.57727	37104.9375
1789.77382	37040.2375
1792.96828	36967.5375
1796.16064	36899.1375
1799.3509	36814.4375
1802.53907	36794.4375
1805.72514	36686.7375
1808.90913	36533.7375
1812.09102	36409.2375
1815.27083	36253.5375
1818.44856	36239.1375
1821.6242	36161.0375
1824.79776	35992.2375
1827.96924	35967.9375
1831.13864	35909.8375
1834.30597	35872.0375
1837.47122	35862.2375
1840.6344	35774.1375
1843.7955	35745.9375
1846.95454	35711.7375
1850.11151	35645.1375
1853.26642	35563.8375
1856.41926	35557.3375
1859.57004	35562.0375
1862.71876	35461.4375
1865.86542	35476.3375
1869.01003	35475.8375
1872.15258	35408.7375
1875.29308	35335.5375
1878.43152	35328.0375
1881.56792	35242.2375
1884.70227	35181.0375
1887.83457	35196.2375
1890.96482	35106.7375
1894.09304	34986.1375
1897.21921	34940.4375
1900.34335	34909.7375
1903.46544	34878.3375
1906.58551	34868.1375
1909.70353	34813.2375
1912.81953	34778.4375
1915.93349	34710.7375
1919.04543	34610.2375
1922.15534	34541.4375
1925.26322	34410.9375
1928.36908	34359.6375
1931.47292	34302.5375
1934.57473	34208.3375
1937.67453	34130.2375
1940.77232	34037.3375
1943.86808	33960.5375
1946.96184	33868.8375
1950.05358	33732.2375
1953.14331	33601.4375
1956.23103	33573.7375
1959.31675	33452.7375
1962.40046	33349.5375
1965.48217	33226.4375
1968.56188	33109.1375
1971.63959	33032.1375
1974.7153	33016.9375
1977.78901	32891.3375
1980.86073	32804.0375
1983.93046	32659.7375
1986.99819	32570.3375
1990.06394	32499.7375
1993.1277	32398.4375
1996.18947	32274.3375
1999.24925	32174.4375
2002.30706	32058.4375
2005.36288	31939.4375
2008.41672	31867.0375
2011.46859	31802.9375
2014.51848	31640.1375
2017.56639	31522.0375
2020.61233	31441.6375
2023.6563	31321.2375
2026.6983	31291.8375
2029.73833	31221.5375
2032.7764	31145.2375
2035.8125	31066.0375
2038.84664	31004.8375
2041.87881	30981.0375
2044.90903	30911.7375
2047.93729	30836.3375
2050.96359	30763.1375
2053.98794	30770.4375
2057.01034	30757.2375
2060.03078	30727.0375
2063.04927	30670.3375
2066.06582	30612.5375
2069.08042	30578.8375
2072.09307	30556.9375
2075.10378	30477.1375
2078.11255	30413.8375
2081.11938	30417.3375
2084.12426	30375.9375
2087.12722	30408.8375
2090.12824	30405.7375
2093.12732	30422.1375
2096.12447	30379.3375
2099.11969	30330.7375
2102.11299	30373.4375
2105.10435	30393.0375
2108.09379	30436.7375
2111.08131	30414.0375
2114.0669	30393.1375
2117.05057	30416.2375
2120.03233	30482.8375
2123.01216	30507.6375
2125.99008	30507.2375
2128.96609	30550.2375
2131.94018	30533.7375
2134.91236	30538.6375
2137.88263	30570.3375
2140.851	30579.7375
2143.81746	30582.9375
2146.78201	30520.9375
2149.74466	30625.1375
2152.7054	30578.0375
2155.66425	30586.3375
2158.6212	30501.3375
2161.57625	30455.4375
2164.52941	30458.3375
2167.48067	30429.1375
2170.43004	30406.4375
2173.37752	30389.3375
2176.32311	30351.5375
2179.26681	30366.1375
2182.20863	30321.6375
2185.14856	30360.4375
2188.08661	30315.2375
2191.02278	30287.7375
2193.95707	30242.2375
2196.88948	30265.1375
2199.82001	30252.9375
2202.74867	30221.7375
2205.67545	30261.8375
2208.60037	30171.1375
2211.52341	30130.8375
2214.44458	30066.0375
2217.36388	29955.9375
2220.28132	29940.4375
2223.1969	29851.1375
2226.11061	29801.1375
2229.02246	29774.0375
2231.93245	29672.0375
2234.84058	29657.9375
2237.74686	29546.3375
2240.65128	29546.9375
2243.55385	29460.7375
2246.45456	29435.7375
2249.35343	29376.1375
2252.25044	29430.6375
2255.14561	29363.3375
2258.03893	29400.7375
2260.93041	29274.2375
2263.82004	29233.0375
2266.70783	29141.4375
2269.59378	29077.2375
2272.4779	29071.3375
2275.36017	29016.5375
2278.24061	28898.3375
2281.11922	28868.3375
2283.996	28791.3375
2286.87094	28738.4375
2289.74405	28658.5375
2292.61534	28643.4375
2295.4848	28558.9375
2298.35243	28582.2375
2301.21824	28557.4375
2304.08223	28525.6375
2306.94439	28567.0375
2309.80474	28529.6375
2312.66327	28481.7375
2315.51999	28465.1375
2318.37489	28452.6375
2321.22797	28452.3375
2324.07925	28365.7375
2326.92871	28238.8375
2329.77637	28230.9375
2332.62222	28153.2375
2335.46626	28153.0375
2338.3085	28096.9375
2341.14893	28108.6375
2343.98756	28130.8375
2346.8244	28178.5375
2349.65943	28190.4375
2352.49267	28157.9375
2355.32411	28077.6375
2358.15376	28078.0375
2360.98161	28064.5375
2363.80768	28082.8375
2366.63195	28044.6375
2369.45444	28023.6375
2372.27514	27953.2375
2375.09405	27935.4375
2377.91118	27929.9375
2380.72652	27849.3375
2383.54009	27794.0375
2386.35187	27693.7375
2389.16188	27637.5375
2391.97011	27567.4375
2394.77657	27489.8375
2397.58125	27431.3375
2400.38416	27425.2375
2403.18529	27331.7375
2405.98466	27274.1375
2408.78226	27217.0375
2411.57809	27174.2375
2414.37216	27163.8375
2417.16446	27207.4375
2419.955	27220.3375
2422.74378	27225.3375
2425.5308	27154.9375
2428.31606	27155.4375
2431.09956	27086.2375
2433.88131	27095.2375
2436.6613	27100.3375
2439.43954	27083.3375
2442.21603	27053.0375
2444.99077	27009.9375
2447.76377	27029.6375
2450.53501	26942.9375
2453.30451	26924.2375
2456.07226	26892.1375
2458.83827	26855.7375
2461.60254	26822.4375
2464.36507	26770.6375
2467.12586	26784.7375
2469.88492	26760.1375
2472.64224	26816.0375
2475.39782	26779.2375
2478.15167	26805.2375
2480.90379	26767.0375
2483.65417	26767.8375
2486.40283	26775.3375
2489.14976	26792.4375
2491.89497	26754.9375
2494.63845	26783.9375
2497.3802	26756.3375
2500.12024	26669.6375
2502.85855	26623.5375
2505.59514	26613.5375
2508.33002	26578.3375
2511.06318	26507.9375
2513.79462	26516.6375
2516.52435	26470.5375
2519.25237	26472.3375
2521.97867	26385.9375
2524.70327	26312.3375
2527.42616	26295.4375
2530.14734	26306.1375
2532.86681	26327.0375
2535.58458	26267.2375
2538.30065	26226.7375
2541.01501	26233.1375
2543.72768	26198.7375
2546.43864	26178.1375
2549.14791	26123.9375
2551.85548	26075.3375
2554.56136	26053.0375
2557.26554	26007.9375
2559.96803	25988.1375
2562.66883	25942.4375
2565.36794	25877.0375
2568.06536	25849.9375
2570.7611	25850.2375
2573.45514	25793.3375
2576.14751	25720.1375
2578.83819	25713.4375
2581.52719	25701.7375
2584.21451	25660.5375
2586.90015	25575.0375
2589.58411	25560.4375
2592.2664	25567.4375
2594.94701	25510.5375
2597.62594	25434.7375
2600.30321	25369.8375
2602.9788	25346.4375
2605.65273	25349.1375
2608.32498	25361.6375
2610.99557	25316.2375
2613.66449	25312.0375
2616.33175	25304.1375
2618.99734	25305.4375
2621.66128	25290.1375
2624.32355	25222.6375
2626.98416	25156.2375
2629.64311	25120.3375
2632.30041	25108.2375
2634.95605	25088.7375
2637.61004	25068.6375
2640.26238	25107.7375
2642.91306	25056.1375
2645.56209	25017.1375
2648.20948	25010.4375
2650.85521	24974.9375
2653.4993	24945.6375
2656.14175	24898.7375
2658.78255	24900.4375
2661.42171	24873.8375
2664.05923	24949.0375
2666.6951	25004.5375
2669.32934	25063.1375
2671.96194	25054.4375
2674.59291	25018.9375
2677.22224	24962.2375
2679.84993	24985.7375
2682.476	24949.8375
2685.10043	24905.8375
2687.72324	24906.3375
2690.34441	24887.9375
2692.96396	24881.8375
2695.58188	24876.7375
2698.19818	24880.6375
2700.81285	24879.6375
2703.4259	24841.3375
2706.03733	24869.9375
2708.64714	24867.3375
2711.25533	24878.4375
2713.86191	24836.6375
2716.46687	24846.4375
2719.07021	24843.6375
2721.67194	24916.7375
2724.27206	24868.7375
2726.87057	24884.4375
2729.46747	24843.1375
2732.06276	24843.8375
2734.65644	24847.7375
2737.24852	24812.7375
2739.83899	24795.7375
2742.42786	24827.5375
2745.01513	24812.6375
2747.60079	24740.8375
2750.18486	24623.6375
2752.76733	24610.6375
2755.3482	24622.2375
2757.92747	24592.9375
2760.50515	24565.3375
2763.08123	24553.6375
2765.65573	24532.5375
2768.22863	24563.6375
2770.79994	24477.7375
2773.36967	24438.5375
2775.9378	24416.3375
2778.50435	24378.1375
2781.06932	24419.1375
2783.6327	24428.8375
2786.1945	24390.5375
2788.75471	24336.5375
2791.31335	24261.1375
2793.87041	24227.2375
2796.42589	24158.4375
2798.97979	24114.6375
2801.53212	24079.4375
2804.08288	24041.7375
2806.63206	23987.0375
2809.17967	23929.9375
2811.72571	23872.7375
2814.27018	23856.7375
2816.81308	23810.0375
2819.35442	23787.2375
2821.89419	23733.3375
2824.43239	23712.3375
2826.96904	23700.0375
2829.50412	23677.2375
2832.03763	23563.6375
2834.56959	23543.7375
2837.1	23464.2375
2839.62884	23459.7375
2842.15613	23432.1375
2844.68186	23423.9375
2847.20604	23382.9375
2849.72867	23404.9375
2852.24974	23356.6375
2854.76927	23311.0375
2857.28724	23340.4375
2859.80367	23341.1375
2862.31855	23320.1375
2864.83189	23288.4375
2867.34368	23289.5375
2869.85393	23242.2375
2872.36264	23243.7375
2874.8698	23215.8375
2877.37543	23192.4375
2879.87952	23126.4375
2882.38207	23103.0375
2884.88308	23087.9375
2887.38256	23079.8375
2889.88051	23057.2375
2892.37692	23040.5375
2894.8718	23043.1375
2897.36515	23016.9375
2899.85698	23012.7375
2902.34727	23064.4375
2904.83604	23094.4375
2907.32328	23133.0375
2909.809	23156.9375
2912.29319	23168.5375
2914.77587	23143.9375
2917.25702	23132.7375
2919.73665	23158.7375
2922.21476	23114.4375
2924.69136	23083.3375
2927.16644	23051.9375
2929.64	23023.9375
2932.11205	22967.7375
2934.58258	22893.5375
2937.05161	22875.8375
2939.51912	22933.9375
2941.98513	22867.0375
2944.44962	22812.1375
2946.91261	22777.2375
2949.37409	22767.5375
2951.83407	22726.7375
2954.29254	22764.9375
2956.74951	22750.8375
2959.20498	22742.1375
2961.65895	22654.8375
2964.11142	22674.4375
2966.56239	22627.2375
2969.01186	22614.0375
2971.45984	22635.3375
2973.90632	22665.6375
2976.35131	22580.7375
2978.7948	22523.2375
2981.23681	22500.1375
2983.67732	22462.7375
2986.11635	22429.0375
2988.55388	22352.7375
2990.98993	22340.5375
2993.4245	22262.4375
2995.85758	22265.1375
2998.28917	22212.1375
3000.71928	22207.5375
3003.14791	22086.7375
3005.57506	22099.4375
3008.00073	22009.4375
3010.42493	21990.8375
3012.84764	21917.7375
3015.26888	21920.4375
3017.68865	21869.1375
3020.10694	21832.2375
3022.52376	21742.2375
3024.9391	21724.4375
