Data from AgNPs_UA_2uM_CRN_0uM_R6G_10uM_Q_RamanShift__32__13-38-21-935.txt Node

Date: Wed Jul 13 13:38:21 BST 2022
User: TCL
Spectrometer: QEP01345
Trigger mode: 4
Integration Time (sec): 7.000000E0
Scans to average: 10
Electric dark correction enabled: true
Nonlinearity correction enabled: false
Boxcar width: 0
XAxis mode: Raman Shifts
Number of Pixels in Spectrum: 1044
>>>>>Begin Spectral Data<<<<<
46.04893	-1.5875
50.45542	-0.6875
54.85868	-0.0875
59.25871	0.8125
63.6555	57.9125
68.04907	61.1125
72.43941	64.5125
76.82654	70.3125
81.21044	76.6125
85.59113	76.9125
89.96862	82.6125
94.34289	81.8125
98.71396	83.2125
103.08183	88.1125
107.4465	90.9125
111.80798	91.7125
116.16626	92.2125
120.52136	93.5125
124.87327	95.0125
129.222	95.6125
133.56755	101.3125
137.90993	108.0125
142.24913	111.7125
146.58517	115.8125
150.91804	130.8125
155.24774	152.9125
159.57429	183.4125
163.89768	222.8125
168.21792	283.9125
172.53501	378.3125
176.84895	515.1125
181.15975	700.9125
185.46741	976.7125
189.77193	1328.8125
194.07331	1756.8125
198.37157	2246.3125
202.6667	2752.1125
206.9587	3277.5125
211.24758	3786.9125
215.53334	4339.5125
219.81599	4939.7125
224.09553	5608.1125
228.37195	6358.8125
232.64527	7165.7125
236.91549	7958.0125
241.18261	8715.0125
245.44663	9303.0125
249.70755	9789.9125
253.96539	10256.8125
258.22014	10635.4125
262.4718	10952.5125
266.72039	11180.3125
270.96589	11327.1125
275.20832	11309.1125
279.44768	11250.5125
283.68397	11199.5125
287.91719	11169.8125
292.14735	11223.8125
296.37445	11440.8125
300.59849	11735.3125
304.81948	12072.0125
309.03742	12254.6125
313.25231	12120.3125
317.46415	11584.5125
321.67296	10836.2125
325.87872	10294.9125
330.08145	10095.6125
334.28114	10099.0125
338.47781	10295.9125
342.67145	10537.7125
346.86207	10953.8125
351.04966	11507.0125
355.23424	12081.9125
359.4158	12492.9125
363.59435	12678.2125
367.76989	12721.2125
371.94243	12656.5125
376.11196	12592.4125
380.27849	12483.9125
384.44203	12446.0125
388.60257	12371.7125
392.76012	12392.1125
396.91468	12547.2125
401.06626	12913.6125
405.21485	13165.9125
409.36047	12933.2125
413.50311	12424.0125
417.64277	12033.1125
421.77947	11882.4125
425.9132	11871.5125
430.04396	11923.1125
434.17176	12052.6125
438.2966	12304.1125
442.41849	12728.7125
446.53742	13276.4125
450.6534	13818.2125
454.76644	14045.3125
458.87653	13997.2125
462.98368	13739.5125
467.08789	13396.3125
471.18916	13014.4125
475.2875	12705.6125
479.38291	12477.5125
483.4754	12238.3125
487.56496	12034.4125
491.6516	11839.9125
495.73531	11732.8125
499.81612	11707.8125
503.89401	11833.7125
507.96899	11938.0125
512.04106	11972.5125
516.11023	12001.9125
520.1765	12019.6125
524.23987	11979.8125
528.30034	11860.9125
532.35792	11660.3125
536.41261	11395.9125
540.46441	11163.0125
544.51333	11068.8125
548.55936	11236.1125
552.60252	11584.6125
556.64279	11950.7125
560.6802	12170.6125
564.71473	12507.0125
568.7464	13171.4125
572.7752	13568.6125
576.80114	13399.2125
580.82422	13253.3125
584.84444	13348.3125
588.86181	13600.7125
592.87633	13950.3125
596.888	14234.0125
600.89682	14526.8125
604.9028	15827.4125
608.90594	19133.4125
612.90624	22222.4125
616.90371	19609.9125
620.89834	14319.3125
624.89015	12338.3125
628.87913	12133.6125
632.86528	12194.1125
636.84862	12156.1125
640.82913	11777.9125
644.80683	11240.4125
648.78172	10955.2125
652.75379	11033.7125
656.72306	11500.8125
660.68952	11950.3125
664.65319	11751.5125
668.61405	11282.2125
672.57211	11093.3125
676.52738	11072.2125
680.47986	10978.5125
684.42955	10922.2125
688.37646	10876.4125
692.32058	10952.3125
696.26192	11092.3125
700.20048	11273.8125
704.13626	11417.1125
708.06928	11406.8125
711.99952	11290.9125
715.927	11237.0125
719.85171	11222.8125
723.77365	11145.1125
727.69284	11010.8125
731.60928	10951.4125
735.52295	10996.5125
739.43388	11084.9125
743.34206	11186.0125
747.24749	11293.1125
751.15017	11488.0125
755.05012	11799.3125
758.94733	12495.0125
762.8418	13926.2125
766.73354	16090.5125
770.62254	17960.1125
774.50882	18317.0125
778.39237	17053.7125
782.27321	14835.1125
786.15132	12934.6125
790.02671	11886.7125
793.89938	11413.3125
797.76935	11199.9125
801.6366	11104.7125
805.50115	11036.6125
809.36299	10960.7125
813.22213	10923.1125
817.07857	10925.8125
820.93231	10931.1125
824.78336	10973.0125
828.63172	11065.5125
832.47738	11070.9125
836.32036	11061.8125
840.16066	11003.6125
843.99827	10951.2125
847.8332	10885.2125
851.66546	10865.4125
855.49504	10846.6125
859.32195	10812.2125
863.1462	10766.5125
866.96777	10711.6125
870.78668	10697.7125
874.60293	10757.5125
878.41652	10787.2125
882.22745	10893.9125
886.03573	10930.3125
889.84136	10885.4125
893.64433	10817.0125
897.44466	10796.8125
901.24235	10784.6125
905.0374	10759.5125
908.8298	10709.0125
912.61957	10723.2125
916.40671	10850.6125
920.19121	11043.3125
923.97308	11187.6125
927.75233	11268.3125
931.52895	11230.5125
935.30295	11033.5125
939.07433	10680.6125
942.84309	10457.8125
946.60924	10336.4125
950.37278	10262.7125
954.13371	10206.9125
957.89203	10161.9125
961.64774	10162.3125
965.40086	10153.2125
969.15137	10135.5125
972.89929	10115.5125
976.64461	10107.1125
980.38733	10106.6125
984.12747	10143.6125
987.86502	10228.6125
991.59999	10345.8125
995.33237	10597.6125
999.06217	10991.5125
1002.78939	11467.5125
1006.51404	11863.1125
1010.23611	12135.3125
1013.95561	12230.0125
1017.67255	12141.8125
1021.38692	11833.3125
1025.09872	11540.5125
1028.80796	11480.5125
1032.51465	11635.1125
1036.21877	11810.3125
1039.92035	11899.1125
1043.61937	11828.5125
1047.31584	11654.6125
1051.00976	11492.1125
1054.70114	11441.4125
1058.38998	11459.2125
1062.07627	11507.9125
1065.76003	11630.7125
1069.44126	11774.0125
1073.11995	11987.7125
1076.79611	12138.4125
1080.46974	12242.5125
1084.14085	12493.1125
1087.80943	12771.3125
1091.47549	12825.4125
1095.13903	12599.9125
1098.80005	12185.5125
1102.45857	11811.3125
1106.11456	11633.2125
1109.76805	11696.0125
1113.41903	11894.3125
1117.06751	12206.8125
1120.71348	12599.1125
1124.35696	13082.2125
1127.99793	13413.4125
1131.63641	13285.8125
1135.2724	12801.1125
1138.90589	12413.6125
1142.5369	12214.7125
1146.16542	12114.4125
1149.79145	12126.4125
1153.415	12242.2125
1157.03607	12417.8125
1160.65467	12737.6125
1164.27079	13291.1125
1167.88443	14159.7125
1171.49561	15563.2125
1175.10432	17703.4125
1178.71056	20230.6125
1182.31434	22043.4125
1185.91565	22496.2125
1189.51451	21888.0125
1193.11091	20647.3125
1196.70485	19188.4125
1200.29634	17901.4125
1203.88538	16819.5125
1207.47197	15793.7125
1211.05612	15145.9125
1214.63782	14861.4125
1218.21708	14968.1125
1221.79391	15179.4125
1225.36829	15212.6125
1228.94024	15116.3125
1232.50976	14899.7125
1236.07685	14735.1125
1239.6415	14625.5125
1243.20374	14590.9125
1246.76355	14617.2125
1250.32093	14812.9125
1253.8759	15193.6125
1257.42845	15713.5125
1260.97859	16281.1125
1264.52631	16783.5125
1268.07163	17247.0125
1271.61453	17720.0125
1275.15503	18141.6125
1278.69312	18530.4125
1282.22882	18944.1125
1285.76211	19584.0125
1289.29301	20389.7125
1292.82151	21265.7125
1296.34761	22291.8125
1299.87133	23637.2125
1303.39266	25579.8125
1306.9116	28213.6125
1310.42815	31027.7125
1313.94233	32578.5125
1317.45412	32256.6125
1320.96354	30770.9125
1324.47058	29118.3125
1327.97525	27684.3125
1331.47754	26813.5125
1334.97747	26424.1125
1338.47502	26418.3125
1341.97022	26552.8125
1345.46305	26752.7125
1348.95352	27156.4125
1352.44163	28054.7125
1355.92738	29714.0125
1359.41078	32574.5125
1362.89183	34943.2125
1366.37053	33679.3125
1369.84688	29433.2125
1373.32088	25202.8125
1376.79254	22492.7125
1380.26186	21249.7125
1383.72883	20805.8125
1387.19347	20518.7125
1390.65578	20232.9125
1394.11575	20160.2125
1397.57339	20480.8125
1401.0287	21025.4125
1404.48168	21560.2125
1407.93234	21910.1125
1411.38068	21910.2125
1414.82669	21360.7125
1418.27039	20319.9125
1421.71177	19196.0125
1425.15083	18401.5125
1428.58758	18067.0125
1432.02203	18221.2125
1435.45416	18485.4125
1438.88399	18697.9125
1442.31151	18902.3125
1445.73673	19098.9125
1449.15965	19291.1125
1452.58027	19308.8125
1455.9986	19251.7125
1459.41463	19304.3125
1462.82837	19622.0125
1466.23982	20045.3125
1469.64898	20392.7125
1473.05586	20553.7125
1476.46045	20662.0125
1479.86276	20736.1125
1483.26279	20874.9125
1486.66054	21163.1125
1490.05602	21641.6125
1493.44922	22238.7125
1496.84016	23013.2125
1500.22882	24264.3125
1503.61521	26053.2125
1506.99934	28111.7125
1510.38121	29965.4125
1513.76081	30497.6125
1517.13816	29083.7125
1520.51324	26467.6125
1523.88607	24082.1125
1527.25665	22620.5125
1530.62498	21934.2125
1533.99105	21515.4125
1537.35488	21248.9125
1540.71647	21015.1125
1544.07581	20676.2125
1547.4329	20247.5125
1550.78776	19766.0125
1554.14038	19318.3125
1557.49077	19101.2125
1560.83892	19134.3125
1564.18484	19400.2125
1567.52853	19652.4125
1570.86999	19960.3125
1574.20922	20220.1125
1577.54624	20096.4125
1580.88103	19441.6125
1584.2136	18771.7125
1587.54395	18946.2125
1590.87208	20073.6125
1594.19801	21941.4125
1597.52172	23990.1125
1600.84321	24841.0125
1604.16251	23910.0125
1607.47959	21757.1125
1610.79447	19248.1125
1614.10715	17077.5125
1617.41763	15527.1125
1620.7259	14636.0125
1624.03199	14234.5125
1627.33587	14305.7125
1630.63757	14798.2125
1633.93707	15816.2125
1637.23439	17456.2125
1640.52951	19719.1125
1643.82246	22376.5125
1647.11321	24693.9125
1650.40179	25487.9125
1653.68819	23848.6125
1656.97241	20456.6125
1660.25446	16993.9125
1663.53433	14540.7125
1666.81203	13011.4125
1670.08756	12087.4125
1673.36092	11536.1125
1676.63211	11147.7125
1679.90115	10899.8125
1683.16801	10712.5125
1686.43272	10570.3125
1689.69527	10502.0125
1692.95567	10407.6125
1696.2139	10379.8125
1699.46999	10345.0125
1702.72392	10312.4125
1705.97571	10296.9125
1709.22535	10289.7125
1712.47284	10284.5125
1715.71819	10252.9125
1718.96139	10264.2125
1722.20246	10215.0125
1725.44139	10182.4125
1728.67818	10102.5125
1731.91284	10049.6125
1735.14537	9957.0125
1738.37576	9927.4125
1741.60403	9884.4125
1744.83017	9852.1125
1748.05418	9824.7125
1751.27607	9826.3125
1754.49584	9780.3125
1757.71349	9775.5125
1760.92903	9776.8125
1764.14244	9747.8125
1767.35375	9725.9125
1770.56294	9726.1125
1773.77002	9708.4125
1776.97499	9672.5125
1780.17785	9670.0125
1783.37861	9647.8125
1786.57727	9637.4125
1789.77382	9623.3125
1792.96828	9622.0125
1796.16064	9614.1125
1799.3509	9602.3125
1802.53907	9569.9125
1805.72514	9556.8125
1808.90913	9526.3125
1812.09102	9491.5125
1815.27083	9469.6125
1818.44856	9444.9125
1821.6242	9447.6125
1824.79776	9447.8125
1827.96924	9412.4125
1831.13864	9414.9125
1834.30597	9406.4125
1837.47122	9384.7125
1840.6344	9374.8125
1843.7955	9383.9125
1846.95454	9374.6125
1850.11151	9374.7125
1853.26642	9375.8125
1856.41926	9366.7125
1859.57004	9391.1125
1862.71876	9376.0125
1865.86542	9400.3125
1869.01003	9394.0125
1872.15258	9402.8125
1875.29308	9408.5125
1878.43152	9438.1125
1881.56792	9424.6125
1884.70227	9446.1125
1887.83457	9439.1125
1890.96482	9445.6125
1894.09304	9446.2125
1897.21921	9435.6125
1900.34335	9449.7125
1903.46544	9420.5125
1906.58551	9425.9125
1909.70353	9417.7125
1912.81953	9436.2125
1915.93349	9422.6125
1919.04543	9393.4125
1922.15534	9380.2125
1925.26322	9337.1125
1928.36908	9329.5125
1931.47292	9321.6125
1934.57473	9271.5125
1937.67453	9241.4125
1940.77232	9210.3125
1943.86808	9145.6125
1946.96184	9134.5125
1950.05358	9088.5125
1953.14331	9065.5125
1956.23103	9022.9125
1959.31675	9027.8125
1962.40046	8983.6125
1965.48217	8937.7125
1968.56188	8917.5125
1971.63959	8899.9125
1974.7153	8863.8125
1977.78901	8833.3125
1980.86073	8810.7125
1983.93046	8778.9125
1986.99819	8738.4125
1990.06394	8707.3125
1993.1277	8692.8125
1996.18947	8674.3125
1999.24925	8658.5125
2002.30706	8633.4125
2005.36288	8606.2125
2008.41672	8587.7125
2011.46859	8538.3125
2014.51848	8516.9125
2017.56639	8488.5125
2020.61233	8466.5125
2023.6563	8446.7125
2026.6983	8428.4125
2029.73833	8423.2125
2032.7764	8388.8125
2035.8125	8404.9125
2038.84664	8350.9125
2041.87881	8347.0125
2044.90903	8341.2125
2047.93729	8307.8125
2050.96359	8321.5125
2053.98794	8305.0125
2057.01034	8295.0125
2060.03078	8277.6125
2063.04927	8274.7125
2066.06582	8238.1125
2069.08042	8262.6125
2072.09307	8264.6125
2075.10378	8218.1125
2078.11255	8228.1125
2081.11938	8200.9125
2084.12426	8198.0125
2087.12722	8184.2125
2090.12824	8182.6125
2093.12732	8180.8125
2096.12447	8169.1125
2099.11969	8191.5125
2102.11299	8183.7125
2105.10435	8206.6125
2108.09379	8175.7125
2111.08131	8189.1125
2114.0669	8163.9125
2117.05057	8210.8125
2120.03233	8190.4125
2123.01216	8178.7125
2125.99008	8178.5125
2128.96609	8196.5125
2131.94018	8213.0125
2134.91236	8212.6125
2137.88263	8223.1125
2140.851	8213.8125
2143.81746	8222.9125
2146.78201	8197.6125
2149.74466	8205.4125
2152.7054	8197.8125
2155.66425	8188.4125
2158.6212	8180.4125
2161.57625	8180.0125
2164.52941	8178.2125
2167.48067	8176.3125
2170.43004	8191.9125
2173.37752	8144.3125
2176.32311	8170.6125
2179.26681	8138.6125
2182.20863	8150.2125
2185.14856	8151.6125
2188.08661	8180.0125
2191.02278	8155.5125
2193.95707	8160.7125
2196.88948	8133.9125
2199.82001	8140.9125
2202.74867	8123.0125
2205.67545	8148.8125
2208.60037	8130.8125
2211.52341	8077.0125
2214.44458	8093.3125
2217.36388	8057.9125
2220.28132	8046.8125
2223.1969	8020.6125
2226.11061	8039.2125
2229.02246	8021.6125
2231.93245	8005.7125
2234.84058	7987.9125
2237.74686	7979.9125
2240.65128	7954.3125
2243.55385	7945.0125
2246.45456	7946.8125
2249.35343	7922.9125
2252.25044	7936.3125
2255.14561	7921.0125
2258.03893	7888.6125
2260.93041	7900.4125
2263.82004	7879.4125
2266.70783	7864.3125
2269.59378	7821.0125
2272.4779	7818.2125
2275.36017	7784.6125
2278.24061	7779.4125
2281.11922	7744.6125
2283.996	7742.7125
2286.87094	7736.5125
2289.74405	7690.8125
2292.61534	7696.2125
2295.4848	7706.4125
2298.35243	7690.6125
2301.21824	7683.8125
2304.08223	7680.9125
2306.94439	7670.0125
2309.80474	7680.9125
2312.66327	7684.6125
2315.51999	7689.2125
2318.37489	7669.2125
2321.22797	7641.2125
2324.07925	7649.8125
2326.92871	7640.1125
2329.77637	7653.9125
2332.62222	7625.4125
2335.46626	7636.5125
2338.3085	7613.5125
2341.14893	7621.9125
2343.98756	7626.3125
2346.8244	7625.9125
2349.65943	7629.8125
2352.49267	7611.4125
2355.32411	7647.2125
2358.15376	7634.0125
2360.98161	7647.8125
2363.80768	7662.4125
2366.63195	7647.3125
2369.45444	7633.5125
2372.27514	7621.6125
2375.09405	7596.4125
2377.91118	7602.6125
2380.72652	7546.9125
2383.54009	7519.9125
2386.35187	7485.1125
2389.16188	7479.3125
2391.97011	7452.1125
2394.77657	7433.5125
2397.58125	7440.0125
2400.38416	7413.3125
2403.18529	7404.0125
2405.98466	7390.7125
2408.78226	7367.1125
2411.57809	7358.1125
2414.37216	7341.7125
2417.16446	7305.3125
2419.955	7301.2125
2422.74378	7323.4125
2425.5308	7316.4125
2428.31606	7283.3125
2431.09956	7313.1125
2433.88131	7295.6125
2436.6613	7311.8125
2439.43954	7298.4125
2442.21603	7292.6125
2444.99077	7288.0125
2447.76377	7274.3125
2450.53501	7274.5125
2453.30451	7277.1125
2456.07226	7272.4125
2458.83827	7258.6125
2461.60254	7267.5125
2464.36507	7283.8125
2467.12586	7254.9125
2469.88492	7238.7125
2472.64224	7272.3125
2475.39782	7251.8125
2478.15167	7294.2125
2480.90379	7282.3125
2483.65417	7307.5125
2486.40283	7321.0125
2489.14976	7306.9125
2491.89497	7329.2125
2494.63845	7331.6125
2497.3802	7337.1125
2500.12024	7344.6125
2502.85855	7294.2125
2505.59514	7309.1125
2508.33002	7299.8125
2511.06318	7273.5125
2513.79462	7235.4125
2516.52435	7243.5125
2519.25237	7216.5125
2521.97867	7209.2125
2524.70327	7198.0125
2527.42616	7187.4125
2530.14734	7193.1125
2532.86681	7182.5125
2535.58458	7160.6125
2538.30065	7152.6125
2541.01501	7161.2125
2543.72768	7154.5125
2546.43864	7167.5125
2549.14791	7150.9125
2551.85548	7144.4125
2554.56136	7150.3125
2557.26554	7118.7125
2559.96803	7108.6125
2562.66883	7114.8125
2565.36794	7112.2125
2568.06536	7098.8125
2570.7611	7071.8125
2573.45514	7083.0125
2576.14751	7086.0125
2578.83819	7055.8125
2581.52719	7059.3125
2584.21451	7051.6125
2586.90015	7065.8125
2589.58411	7044.8125
2592.2664	7056.3125
2594.94701	7049.3125
2597.62594	7051.4125
2600.30321	7057.4125
2602.9788	7037.7125
2605.65273	7059.2125
2608.32498	7047.4125
2610.99557	7028.3125
2613.66449	7029.4125
2616.33175	7065.9125
2618.99734	7065.8125
2621.66128	7059.1125
2624.32355	7059.6125
2626.98416	7046.1125
2629.64311	7030.9125
2632.30041	7039.5125
2634.95605	7024.6125
2637.61004	7018.1125
2640.26238	7021.5125
2642.91306	6993.2125
2645.56209	6991.5125
2648.20948	6988.9125
2650.85521	6983.8125
2653.4993	6987.7125
2656.14175	6963.8125
2658.78255	6988.8125
2661.42171	6998.5125
2664.05923	6993.8125
2666.6951	7011.8125
2669.32934	7004.1125
2671.96194	7018.2125
2674.59291	7034.0125
2677.22224	7034.9125
2679.84993	7033.1125
2682.476	7025.3125
2685.10043	7024.3125
2687.72324	7026.9125
2690.34441	7016.3125
2692.96396	7021.2125
2695.58188	7018.0125
2698.19818	6999.4125
2700.81285	6995.9125
2703.4259	6967.0125
2706.03733	7004.6125
2708.64714	7010.0125
2711.25533	7007.6125
2713.86191	6995.4125
2716.46687	7044.1125
2719.07021	7038.5125
2721.67194	7047.0125
2724.27206	7036.2125
2726.87057	7061.2125
2729.46747	7055.1125
2732.06276	7052.1125
2734.65644	7056.6125
2737.24852	7053.3125
2739.83899	7041.5125
2742.42786	7039.0125
2745.01513	7015.0125
2747.60079	7012.9125
2750.18486	7009.2125
2752.76733	6995.4125
2755.3482	7000.7125
2757.92747	7013.8125
2760.50515	6966.6125
2763.08123	6980.5125
2765.65573	6999.9125
2768.22863	6978.2125
2770.79994	6973.9125
2773.36967	6964.1125
2775.9378	6977.8125
2778.50435	6972.3125
2781.06932	6976.1125
2783.6327	6995.0125
2786.1945	6963.3125
2788.75471	6986.2125
2791.31335	6959.3125
2793.87041	6939.2125
2796.42589	6951.4125
2798.97979	6940.2125
2801.53212	6920.5125
2804.08288	6911.0125
2806.63206	6877.9125
2809.17967	6885.0125
2811.72571	6881.6125
2814.27018	6870.6125
2816.81308	6863.3125
2819.35442	6858.0125
2821.89419	6865.5125
2824.43239	6867.4125
2826.96904	6856.6125
2829.50412	6866.2125
2832.03763	6860.9125
2834.56959	6856.2125
2837.1	6845.6125
2839.62884	6846.4125
2842.15613	6852.4125
2844.68186	6870.1125
2847.20604	6904.6125
2849.72867	6900.4125
2852.24974	6892.6125
2854.76927	6870.6125
2857.28724	6882.9125
2859.80367	6874.8125
2862.31855	6855.6125
2864.83189	6864.2125
2867.34368	6841.7125
2869.85393	6835.2125
2872.36264	6842.2125
2874.8698	6827.1125
2877.37543	6804.6125
2879.87952	6807.7125
2882.38207	6783.1125
2884.88308	6810.6125
2887.38256	6805.8125
2889.88051	6790.8125
2892.37692	6812.8125
2894.8718	6800.7125
2897.36515	6818.6125
2899.85698	6815.4125
2902.34727	6828.1125
2904.83604	6812.1125
2907.32328	6835.6125
2909.809	6835.2125
2912.29319	6837.8125
2914.77587	6830.5125
2917.25702	6829.8125
2919.73665	6826.7125
2922.21476	6817.5125
2924.69136	6788.9125
2927.16644	6819.0125
2929.64	6788.3125
2932.11205	6778.3125
2934.58258	6749.2125
2937.05161	6749.4125
2939.51912	6745.6125
2941.98513	6727.2125
2944.44962	6679.8125
2946.91261	6687.1125
2949.37409	6682.3125
2951.83407	6677.9125
2954.29254	6654.2125
2956.74951	6644.3125
2959.20498	6645.9125
2961.65895	6628.5125
2964.11142	6625.7125
2966.56239	6627.3125
2969.01186	6591.9125
2971.45984	6585.7125
2973.90632	6571.1125
2976.35131	6557.3125
2978.7948	6537.9125
2981.23681	6524.7125
2983.67732	6501.8125
2986.11635	6496.2125
2988.55388	6463.6125
2990.98993	6457.5125
2993.4245	6426.4125
2995.85758	6420.2125
2998.28917	6382.0125
3000.71928	6388.3125
3003.14791	6376.1125
3005.57506	6365.6125
3008.00073	6343.6125
3010.42493	6328.2125
3012.84764	6320.9125
3015.26888	6330.5125
3017.68865	6286.1125
3020.10694	6273.0125
3022.52376	6256.8125
3024.9391	6263.7125
3027.35298	6246.4125
3029.76539	6236.8125
3032.17632	6229.3125
3034.5858	6217.8125
3036.9938	6214.2125
3039.40034	6216.1125
3041.80542	6205.3125
3044.20903	6200.7125
3046.61118	6199.2125
3049.01187	6186.8125
3051.4111	6175.7125
3053.80888	6152.2125
3056.20519	6126.6125
3058.60005	6123.5125
3060.99345	6096.0125
3063.3854	6092.6125
3065.7759	6074.3125
3068.16494	6059.7125
3070.55254	6027.5125
3072.93868	6012.7125
3075.32338	5985.1125
3077.70662	5951.7125
3080.08842	5942.8125
3082.46878	5926.2125
