Data from AgNPs_UA_50uM_CRN_0uM_R6G_10uM_Q_RamanShift__17__12-31-01-773.txt Node

Date: Tue Jul 26 12:31:01 BST 2022
User: TCL
Spectrometer: QEP01345
Trigger mode: 4
Integration Time (sec): 7.000000E0
Scans to average: 10
Electric dark correction enabled: true
Nonlinearity correction enabled: false
Boxcar width: 0
XAxis mode: Raman Shifts
Number of Pixels in Spectrum: 1044
>>>>>Begin Spectral Data<<<<<
46.04893	0.175
50.45542	-0.425
54.85868	0.675
59.25871	-1.425
63.6555	74.475
68.04907	77.375
72.43941	83.575
76.82654	89.075
81.21044	90.775
85.59113	96.875
89.96862	97.575
94.34289	102.275
98.71396	108.775
103.08183	109.475
107.4465	112.275
111.80798	117.675
116.16626	115.875
120.52136	124.875
124.87327	120.175
129.222	126.675
133.56755	135.275
137.90993	139.775
142.24913	154.875
146.58517	168.075
150.91804	185.775
155.24774	218.075
159.57429	263.875
163.89768	331.975
168.21792	431.475
172.53501	585.875
176.84895	810.275
181.15975	1120.175
185.46741	1576.775
189.77193	2167.075
194.07331	2902.075
198.37157	3712.775
202.6667	4584.075
206.9587	5455.975
211.24758	6300.175
215.53334	7155.375
219.81599	8048.675
224.09553	9027.575
228.37195	10096.675
232.64527	11303.975
236.91549	12559.775
241.18261	13800.475
245.44663	14959.175
249.70755	16033.875
253.96539	16962.675
258.22014	17742.575
262.4718	18321.875
266.72039	18763.275
270.96589	18945.575
275.20832	18959.575
279.44768	18789.375
283.68397	18565.175
287.91719	18279.475
292.14735	18120.475
296.37445	18105.675
300.59849	18171.275
304.81948	18283.675
309.03742	18328.775
313.25231	18295.375
317.46415	18046.675
321.67296	17752.275
325.87872	17506.475
330.08145	17441.575
334.28114	17549.075
338.47781	17755.075
342.67145	18037.875
346.86207	18376.575
351.04966	18803.475
355.23424	19247.475
359.4158	19659.175
363.59435	19948.575
367.76989	20258.375
371.94243	20407.875
376.11196	20567.375
380.27849	20719.075
384.44203	20848.775
388.60257	21003.575
392.76012	21129.375
396.91468	21300.875
401.06626	21572.275
405.21485	21797.575
409.36047	21782.975
413.50311	21640.875
417.64277	21523.575
421.77947	21451.775
425.9132	21149.775
430.04396	21085.175
434.17176	21180.775
438.2966	21405.775
442.41849	21646.775
446.53742	21927.975
450.6534	22302.575
454.76644	22626.775
458.87653	22792.375
462.98368	22910.875
467.08789	22873.175
471.18916	22708.375
475.2875	22539.075
479.38291	22313.775
483.4754	22136.775
487.56496	22074.875
491.6516	22023.175
495.73531	22028.575
499.81612	22030.575
503.89401	22214.975
507.96899	22337.175
512.04106	22398.975
516.11023	22449.975
520.1765	22472.675
524.23987	22483.175
528.30034	22480.675
532.35792	22483.775
536.41261	22439.075
540.46441	22281.875
544.51333	22216.375
548.55936	22308.975
552.60252	22510.375
556.64279	22796.375
560.6802	23002.975
564.71473	23148.675
568.7464	23220.575
572.7752	23265.675
576.80114	23227.375
580.82422	23209.175
584.84444	23348.475
588.86181	23481.175
592.87633	23525.675
596.888	23679.375
600.89682	24083.975
604.9028	25251.375
608.90594	27740.275
612.90624	30145.875
616.90371	28899.575
620.89834	25387.875
624.89015	23828.575
628.87913	23696.775
632.86528	23927.475
636.84862	24091.275
640.82913	23945.075
644.80683	23523.975
648.78172	23228.975
652.75379	23252.075
656.72306	23564.075
660.68952	23986.375
664.65319	24019.175
668.61405	23904.475
672.57211	24031.775
676.52738	24151.975
680.47986	24064.175
684.42955	23875.375
688.37646	23841.075
692.32058	23958.075
696.26192	24182.075
700.20048	24429.275
704.13626	24551.075
708.06928	24483.475
711.99952	24279.275
715.927	24221.175
719.85171	24214.275
723.77365	24220.675
727.69284	24086.575
731.60928	23970.575
735.52295	23946.375
739.43388	23952.275
743.34206	24042.175
747.24749	24048.075
751.15017	24082.475
755.05012	24224.575
758.94733	24568.575
762.8418	25358.575
766.73354	26620.475
770.62254	27867.575
774.50882	28499.875
778.39237	28299.475
782.27321	27303.575
786.15132	26122.475
790.02671	25250.375
793.89938	24757.475
797.76935	24509.475
801.6366	24350.475
805.50115	24281.375
809.36299	24160.475
813.22213	24129.875
817.07857	24099.075
820.93231	24146.475
824.78336	24204.875
828.63172	24216.575
832.47738	24239.275
836.32036	24226.475
840.16066	24228.275
843.99827	24231.775
847.8332	24295.075
851.66546	24267.475
855.49504	24329.275
859.32195	24405.175
863.1462	24417.975
866.96777	24423.075
870.78668	24429.075
874.60293	24487.475
878.41652	24556.275
882.22745	24642.075
886.03573	24710.375
889.84136	24651.075
893.64433	24596.075
897.44466	24571.175
901.24235	24527.875
905.0374	24498.975
908.8298	24454.175
912.61957	24455.575
916.40671	24443.775
920.19121	24490.875
923.97308	24542.775
927.75233	24647.475
931.52895	24683.575
935.30295	24635.675
939.07433	24484.175
942.84309	24284.475
946.60924	24250.375
950.37278	24212.975
954.13371	24209.875
957.89203	24188.975
961.64774	24167.475
965.40086	24139.775
969.15137	24141.175
972.89929	24106.075
976.64461	24095.675
980.38733	24077.875
984.12747	24154.475
987.86502	24275.675
991.59999	24425.575
995.33237	24603.975
999.06217	24783.675
1002.78939	25071.475
1006.51404	25352.975
1010.23611	25605.275
1013.95561	25772.475
1017.67255	25820.775
1021.38692	25711.375
1025.09872	25588.675
1028.80796	25462.875
1032.51465	25471.775
1036.21877	25576.975
1039.92035	25681.875
1043.61937	25674.475
1047.31584	25584.775
1051.00976	25529.975
1054.70114	25571.475
1058.38998	25611.775
1062.07627	25749.075
1065.76003	25887.375
1069.44126	26085.275
1073.11995	26515.175
1076.79611	26984.375
1080.46974	27247.875
1084.14085	27346.475
1087.80943	27406.675
1091.47549	27463.475
1095.13903	27519.875
1098.80005	27472.175
1102.45857	27489.775
1106.11456	27391.775
1109.76805	27153.675
1113.41903	26989.075
1117.06751	26959.875
1120.71348	27102.875
1124.35696	27282.075
1127.99793	27399.475
1131.63641	27407.775
1135.2724	27192.375
1138.90589	26983.775
1142.5369	26821.275
1146.16542	26725.175
1149.79145	26596.975
1153.415	26382.175
1157.03607	26282.075
1160.65467	26411.775
1164.27079	26667.475
1167.88443	27152.775
1171.49561	27899.175
1175.10432	28884.675
1178.71056	30241.275
1182.31434	31454.075
1185.91565	32185.375
1189.51451	32394.875
1193.11091	32214.775
1196.70485	31689.475
1200.29634	31144.275
1203.88538	30547.775
1207.47197	29934.075
1211.05612	29300.175
1214.63782	28826.875
1218.21708	28449.875
1221.79391	28098.975
1225.36829	27871.175
1228.94024	27745.675
1232.50976	27608.275
1236.07685	27567.675
1239.6415	27618.975
1243.20374	27702.675
1246.76355	27880.475
1250.32093	28087.975
1253.8759	28356.175
1257.42845	28786.875
1260.97859	29374.275
1264.52631	29897.475
1268.07163	30343.575
1271.61453	30730.775
1275.15503	30949.475
1278.69312	31097.375
1282.22882	31148.275
1285.76211	31167.975
1289.29301	31305.875
1292.82151	31552.875
1296.34761	31950.975
1299.87133	32621.875
1303.39266	33576.675
1306.9116	35076.475
1310.42815	36694.175
1313.94233	37666.775
1317.45412	37546.275
1320.96354	36866.175
1324.47058	35959.875
1327.97525	34982.575
1331.47754	34175.675
1334.97747	33872.475
1338.47502	34063.475
1341.97022	34642.275
1345.46305	35577.075
1348.95352	36598.575
1352.44163	37456.675
1355.92738	38175.175
1359.41078	39162.375
1362.89183	39988.475
1366.37053	39026.075
1369.84688	36303.575
1373.32088	33604.375
1376.79254	31819.175
1380.26186	30793.675
1383.72883	30183.575
1387.19347	29758.375
1390.65578	29254.375
1394.11575	28727.675
1397.57339	28328.875
1401.0287	28156.975
1404.48168	28182.675
1407.93234	28277.675
1411.38068	28444.175
1414.82669	28469.375
1418.27039	28336.975
1421.71177	28225.875
1425.15083	28032.175
1428.58758	27963.775
1432.02203	28004.675
1435.45416	28173.075
1438.88399	28255.875
1442.31151	28307.775
1445.73673	28350.375
1449.15965	28407.975
1452.58027	28400.075
1455.9986	28372.075
1459.41463	28488.375
1462.82837	28766.875
1466.23982	29153.475
1469.64898	29491.575
1473.05586	29717.875
1476.46045	29836.575
1479.86276	29942.475
1483.26279	30026.975
1486.66054	30199.475
1490.05602	30454.075
1493.44922	31010.275
1496.84016	31798.675
1500.22882	33047.275
1503.61521	34745.175
1506.99934	36336.975
1510.38121	37224.575
1513.76081	37159.475
1517.13816	35966.275
1520.51324	34110.075
1523.88607	32405.275
1527.25665	31244.475
1530.62498	30558.375
1533.99105	30167.375
1537.35488	29884.975
1540.71647	29710.475
1544.07581	29630.975
1547.4329	29595.275
1550.78776	29521.475
1554.14038	29397.575
1557.49077	29429.175
1560.83892	29496.175
1564.18484	29769.575
1567.52853	30104.575
1570.86999	30288.075
1574.20922	30407.275
1577.54624	30307.275
1580.88103	29854.975
1584.2136	29306.575
1587.54395	29043.075
1590.87208	29305.775
1594.19801	30001.675
1597.52172	31002.775
1600.84321	31506.675
1604.16251	31281.075
1607.47959	30624.975
1610.79447	29668.175
1614.10715	28502.775
1617.41763	27378.575
1620.7259	26608.975
1624.03199	26104.675
1627.33587	25986.575
1630.63757	26130.875
1633.93707	26664.475
1637.23439	27553.575
1640.52951	28859.075
1643.82246	30636.775
1647.11321	32237.875
1650.40179	32874.975
1653.68819	32087.475
1656.97241	29928.475
1660.25446	27808.875
1663.53433	26262.275
1666.81203	25310.975
1670.08756	24663.675
1673.36092	24271.375
1676.63211	23990.775
1679.90115	23778.675
1683.16801	23571.375
1686.43272	23493.975
1689.69527	23361.975
1692.95567	23271.675
1696.2139	23244.975
1699.46999	23145.875
1702.72392	23128.375
1705.97571	23133.675
1709.22535	23091.075
1712.47284	23116.175
1715.71819	23079.075
1718.96139	23009.575
1722.20246	22955.875
1725.44139	22891.075
1728.67818	22839.175
1731.91284	22776.475
1735.14537	22689.375
1738.37576	22638.575
1741.60403	22546.775
1744.83017	22503.275
1748.05418	22418.875
1751.27607	22364.275
1754.49584	22354.275
1757.71349	22307.875
1760.92903	22312.975
1764.14244	22281.275
1767.35375	22256.475
1770.56294	22247.275
1773.77002	22227.975
1776.97499	22193.175
1780.17785	22198.775
1783.37861	22165.375
1786.57727	22168.775
1789.77382	22084.375
1792.96828	22043.975
1796.16064	22086.575
1799.3509	22063.075
1802.53907	21990.075
1805.72514	21973.575
1808.90913	21904.575
1812.09102	21819.475
1815.27083	21760.975
1818.44856	21769.675
1821.6242	21736.775
1824.79776	21673.975
1827.96924	21638.675
1831.13864	21603.675
1834.30597	21576.575
1837.47122	21572.975
1840.6344	21577.575
1843.7955	21562.475
1846.95454	21529.375
1850.11151	21492.775
1853.26642	21482.975
1856.41926	21490.275
1859.57004	21473.075
1862.71876	21466.775
1865.86542	21425.075
1869.01003	21405.975
1872.15258	21351.475
1875.29308	21379.475
1878.43152	21332.275
1881.56792	21274.475
1884.70227	21302.175
1887.83457	21276.075
1890.96482	21228.275
1894.09304	21179.275
1897.21921	21150.975
1900.34335	21130.575
1903.46544	21113.375
1906.58551	21104.375
1909.70353	21088.775
1912.81953	21088.475
1915.93349	21040.075
1919.04543	21026.775
1922.15534	20934.975
1925.26322	20912.875
1928.36908	20859.075
1931.47292	20811.375
1934.57473	20787.875
1937.67453	20748.575
1940.77232	20728.175
1943.86808	20666.475
1946.96184	20638.875
1950.05358	20566.875
1953.14331	20495.675
1956.23103	20439.875
1959.31675	20361.975
1962.40046	20299.175
1965.48217	20245.775
1968.56188	20217.775
1971.63959	20133.075
1974.7153	20102.275
1977.78901	20067.875
1980.86073	19997.775
1983.93046	19963.275
1986.99819	19889.775
1990.06394	19840.275
1993.1277	19770.475
1996.18947	19743.975
1999.24925	19681.075
2002.30706	19643.975
2005.36288	19584.575
2008.41672	19512.575
2011.46859	19489.375
2014.51848	19414.675
2017.56639	19331.075
2020.61233	19276.675
2023.6563	19220.875
2026.6983	19216.175
2029.73833	19146.475
2032.7764	19087.175
2035.8125	19064.475
2038.84664	19052.675
2041.87881	19053.675
2044.90903	18996.575
2047.93729	18942.975
2050.96359	18920.575
2053.98794	18908.275
2057.01034	18840.175
2060.03078	18880.675
2063.04927	18876.975
2066.06582	18838.675
2069.08042	18821.975
2072.09307	18820.775
2075.10378	18782.175
2078.11255	18734.475
2081.11938	18722.275
2084.12426	18727.775
2087.12722	18741.975
2090.12824	18765.375
2093.12732	18739.375
2096.12447	18745.075
2099.11969	18711.075
2102.11299	18737.375
2105.10435	18731.475
2108.09379	18760.375
2111.08131	18760.675
2114.0669	18751.475
2117.05057	18771.175
2120.03233	18797.875
2123.01216	18823.875
2125.99008	18840.175
2128.96609	18835.975
2131.94018	18836.675
2134.91236	18856.775
2137.88263	18869.575
2140.851	18889.475
2143.81746	18866.675
2146.78201	18890.175
2149.74466	18928.675
2152.7054	18931.975
2155.66425	18893.175
2158.6212	18893.775
2161.57625	18901.375
2164.52941	18836.675
2167.48067	18866.175
2170.43004	18849.175
2173.37752	18860.875
2176.32311	18857.175
2179.26681	18813.075
2182.20863	18844.875
2185.14856	18838.975
2188.08661	18829.575
2191.02278	18782.775
2193.95707	18809.275
2196.88948	18803.175
2199.82001	18810.675
2202.74867	18809.875
2205.67545	18783.675
2208.60037	18755.475
2211.52341	18740.675
2214.44458	18727.775
2217.36388	18652.075
2220.28132	18632.875
2223.1969	18579.575
2226.11061	18552.875
2229.02246	18527.475
2231.93245	18502.275
2234.84058	18426.475
2237.74686	18395.275
2240.65128	18392.775
2243.55385	18366.375
2246.45456	18346.175
2249.35343	18324.475
2252.25044	18307.875
2255.14561	18308.775
2258.03893	18290.775
2260.93041	18247.275
2263.82004	18228.375
2266.70783	18207.075
2269.59378	18138.975
2272.4779	18124.175
2275.36017	18057.275
2278.24061	17999.775
2281.11922	17961.775
2283.996	17957.275
2286.87094	17917.175
2289.74405	17856.875
2292.61534	17853.675
2295.4848	17828.075
2298.35243	17833.075
2301.21824	17808.175
2304.08223	17794.875
2306.94439	17796.675
2309.80474	17814.975
2312.66327	17784.275
2315.51999	17741.675
2318.37489	17756.075
2321.22797	17735.575
2324.07925	17686.875
2326.92871	17629.475
2329.77637	17599.175
2332.62222	17620.175
2335.46626	17567.175
2338.3085	17546.675
2341.14893	17521.975
2343.98756	17527.475
2346.8244	17510.775
2349.65943	17569.175
2352.49267	17505.975
2355.32411	17523.575
2358.15376	17462.775
2360.98161	17458.575
2363.80768	17469.375
2366.63195	17436.475
2369.45444	17414.175
2372.27514	17396.075
2375.09405	17401.475
2377.91118	17346.475
2380.72652	17335.475
2383.54009	17286.075
2386.35187	17243.675
2389.16188	17208.675
2391.97011	17147.475
2394.77657	17160.075
2397.58125	17125.475
2400.38416	17085.275
2403.18529	17078.575
2405.98466	17032.275
2408.78226	16959.975
2411.57809	16937.175
2414.37216	16925.175
2417.16446	16952.175
2419.955	16940.075
2422.74378	16951.075
2425.5308	16945.875
2428.31606	16905.575
2431.09956	16887.475
2433.88131	16884.175
2436.6613	16864.075
2439.43954	16865.075
2442.21603	16831.375
2444.99077	16803.375
2447.76377	16812.275
2450.53501	16771.675
2453.30451	16770.375
2456.07226	16708.075
2458.83827	16729.875
2461.60254	16684.675
2464.36507	16641.575
2467.12586	16633.975
2469.88492	16620.575
2472.64224	16632.675
2475.39782	16630.675
2478.15167	16613.975
2480.90379	16602.075
2483.65417	16600.675
2486.40283	16567.475
2489.14976	16591.975
2491.89497	16588.275
2494.63845	16589.575
2497.3802	16536.975
2500.12024	16544.275
2502.85855	16518.375
2505.59514	16498.175
2508.33002	16458.975
2511.06318	16440.075
2513.79462	16454.775
2516.52435	16458.775
2519.25237	16419.175
2521.97867	16391.975
2524.70327	16339.775
2527.42616	16313.875
2530.14734	16296.475
2532.86681	16305.475
2535.58458	16282.775
2538.30065	16269.075
2541.01501	16259.575
2543.72768	16217.375
2546.43864	16204.075
2549.14791	16168.175
2551.85548	16156.375
2554.56136	16134.575
2557.26554	16117.075
2559.96803	16086.075
2562.66883	16056.875
2565.36794	16021.475
2568.06536	16000.875
2570.7611	15996.275
2573.45514	15953.675
2576.14751	15930.875
2578.83819	15902.475
2581.52719	15884.675
2584.21451	15812.575
2586.90015	15834.475
2589.58411	15805.775
2592.2664	15798.575
2594.94701	15753.375
2597.62594	15725.575
2600.30321	15669.475
2602.9788	15642.975
2605.65273	15665.275
2608.32498	15642.375
2610.99557	15614.275
2613.66449	15591.575
2616.33175	15598.375
2618.99734	15609.875
2621.66128	15572.775
2624.32355	15566.275
2626.98416	15529.575
2629.64311	15506.275
2632.30041	15480.575
2634.95605	15469.975
2637.61004	15462.475
2640.26238	15435.875
2642.91306	15468.175
2645.56209	15425.975
2648.20948	15403.575
2650.85521	15355.175
2653.4993	15373.875
2656.14175	15346.475
2658.78255	15319.975
2661.42171	15310.275
2664.05923	15319.075
2666.6951	15333.175
2669.32934	15409.175
2671.96194	15378.375
2674.59291	15375.175
2677.22224	15321.075
2679.84993	15329.575
2682.476	15326.475
2685.10043	15310.375
2687.72324	15306.975
2690.34441	15289.975
2692.96396	15297.775
2695.58188	15323.475
2698.19818	15259.275
2700.81285	15271.775
2703.4259	15249.775
2706.03733	15290.875
2708.64714	15256.475
2711.25533	15287.075
2713.86191	15257.675
2716.46687	15289.275
2719.07021	15277.375
2721.67194	15317.275
2724.27206	15247.775
2726.87057	15246.675
2729.46747	15230.475
2732.06276	15264.475
2734.65644	15218.775
2737.24852	15218.875
2739.83899	15199.875
2742.42786	15236.775
2745.01513	15231.875
2747.60079	15156.975
2750.18486	15092.975
2752.76733	15112.475
2755.3482	15093.575
2757.92747	15087.975
2760.50515	15072.175
2763.08123	15050.775
2765.65573	15037.675
2768.22863	15045.775
2770.79994	15009.375
2773.36967	15015.675
2775.9378	14980.775
2778.50435	14948.275
2781.06932	14964.775
2783.6327	14947.775
2786.1945	14945.175
2788.75471	14890.175
2791.31335	14867.675
2793.87041	14771.275
2796.42589	14772.775
2798.97979	14775.575
2801.53212	14731.975
2804.08288	14711.675
2806.63206	14660.875
2809.17967	14603.275
2811.72571	14539.575
2814.27018	14569.575
2816.81308	14550.075
2819.35442	14531.475
2821.89419	14506.875
2824.43239	14494.775
2826.96904	14459.575
2829.50412	14473.475
2832.03763	14407.375
2834.56959	14385.175
2837.1	14350.375
2839.62884	14346.775
2842.15613	14321.275
2844.68186	14348.975
2847.20604	14310.275
2849.72867	14275.375
2852.24974	14271.475
2854.76927	14249.275
2857.28724	14231.775
2859.80367	14268.475
2862.31855	14225.475
2864.83189	14193.275
2867.34368	14151.975
2869.85393	14181.375
2872.36264	14136.575
2874.8698	14143.375
2877.37543	14135.475
2879.87952	14122.375
2882.38207	14115.675
2884.88308	14090.175
2887.38256	14091.275
2889.88051	14109.275
2892.37692	14103.675
2894.8718	14068.575
2897.36515	14068.375
2899.85698	14059.575
2902.34727	14109.875
2904.83604	14117.775
2907.32328	14161.575
2909.809	14125.575
2912.29319	14120.375
2914.77587	14116.975
2917.25702	14119.975
2919.73665	14090.775
2922.21476	14103.375
2924.69136	14079.275
2927.16644	14079.075
2929.64	14044.475
2932.11205	14028.675
2934.58258	13992.775
2937.05161	14009.775
2939.51912	14006.875
2941.98513	14000.475
2944.44962	13985.975
2946.91261	13927.475
2949.37409	13963.175
2951.83407	13961.175
2954.29254	13966.775
2956.74951	13946.075
2959.20498	13960.575
2961.65895	13914.975
2964.11142	13902.775
2966.56239	13880.975
2969.01186	13904.075
2971.45984	13907.475
2973.90632	13903.275
2976.35131	13865.575
2978.7948	13873.675
2981.23681	13816.175
2983.67732	13815.375
2986.11635	13786.575
2988.55388	13760.075
2990.98993	13743.175
2993.4245	13719.075
2995.85758	13707.775
2998.28917	13672.175
3000.71928	13667.075
3003.14791	13646.875
3005.57506	13617.575
3008.00073	13556.175
3010.42493	13562.875
3012.84764	13542.675
3015.26888	13550.075
3017.68865	13526.875
3020.10694	13505.175
3022.52376	13441.175
3024.9391	13456.275
3027.35298	13418.375
3029.76539	13413.875
3032.17632	13416.875
3034.5858	13403.175
3036.9938	13382.575
3039.40034	13382.675
3041.80542	13353.675
3044.20903	13321.875
3046.61118	13322.175
3049.01187	13275.175
3051.4111	13270.775
3053.80888	13243.075
3056.20519	13229.975
3058.60005	13173.775
3060.99345	13176.675
3063.3854	13127.975
3065.7759	13112.875
3068.16494	13101.075
3070.55254	13063.675
3072.93868	13060.475
3075.32338	12980.375
3077.70662	12985.575
3080.08842	12965.375
3082.46878	12953.775
3084.84769	12913.975
3087.22515	12937.175
3089.60118	12950.875
3091.97576	12925.875
3094.3489	12930.975
3096.72061	12909.075
3099.09087	12918.875
3101.4597	12881.275
3103.82709	12919.275
3106.19305	12910.075
3108.55757	12916.875
3110.92066	12867.875
3113.28232	12890.175
3115.64255	12851.075
3118.00134	12829.775
3120.35871	12812.775
3122.71466	12778.475
3125.06917	12738.075
3127.42226	12716.775
3129.77393	12748.075
