Data from AgNPs_UA_5uM_CRN_0uM_R6G_10uM_Q_RamanShift__0__10-49-15-301.txt Node

Date: Mon Jul 18 10:49:15 BST 2022
User: TCL
Spectrometer: QEP01345
Trigger mode: 4
Integration Time (sec): 7.000000E0
Scans to average: 10
Electric dark correction enabled: true
Nonlinearity correction enabled: false
Boxcar width: 0
XAxis mode: Raman Shifts
Number of Pixels in Spectrum: 1044
>>>>>Begin Spectral Data<<<<<
46.04893	-2.325
50.45542	-2.125
54.85868	-0.925
59.25871	-1.525
63.6555	165.575
68.04907	164.275
72.43941	171.975
76.82654	178.775
81.21044	185.175
85.59113	188.875
89.96862	199.575
94.34289	201.975
98.71396	215.075
103.08183	219.775
107.4465	223.075
111.80798	231.675
116.16626	241.075
120.52136	251.475
124.87327	259.675
129.222	278.675
133.56755	306.675
137.90993	333.775
142.24913	367.175
146.58517	418.375
150.91804	491.375
155.24774	590.475
159.57429	739.575
163.89768	951.875
168.21792	1285.175
172.53501	1762.675
176.84895	2469.475
181.15975	3481.975
185.46741	4923.675
189.77193	6835.175
194.07331	9202.075
198.37157	11887.275
202.6667	14736.775
206.9587	17563.375
211.24758	20367.575
215.53334	23216.175
219.81599	26220.475
224.09553	29504.575
228.37195	33173.875
232.64527	37242.775
236.91549	41453.975
241.18261	45621.175
245.44663	49410.275
249.70755	52701.175
253.96539	55487.275
258.22014	57735.375
262.4718	59590.475
266.72039	60635.875
270.96589	61099.475
275.20832	60998.975
279.44768	60416.175
283.68397	59588.275
287.91719	58874.075
292.14735	58336.975
296.37445	58180.775
300.59849	58502.375
304.81948	58848.475
309.03742	59195.675
313.25231	59148.275
317.46415	58640.275
321.67296	57605.075
325.87872	56681.375
330.08145	56359.175
334.28114	56534.575
338.47781	57133.675
342.67145	57952.375
346.86207	58890.575
351.04966	60090.875
355.23424	61454.675
359.4158	62703.475
363.59435	63765.875
367.76989	64423.275
371.94243	64948.275
376.11196	65343.375
380.27849	65740.275
384.44203	66308.275
388.60257	66949.775
392.76012	67659.675
396.91468	68470.575
401.06626	69250.475
405.21485	69870.375
409.36047	69717.675
413.50311	69047.975
417.64277	68432.875
421.77947	67996.675
425.9132	67686.375
430.04396	67666.975
434.17176	67707.375
438.2966	68112.775
442.41849	68713.275
446.53742	69611.875
450.6534	70791.975
454.76644	71871.775
458.87653	72646.575
462.98368	72971.975
467.08789	73014.175
471.18916	72666.575
475.2875	71825.575
479.38291	71130.675
483.4754	70698.675
487.56496	70398.875
491.6516	70110.375
495.73531	69991.275
499.81612	70184.675
503.89401	70782.775
507.96899	70986.575
512.04106	70951.675
516.11023	71000.075
520.1765	70935.275
524.23987	70712.875
528.30034	70510.075
532.35792	70488.675
536.41261	70237.975
540.46441	69826.775
544.51333	69717.575
548.55936	70203.775
552.60252	70873.675
556.64279	71648.675
560.6802	72300.975
564.71473	72811.075
568.7464	72916.475
572.7752	72771.575
576.80114	72480.575
580.82422	72494.675
584.84444	72823.375
588.86181	72884.675
592.87633	72807.275
596.888	73361.575
600.89682	75083.375
604.9028	79546.075
608.90594	88204.775
612.90624	95805.275
616.90371	90554.375
620.89834	78746.075
624.89015	73754.075
628.87913	73489.675
632.86528	74587.175
636.84862	75316.275
640.82913	74677.175
644.80683	73218.575
648.78172	72160.675
652.75379	72111.775
656.72306	73109.675
660.68952	74643.775
664.65319	74799.075
668.61405	74860.675
672.57211	75851.175
676.52738	75932.275
680.47986	74608.075
684.42955	73409.075
688.37646	73142.675
692.32058	73736.375
696.26192	74859.475
700.20048	75949.275
704.13626	76205.075
708.06928	75831.875
711.99952	75186.675
715.927	74752.675
719.85171	74926.575
723.77365	74914.475
727.69284	74451.275
731.60928	74050.775
735.52295	73815.475
739.43388	73702.975
743.34206	73942.275
747.24749	74103.275
751.15017	74167.875
755.05012	74565.675
758.94733	75703.475
762.8418	78350.175
766.73354	82490.375
770.62254	86262.475
774.50882	87985.475
778.39237	87763.775
782.27321	85529.875
786.15132	81852.075
790.02671	78659.075
793.89938	76631.175
797.76935	75553.075
801.6366	74971.275
805.50115	74703.775
809.36299	74484.675
813.22213	74481.075
817.07857	74342.875
820.93231	74413.875
824.78336	74471.675
828.63172	74669.575
832.47738	74596.575
836.32036	74480.775
840.16066	74466.175
843.99827	74448.775
847.8332	74389.275
851.66546	74525.975
855.49504	74671.975
859.32195	74731.875
863.1462	74766.275
866.96777	74894.075
870.78668	75025.575
874.60293	75203.375
878.41652	75396.175
882.22745	75697.875
886.03573	75806.275
889.84136	75772.675
893.64433	75611.375
897.44466	75481.475
901.24235	75355.575
905.0374	75411.875
908.8298	75251.975
912.61957	75169.475
916.40671	75211.475
920.19121	75235.175
923.97308	75472.675
927.75233	75954.775
931.52895	76097.575
935.30295	75958.175
939.07433	75417.775
942.84309	74850.575
946.60924	74468.775
950.37278	74269.775
954.13371	74213.375
957.89203	74322.875
961.64774	74335.875
965.40086	74240.375
969.15137	74182.875
972.89929	74038.575
976.64461	74107.275
980.38733	74185.475
984.12747	74379.275
987.86502	74601.675
991.59999	74751.975
995.33237	74912.075
999.06217	75182.075
1002.78939	75690.975
1006.51404	76447.175
1010.23611	77348.275
1013.95561	77979.575
1017.67255	78219.875
1021.38692	78253.175
1025.09872	77938.975
1028.80796	77243.975
1032.51465	76883.375
1036.21877	76981.375
1039.92035	77294.175
1043.61937	77664.175
1047.31584	77748.075
1051.00976	77961.175
1054.70114	78286.575
1058.38998	78712.575
1062.07627	79279.875
1065.76003	79766.675
1069.44126	80605.775
1073.11995	82153.675
1076.79611	83688.075
1080.46974	84331.075
1084.14085	84482.875
1087.80943	84755.975
1091.47549	85236.175
1095.13903	85852.175
1098.80005	86820.775
1102.45857	88121.575
1106.11456	88041.175
1109.76805	86129.875
1113.41903	84816.475
1117.06751	84748.075
1120.71348	84931.375
1124.35696	84869.275
1127.99793	84869.675
1131.63641	84408.475
1135.2724	83336.175
1138.90589	82517.375
1142.5369	81955.875
1146.16542	81718.175
1149.79145	81459.675
1153.415	80938.375
1157.03607	80590.275
1160.65467	81037.975
1164.27079	81993.575
1167.88443	83639.875
1171.49561	85953.075
1175.10432	88981.875
1178.71056	93127.975
1182.31434	96611.175
1185.91565	98512.775
1189.51451	99227.275
1193.11091	98946.775
1196.70485	97852.575
1200.29634	96186.975
1203.88538	94231.075
1207.47197	91978.275
1211.05612	89912.075
1214.63782	88016.175
1218.21708	86464.775
1221.79391	85205.575
1225.36829	84429.175
1228.94024	84227.775
1232.50976	84300.975
1236.07685	84548.175
1239.6415	84853.375
1243.20374	85248.075
1246.76355	85531.375
1250.32093	86005.475
1253.8759	86781.375
1257.42845	88255.275
1260.97859	90055.275
1264.52631	91668.775
1268.07163	92908.675
1271.61453	93673.375
1275.15503	94070.675
1278.69312	94180.075
1282.22882	93973.175
1285.76211	94247.575
1289.29301	94777.175
1292.82151	95352.675
1296.34761	96359.375
1299.87133	97955.475
1303.39266	100542.475
1306.9116	104222.375
1310.42815	107969.375
1313.94233	110064.875
1317.45412	109483.675
1320.96354	107985.875
1324.47058	106393.575
1327.97525	104387.575
1331.47754	102733.575
1334.97747	102063.975
1338.47502	102648.275
1341.97022	104960.675
1345.46305	108779.175
1348.95352	113171.275
1352.44163	117074.575
1355.92738	119907.475
1359.41078	122139.575
1362.89183	122956.175
1366.37053	119051.475
1369.84688	110592.875
1373.32088	102506.275
1376.79254	96959.675
1380.26186	93646.875
1383.72883	91565.175
1387.19347	89801.275
1390.65578	87923.075
1394.11575	86299.075
1397.57339	85065.675
1401.0287	84363.475
1404.48168	84225.975
1407.93234	84754.375
1411.38068	85618.875
1414.82669	86368.075
1418.27039	86304.475
1421.71177	85892.275
1425.15083	85398.475
1428.58758	84689.675
1432.02203	84127.275
1435.45416	83882.575
1438.88399	83666.675
1442.31151	83540.275
1445.73673	83624.675
1449.15965	83821.375
1452.58027	83896.275
1455.9986	83697.275
1459.41463	83833.675
1462.82837	84617.075
1466.23982	85772.575
1469.64898	87007.575
1473.05586	88033.775
1476.46045	89074.775
1479.86276	89960.875
1483.26279	90874.575
1486.66054	92028.475
1490.05602	93683.475
1493.44922	96373.475
1496.84016	100066.375
1500.22882	105175.075
1503.61521	110960.975
1506.99934	115316.675
1510.38121	117114.175
1513.76081	115334.775
1517.13816	110739.275
1520.51324	104832.675
1523.88607	99535.775
1527.25665	95801.375
1530.62498	93648.475
1533.99105	92331.775
1537.35488	91190.175
1540.71647	90379.275
1544.07581	89605.375
1547.4329	89001.275
1550.78776	88440.775
1554.14038	88080.175
1557.49077	88200.175
1560.83892	88755.975
1564.18484	89857.775
1567.52853	91096.375
1570.86999	92008.675
1574.20922	92643.475
1577.54624	92368.675
1580.88103	90666.775
1584.2136	88441.375
1587.54395	86983.775
1590.87208	86977.075
1594.19801	88277.975
1597.52172	90269.975
1600.84321	91153.675
1604.16251	90578.175
1607.47959	89472.975
1610.79447	87529.775
1614.10715	84635.575
1617.41763	81988.975
1620.7259	79890.175
1624.03199	78548.075
1627.33587	78096.775
1630.63757	78413.275
1633.93707	79605.875
1637.23439	81837.275
1640.52951	85572.875
1643.82246	91063.875
1647.11321	96688.375
1650.40179	99544.875
1653.68819	97316.875
1656.97241	91061.075
1660.25446	84399.475
1663.53433	79424.275
1666.81203	76293.675
1670.08756	74393.875
1673.36092	73234.575
1676.63211	72462.775
1679.90115	71873.775
1683.16801	71262.875
1686.43272	70673.775
1689.69527	70292.775
1692.95567	69837.875
1696.2139	69583.675
1699.46999	69382.975
1702.72392	69333.475
1705.97571	69380.975
1709.22535	69247.475
1712.47284	69366.275
1715.71819	69458.075
1718.96139	69342.075
1722.20246	69139.775
1725.44139	68901.975
1728.67818	68679.075
1731.91284	68424.075
1735.14537	68242.575
1738.37576	67991.475
1741.60403	67868.175
1744.83017	67717.675
1748.05418	67561.975
1751.27607	67479.675
1754.49584	67256.275
1757.71349	67206.575
1760.92903	67049.775
1764.14244	67035.575
1767.35375	66921.075
1770.56294	66794.875
1773.77002	66722.275
1776.97499	66706.075
1780.17785	66586.775
1783.37861	66416.375
1786.57727	66284.275
1789.77382	66183.575
1792.96828	66018.175
1796.16064	65958.275
1799.3509	65940.175
1802.53907	65761.675
1805.72514	65620.275
1808.90913	65483.975
1812.09102	65393.375
1815.27083	65271.575
1818.44856	65169.175
1821.6242	65116.775
1824.79776	65030.675
1827.96924	64817.775
1831.13864	64577.575
1834.30597	64565.475
1837.47122	64441.975
1840.6344	64390.475
1843.7955	64403.575
1846.95454	64344.775
1850.11151	64209.875
1853.26642	64102.975
1856.41926	63982.475
1859.57004	63983.875
1862.71876	63951.375
1865.86542	63908.875
1869.01003	63885.575
1872.15258	63826.975
1875.29308	63726.875
1878.43152	63516.775
1881.56792	63529.275
1884.70227	63447.375
1887.83457	63316.275
1890.96482	63229.875
1894.09304	63162.575
1897.21921	63078.675
1900.34335	63068.975
1903.46544	62889.075
1906.58551	62743.975
1909.70353	62657.275
1912.81953	62543.275
1915.93349	62357.675
1919.04543	62226.175
1922.15534	62215.875
1925.26322	62022.375
1928.36908	61941.975
1931.47292	61826.275
1934.57473	61585.975
1937.67453	61432.975
1940.77232	61302.775
1943.86808	61178.675
1946.96184	61007.375
1950.05358	60800.175
1953.14331	60577.075
1956.23103	60490.075
1959.31675	60204.675
1962.40046	60093.275
1965.48217	59967.675
1968.56188	59717.775
1971.63959	59553.475
1974.7153	59332.975
1977.78901	59232.975
1980.86073	59015.575
1983.93046	58781.375
1986.99819	58553.975
1990.06394	58372.975
1993.1277	58218.675
1996.18947	58037.075
1999.24925	57890.275
2002.30706	57727.575
2005.36288	57642.675
2008.41672	57548.075
2011.46859	57357.975
2014.51848	57108.575
2017.56639	57031.675
2020.61233	56980.275
2023.6563	56761.275
2026.6983	56533.075
2029.73833	56260.275
2032.7764	56110.075
2035.8125	56035.075
2038.84664	55853.075
2041.87881	55794.575
2044.90903	55597.075
2047.93729	55449.575
2050.96359	55422.575
2053.98794	55394.975
2057.01034	55317.775
2060.03078	55225.175
2063.04927	55151.575
2066.06582	55050.575
2069.08042	54909.075
2072.09307	54924.875
2075.10378	54903.175
2078.11255	54776.575
2081.11938	54735.275
2084.12426	54686.475
2087.12722	54539.775
2090.12824	54525.175
2093.12732	54599.575
2096.12447	54623.175
2099.11969	54655.775
2102.11299	54675.875
2105.10435	54663.675
2108.09379	54721.575
2111.08131	54780.075
2114.0669	54691.175
2117.05057	54773.175
2120.03233	54797.175
2123.01216	54828.075
2125.99008	54822.875
2128.96609	54849.575
2131.94018	54930.775
2134.91236	54988.275
2137.88263	55018.975
2140.851	55088.975
2143.81746	55010.375
2146.78201	55008.975
2149.74466	55039.475
2152.7054	54899.375
2155.66425	54907.375
2158.6212	54872.375
2161.57625	54845.775
2164.52941	54834.475
2167.48067	54778.675
2170.43004	54781.575
2173.37752	54736.375
2176.32311	54617.675
2179.26681	54606.675
2182.20863	54718.175
2185.14856	54687.275
2188.08661	54584.675
2191.02278	54620.275
2193.95707	54575.275
2196.88948	54532.575
2199.82001	54484.575
2202.74867	54376.875
2205.67545	54357.275
2208.60037	54252.775
2211.52341	54079.775
2214.44458	53908.975
2217.36388	53735.175
2220.28132	53650.075
2223.1969	53465.475
2226.11061	53406.675
2229.02246	53312.575
2231.93245	53192.475
2234.84058	53159.175
2237.74686	52973.175
2240.65128	52947.375
2243.55385	52793.475
2246.45456	52698.575
2249.35343	52614.175
2252.25044	52674.075
2255.14561	52572.775
2258.03893	52504.175
2260.93041	52405.275
2263.82004	52266.975
2266.70783	52108.375
2269.59378	52054.375
2272.4779	52005.875
2275.36017	51789.075
2278.24061	51572.175
2281.11922	51542.575
2283.996	51479.875
2286.87094	51323.675
2289.74405	51223.075
2292.61534	51185.975
2295.4848	51075.575
2298.35243	51033.375
2301.21824	50929.675
2304.08223	50895.375
2306.94439	50835.475
2309.80474	50823.375
2312.66327	50772.175
2315.51999	50755.975
2318.37489	50676.275
2321.22797	50588.175
2324.07925	50425.775
2326.92871	50338.575
2329.77637	50309.875
2332.62222	50146.175
2335.46626	50066.075
2338.3085	49955.575
2341.14893	49976.775
2343.98756	49869.675
2346.8244	49820.475
2349.65943	49824.775
2352.49267	49816.175
2355.32411	49749.875
2358.15376	49714.775
2360.98161	49645.875
2363.80768	49705.275
2366.63195	49607.675
2369.45444	49469.675
2372.27514	49478.975
2375.09405	49437.175
2377.91118	49418.175
2380.72652	49231.875
2383.54009	49036.975
2386.35187	48997.675
2389.16188	48905.275
2391.97011	48862.075
2394.77657	48725.275
2397.58125	48621.475
2400.38416	48543.675
2403.18529	48372.575
2405.98466	48291.375
2408.78226	48323.275
2411.57809	48216.375
2414.37216	48107.475
2417.16446	48101.275
2419.955	48003.275
2422.74378	47959.375
2425.5308	47894.375
2428.31606	47826.975
2431.09956	47907.975
2433.88131	47809.175
2436.6613	47742.175
2439.43954	47709.575
2442.21603	47631.575
2444.99077	47550.875
2447.76377	47505.875
2450.53501	47501.375
2453.30451	47415.375
2456.07226	47353.275
2458.83827	47241.575
2461.60254	47196.175
2464.36507	47166.875
2467.12586	47146.775
2469.88492	47073.075
2472.64224	46977.875
2475.39782	46835.675
2478.15167	46854.975
2480.90379	46981.275
2483.65417	46980.375
2486.40283	46959.775
2489.14976	46946.375
2491.89497	46812.675
2494.63845	46823.575
2497.3802	46634.375
2500.12024	46604.675
2502.85855	46479.975
2505.59514	46443.875
2508.33002	46389.575
2511.06318	46295.875
2513.79462	46286.575
2516.52435	46195.775
2519.25237	46128.675
2521.97867	46044.575
2524.70327	46045.575
2527.42616	45949.175
2530.14734	45884.275
2532.86681	45701.075
2535.58458	45615.975
2538.30065	45691.575
2541.01501	45607.775
2543.72768	45520.675
2546.43864	45499.175
2549.14791	45387.075
2551.85548	45391.775
2554.56136	45266.975
2557.26554	45116.775
2559.96803	45018.575
2562.66883	44910.675
2565.36794	44798.175
2568.06536	44702.975
2570.7611	44587.375
2573.45514	44444.475
2576.14751	44393.875
2578.83819	44291.975
2581.52719	44248.575
2584.21451	44194.575
2586.90015	44067.575
2589.58411	44002.475
2592.2664	43968.575
2594.94701	43786.175
2597.62594	43807.875
2600.30321	43719.375
2602.9788	43630.475
2605.65273	43482.475
2608.32498	43466.575
2610.99557	43396.575
2613.66449	43433.275
2616.33175	43320.375
2618.99734	43217.775
2621.66128	43077.075
2624.32355	42985.575
2626.98416	42937.975
2629.64311	42963.875
2632.30041	42837.475
2634.95605	42710.475
2637.61004	42676.375
2640.26238	42635.375
2642.91306	42554.375
2645.56209	42469.675
2648.20948	42440.875
2650.85521	42368.175
2653.4993	42417.975
2656.14175	42383.175
2658.78255	42358.475
2661.42171	42355.375
2664.05923	42451.475
2666.6951	42387.275
2669.32934	42366.575
2671.96194	42307.475
2674.59291	42331.975
2677.22224	42295.375
2679.84993	42278.075
2682.476	42235.075
2685.10043	42251.875
2687.72324	42179.875
2690.34441	42163.175
2692.96396	42068.975
2695.58188	42047.275
2698.19818	42037.675
2700.81285	42085.975
2703.4259	42068.875
2706.03733	42126.375
2708.64714	42072.175
2711.25533	42043.975
2713.86191	41940.575
2716.46687	42087.375
2719.07021	41956.575
2721.67194	41987.375
2724.27206	41942.675
2726.87057	41977.175
2729.46747	41853.875
2732.06276	41881.175
2734.65644	41862.575
2737.24852	41844.575
2739.83899	41722.175
2742.42786	41669.775
2745.01513	41510.175
2747.60079	41498.975
2750.18486	41472.175
2752.76733	41496.075
2755.3482	41378.075
2757.92747	41469.875
2760.50515	41368.475
2763.08123	41257.375
2765.65573	41132.375
2768.22863	41071.575
2770.79994	40993.675
2773.36967	41015.375
2775.9378	40911.975
2778.50435	40785.675
2781.06932	40769.775
2783.6327	40780.275
2786.1945	40603.375
2788.75471	40540.075
2791.31335	40366.775
2793.87041	40302.975
2796.42589	40236.775
2798.97979	40235.975
2801.53212	40118.575
2804.08288	40050.575
2806.63206	39931.675
2809.17967	39874.375
2811.72571	39761.175
2814.27018	39644.975
2816.81308	39534.875
2819.35442	39366.675
2821.89419	39244.075
2824.43239	39245.175
2826.96904	39138.675
2829.50412	39106.375
2832.03763	39135.875
2834.56959	39098.575
2837.1	39023.775
2839.62884	39080.575
2842.15613	38957.775
2844.68186	38827.275
2847.20604	38702.975
2849.72867	38687.975
2852.24974	38564.975
2854.76927	38497.375
2857.28724	38471.975
2859.80367	38498.375
2862.31855	38419.575
2864.83189	38423.975
2867.34368	38332.175
2869.85393	38317.775
2872.36264	38153.475
2874.8698	38091.075
2877.37543	38082.175
2879.87952	37977.975
2882.38207	37981.775
2884.88308	37926.575
2887.38256	37922.175
2889.88051	37894.575
2892.37692	37894.375
2894.8718	37879.975
2897.36515	37922.175
2899.85698	37953.475
2902.34727	37941.575
2904.83604	37906.475
2907.32328	38001.275
2909.809	38000.075
2912.29319	38082.875
2914.77587	38078.575
2917.25702	38057.775
2919.73665	37918.875
2922.21476	37931.875
2924.69136	37885.775
2927.16644	37799.675
2929.64	37730.675
2932.11205	37698.375
2934.58258	37532.575
2937.05161	37504.875
2939.51912	37536.475
2941.98513	37407.075
2944.44962	37406.575
2946.91261	37359.675
2949.37409	37361.275
2951.83407	37368.375
2954.29254	37307.875
2956.74951	37366.275
2959.20498	37332.175
2961.65895	37255.175
2964.11142	37307.175
2966.56239	37190.375
2969.01186	37223.175
2971.45984	37142.275
2973.90632	37099.975
2976.35131	37103.675
2978.7948	37047.275
2981.23681	37018.975
2983.67732	36941.975
2986.11635	36860.275
2988.55388	36782.275
2990.98993	36674.575
2993.4245	36559.575
2995.85758	36521.675
2998.28917	36394.375
3000.71928	36394.975
3003.14791	36309.375
3005.57506	36256.675
3008.00073	36098.675
3010.42493	36047.175
3012.84764	35874.075
3015.26888	35905.475
3017.68865	35765.175
3020.10694	35710.975
3022.52376	35684.475
3024.9391	35606.475
3027.35298	35573.975
3029.76539	35519.575
3032.17632	35540.175
3034.5858	35401.375
3036.9938	35360.475
3039.40034	35337.175
3041.80542	35229.675
3044.20903	35126.675
3046.61118	35116.775
3049.01187	35001.475
3051.4111	35001.475
3053.80888	34964.875
3056.20519	34873.275
3058.60005	34762.175
3060.99345	34665.575
3063.3854	34577.375
3065.7759	34478.575
3068.16494	34362.675
3070.55254	34219.275
3072.93868	34153.375
3075.32338	34119.875
3077.70662	34063.975
3080.08842	33930.775
3082.46878	33930.375
3084.84769	33900.475
3087.22515	33906.175
3089.60118	33875.175
3091.97576	33806.575
3094.3489	33834.875
3096.72061	33775.175
3099.09087	33801.875
3101.4597	33710.375
3103.82709	33718.375
3106.19305	33580.275
3108.55757	33612.975
3110.92066	33500.475
3113.28232	33520.275
3115.64255	33491.675
3118.00134	33379.875
3120.35871	33346.375
3122.71466	33203.075
3125.06917	33092.775
