Data from AgNPs_UA_200uM_CRN_0uM_R6G_10uM_Q_RamanShift__17__14-19-44-156.txt Node

Date: Tue Jul 26 14:19:44 BST 2022
User: TCL
Spectrometer: QEP01345
Trigger mode: 4
Integration Time (sec): 7.000000E0
Scans to average: 10
Electric dark correction enabled: true
Nonlinearity correction enabled: false
Boxcar width: 0
XAxis mode: Raman Shifts
Number of Pixels in Spectrum: 1044
>>>>>Begin Spectral Data<<<<<
46.04893	-0.8125
50.45542	0.6875
54.85868	-0.4125
59.25871	-0.7125
63.6555	46.2875
68.04907	52.0875
72.43941	55.8875
76.82654	54.0875
81.21044	58.2875
85.59113	59.6875
89.96862	65.8875
94.34289	67.6875
98.71396	70.1875
103.08183	69.9875
107.4465	74.2875
111.80798	69.1875
116.16626	72.2875
120.52136	75.4875
124.87327	73.3875
129.222	76.7875
133.56755	76.3875
137.90993	79.1875
142.24913	84.4875
146.58517	84.9875
150.91804	92.2875
155.24774	102.4875
159.57429	124.3875
163.89768	143.8875
168.21792	181.4875
172.53501	229.6875
176.84895	312.6875
181.15975	419.6875
185.46741	583.7875
189.77193	808.4875
194.07331	1059.3875
198.37157	1361.0875
202.6667	1681.8875
206.9587	1990.4875
211.24758	2305.1875
215.53334	2621.6875
219.81599	2946.7875
224.09553	3319.3875
228.37195	3729.3875
232.64527	4172.8875
236.91549	4602.4875
241.18261	5046.0875
245.44663	5450.9875
249.70755	5814.0875
253.96539	6128.5875
258.22014	6387.9875
262.4718	6563.8875
266.72039	6667.7875
270.96589	6707.0875
275.20832	6680.9875
279.44768	6615.8875
283.68397	6472.8875
287.91719	6372.8875
292.14735	6312.2875
296.37445	6288.9875
300.59849	6311.4875
304.81948	6377.5875
309.03742	6396.8875
313.25231	6363.6875
317.46415	6246.3875
321.67296	6118.2875
325.87872	6041.5875
330.08145	6026.7875
334.28114	6074.5875
338.47781	6102.4875
342.67145	6193.1875
346.86207	6342.6875
351.04966	6506.2875
355.23424	6659.8875
359.4158	6811.1875
363.59435	6935.4875
367.76989	7028.4875
371.94243	7119.2875
376.11196	7185.2875
380.27849	7218.7875
384.44203	7261.7875
388.60257	7325.5875
392.76012	7370.4875
396.91468	7408.5875
401.06626	7496.4875
405.21485	7566.8875
409.36047	7576.8875
413.50311	7471.9875
417.64277	7377.8875
421.77947	7314.6875
425.9132	7299.8875
430.04396	7300.6875
434.17176	7328.7875
438.2966	7427.3875
442.41849	7521.9875
446.53742	7637.6875
450.6534	7747.4875
454.76644	7859.0875
458.87653	7938.8875
462.98368	7963.3875
467.08789	7965.7875
471.18916	7906.9875
475.2875	7821.5875
479.38291	7780.5875
483.4754	7745.5875
487.56496	7731.2875
491.6516	7739.1875
495.73531	7733.8875
499.81612	7736.0875
503.89401	7765.4875
507.96899	7786.1875
512.04106	7819.0875
516.11023	7856.5875
520.1765	7876.1875
524.23987	7899.4875
528.30034	7920.1875
532.35792	7914.8875
536.41261	7874.1875
540.46441	7834.5875
544.51333	7801.1875
548.55936	7823.5875
552.60252	7878.8875
556.64279	7935.2875
560.6802	8010.2875
564.71473	8074.3875
568.7464	8102.2875
572.7752	8124.7875
576.80114	8087.4875
580.82422	8048.7875
584.84444	8090.6875
588.86181	8139.2875
592.87633	8213.8875
596.888	8308.8875
600.89682	8478.8875
604.9028	8938.7875
608.90594	9928.5875
612.90624	10827.5875
616.90371	10352.7875
620.89834	9072.2875
624.89015	8578.2875
628.87913	8595.1875
632.86528	8710.5875
636.84862	8773.3875
640.82913	8715.3875
644.80683	8504.1875
648.78172	8328.6875
652.75379	8300.5875
656.72306	8423.6875
660.68952	8566.8875
664.65319	8581.5875
668.61405	8518.6875
672.57211	8548.3875
676.52738	8572.2875
680.47986	8513.6875
684.42955	8478.2875
688.37646	8470.3875
692.32058	8510.4875
696.26192	8543.0875
700.20048	8563.2875
704.13626	8544.6875
708.06928	8511.5875
711.99952	8441.7875
715.927	8432.3875
719.85171	8457.4875
723.77365	8439.3875
727.69284	8451.6875
731.60928	8440.0875
735.52295	8421.5875
739.43388	8414.2875
743.34206	8408.6875
747.24749	8416.8875
751.15017	8424.8875
755.05012	8441.4875
758.94733	8566.7875
762.8418	8873.5875
766.73354	9349.7875
770.62254	9858.8875
774.50882	10167.8875
778.39237	10077.7875
782.27321	9597.3875
786.15132	9144.4875
790.02671	8810.3875
793.89938	8666.7875
797.76935	8582.6875
801.6366	8545.5875
805.50115	8553.8875
809.36299	8540.6875
813.22213	8527.7875
817.07857	8526.9875
820.93231	8477.1875
824.78336	8466.1875
828.63172	8430.3875
832.47738	8449.5875
836.32036	8415.0875
840.16066	8426.9875
843.99827	8446.7875
847.8332	8427.6875
851.66546	8443.7875
855.49504	8423.9875
859.32195	8455.0875
863.1462	8440.3875
866.96777	8432.2875
870.78668	8449.0875
874.60293	8501.4875
878.41652	8531.7875
882.22745	8554.1875
886.03573	8636.8875
889.84136	8645.5875
893.64433	8611.6875
897.44466	8571.7875
901.24235	8534.1875
905.0374	8505.4875
908.8298	8450.1875
912.61957	8433.1875
916.40671	8428.6875
920.19121	8429.4875
923.97308	8463.4875
927.75233	8494.7875
931.52895	8557.7875
935.30295	8530.0875
939.07433	8454.4875
942.84309	8425.9875
946.60924	8416.2875
950.37278	8398.5875
954.13371	8368.5875
957.89203	8356.9875
961.64774	8336.6875
965.40086	8354.1875
969.15137	8333.0875
972.89929	8296.3875
976.64461	8293.7875
980.38733	8324.1875
984.12747	8324.6875
987.86502	8379.3875
991.59999	8437.3875
995.33237	8534.9875
999.06217	8686.1875
1002.78939	8815.2875
1006.51404	8883.0875
1010.23611	8963.8875
1013.95561	9042.8875
1017.67255	9056.2875
1021.38692	9043.7875
1025.09872	9026.1875
1028.80796	9044.6875
1032.51465	9129.3875
1036.21877	9200.5875
1039.92035	9205.5875
1043.61937	9125.0875
1047.31584	9044.4875
1051.00976	8941.6875
1054.70114	8878.3875
1058.38998	8918.7875
1062.07627	8947.3875
1065.76003	8972.2875
1069.44126	9038.0875
1073.11995	9127.3875
1076.79611	9235.7875
1080.46974	9278.3875
1084.14085	9338.4875
1087.80943	9382.7875
1091.47549	9388.5875
1095.13903	9386.2875
1098.80005	9303.7875
1102.45857	9283.3875
1106.11456	9273.6875
1109.76805	9294.5875
1113.41903	9345.4875
1117.06751	9401.4875
1120.71348	9528.3875
1124.35696	9652.5875
1127.99793	9806.2875
1131.63641	9816.9875
1135.2724	9801.5875
1138.90589	9663.3875
1142.5369	9557.1875
1146.16542	9417.9875
1149.79145	9310.2875
1153.415	9209.9875
1157.03607	9189.5875
1160.65467	9190.8875
1164.27079	9323.0875
1167.88443	9506.8875
1171.49561	9786.9875
1175.10432	10216.1875
1178.71056	10795.1875
1182.31434	11342.0875
1185.91565	11643.0875
1189.51451	11661.0875
1193.11091	11474.7875
1196.70485	11181.5875
1200.29634	10915.5875
1203.88538	10668.2875
1207.47197	10434.5875
1211.05612	10167.2875
1214.63782	9963.7875
1218.21708	9858.7875
1221.79391	9824.6875
1225.36829	9785.7875
1228.94024	9780.4875
1232.50976	9716.8875
1236.07685	9699.0875
1239.6415	9663.1875
1243.20374	9688.5875
1246.76355	9766.5875
1250.32093	9838.2875
1253.8759	9930.4875
1257.42845	10095.4875
1260.97859	10267.3875
1264.52631	10449.0875
1268.07163	10602.9875
1271.61453	10759.2875
1275.15503	10881.3875
1278.69312	10977.4875
1282.22882	11029.8875
1285.76211	11075.9875
1289.29301	11100.7875
1292.82151	11256.7875
1296.34761	11454.6875
1299.87133	11766.8875
1303.39266	12300.3875
1306.9116	12955.1875
1310.42815	13645.1875
1313.94233	13962.1875
1317.45412	13840.5875
1320.96354	13444.6875
1324.47058	12961.4875
1327.97525	12493.6875
1331.47754	12185.5875
1334.97747	12059.6875
1338.47502	12132.7875
1341.97022	12334.4875
1345.46305	12690.1875
1348.95352	13074.1875
1352.44163	13502.2875
1355.92738	14005.5875
1359.41078	14724.0875
1362.89183	15277.7875
1366.37053	14800.6875
1369.84688	13547.7875
1373.32088	12425.8875
1376.79254	11689.5875
1380.26186	11282.5875
1383.72883	11025.6875
1387.19347	10757.0875
1390.65578	10543.2875
1394.11575	10353.0875
1397.57339	10203.7875
1401.0287	10163.7875
1404.48168	10163.7875
1407.93234	10156.2875
1411.38068	10186.5875
1414.82669	10186.7875
1418.27039	10166.8875
1421.71177	10100.7875
1425.15083	10032.4875
1428.58758	9980.2875
1432.02203	10030.3875
1435.45416	10057.8875
1438.88399	10086.4875
1442.31151	10100.0875
1445.73673	10092.9875
1449.15965	10089.5875
1452.58027	10082.0875
1455.9986	10049.7875
1459.41463	10093.4875
1462.82837	10166.6875
1466.23982	10313.6875
1469.64898	10443.3875
1473.05586	10531.3875
1476.46045	10611.0875
1479.86276	10687.9875
1483.26279	10736.3875
1486.66054	10804.9875
1490.05602	10926.4875
1493.44922	11125.2875
1496.84016	11456.0875
1500.22882	11969.4875
1503.61521	12613.9875
1506.99934	13222.4875
1510.38121	13595.2875
1513.76081	13476.0875
1517.13816	12918.1875
1520.51324	12195.6875
1523.88607	11524.6875
1527.25665	11114.0875
1530.62498	10882.7875
1533.99105	10777.6875
1537.35488	10710.0875
1540.71647	10670.3875
1544.07581	10620.0875
1547.4329	10621.0875
1550.78776	10592.5875
1554.14038	10563.9875
1557.49077	10572.3875
1560.83892	10597.6875
1564.18484	10699.3875
1567.52853	10823.4875
1570.86999	10935.4875
1574.20922	10999.0875
1577.54624	10963.6875
1580.88103	10757.5875
1584.2136	10545.6875
1587.54395	10439.8875
1590.87208	10570.6875
1594.19801	10910.0875
1597.52172	11344.2875
1600.84321	11563.6875
1604.16251	11420.0875
1607.47959	11107.4875
1610.79447	10702.3875
1614.10715	10246.0875
1617.41763	9891.9875
1620.7259	9624.0875
1624.03199	9473.7875
1627.33587	9441.9875
1630.63757	9521.3875
1633.93707	9745.9875
1637.23439	10088.2875
1640.52951	10627.7875
1643.82246	11209.1875
1647.11321	11778.0875
1650.40179	12010.8875
1653.68819	11595.9875
1656.97241	10786.1875
1660.25446	10016.8875
1663.53433	9468.5875
1666.81203	9147.5875
1670.08756	8917.6875
1673.36092	8764.9875
1676.63211	8699.5875
1679.90115	8626.4875
1683.16801	8580.0875
1686.43272	8501.5875
1689.69527	8448.3875
1692.95567	8385.4875
1696.2139	8331.1875
1699.46999	8313.9875
1702.72392	8265.7875
1705.97571	8221.3875
1709.22535	8198.4875
1712.47284	8174.4875
1715.71819	8133.5875
1718.96139	8115.3875
1722.20246	8104.3875
1725.44139	8060.0875
1728.67818	8002.7875
1731.91284	7952.5875
1735.14537	7917.2875
1738.37576	7873.0875
1741.60403	7851.0875
1744.83017	7837.4875
1748.05418	7827.5875
1751.27607	7806.3875
1754.49584	7789.0875
1757.71349	7785.1875
1760.92903	7760.5875
1764.14244	7746.5875
1767.35375	7761.0875
1770.56294	7732.1875
1773.77002	7717.2875
1776.97499	7724.3875
1780.17785	7701.6875
1783.37861	7693.8875
1786.57727	7657.8875
1789.77382	7668.0875
1792.96828	7638.8875
1796.16064	7649.5875
1799.3509	7628.1875
1802.53907	7610.4875
1805.72514	7620.7875
1808.90913	7585.5875
1812.09102	7571.0875
1815.27083	7533.4875
1818.44856	7546.6875
1821.6242	7555.3875
1824.79776	7530.8875
1827.96924	7530.6875
1831.13864	7513.6875
1834.30597	7498.1875
1837.47122	7501.7875
1840.6344	7469.8875
1843.7955	7464.9875
1846.95454	7473.0875
1850.11151	7470.2875
1853.26642	7451.1875
1856.41926	7454.2875
1859.57004	7452.7875
1862.71876	7459.6875
1865.86542	7429.6875
1869.01003	7433.3875
1872.15258	7419.7875
1875.29308	7430.1875
1878.43152	7421.1875
1881.56792	7388.7875
1884.70227	7406.9875
1887.83457	7382.3875
1890.96482	7384.2875
1894.09304	7366.0875
1897.21921	7374.0875
1900.34335	7362.5875
1903.46544	7368.0875
1906.58551	7352.6875
1909.70353	7353.8875
1912.81953	7353.8875
1915.93349	7317.7875
1919.04543	7326.0875
1922.15534	7301.8875
1925.26322	7290.7875
1928.36908	7274.7875
1931.47292	7283.1875
1934.57473	7260.9875
1937.67453	7229.4875
1940.77232	7236.8875
1943.86808	7203.0875
1946.96184	7194.5875
1950.05358	7185.7875
1953.14331	7158.8875
1956.23103	7134.5875
1959.31675	7129.3875
1962.40046	7113.3875
1965.48217	7095.3875
1968.56188	7061.0875
1971.63959	7034.9875
1974.7153	7031.4875
1977.78901	7021.0875
1980.86073	6982.3875
1983.93046	6966.7875
1986.99819	6947.4875
1990.06394	6939.4875
1993.1277	6913.9875
1996.18947	6897.8875
1999.24925	6883.1875
2002.30706	6860.2875
2005.36288	6831.3875
2008.41672	6837.7875
2011.46859	6802.0875
2014.51848	6783.6875
2017.56639	6771.9875
2020.61233	6744.3875
2023.6563	6749.4875
2026.6983	6721.0875
2029.73833	6734.5875
2032.7764	6702.3875
2035.8125	6684.9875
2038.84664	6666.7875
2041.87881	6690.0875
2044.90903	6666.3875
2047.93729	6640.0875
2050.96359	6637.4875
2053.98794	6641.6875
2057.01034	6632.6875
2060.03078	6613.6875
2063.04927	6604.9875
2066.06582	6608.0875
2069.08042	6619.4875
2072.09307	6612.9875
2075.10378	6596.7875
2078.11255	6589.7875
2081.11938	6580.0875
2084.12426	6585.6875
2087.12722	6591.9875
2090.12824	6604.4875
2093.12732	6577.7875
2096.12447	6590.5875
2099.11969	6590.0875
2102.11299	6593.5875
2105.10435	6602.0875
2108.09379	6593.0875
2111.08131	6595.7875
2114.0669	6603.3875
2117.05057	6632.7875
2120.03233	6625.8875
2123.01216	6638.0875
2125.99008	6631.7875
2128.96609	6641.4875
2131.94018	6644.7875
2134.91236	6645.9875
2137.88263	6633.2875
2140.851	6637.9875
2143.81746	6673.3875
2146.78201	6660.7875
2149.74466	6651.3875
2152.7054	6679.9875
2155.66425	6672.0875
2158.6212	6663.3875
2161.57625	6648.5875
2164.52941	6665.7875
2167.48067	6659.7875
2170.43004	6650.4875
2173.37752	6643.5875
2176.32311	6658.7875
2179.26681	6655.5875
2182.20863	6649.0875
2185.14856	6676.7875
2188.08661	6647.0875
2191.02278	6655.4875
2193.95707	6651.6875
2196.88948	6643.1875
2199.82001	6659.4875
2202.74867	6645.2875
2205.67545	6621.7875
2208.60037	6643.3875
2211.52341	6630.8875
2214.44458	6607.0875
2217.36388	6605.8875
2220.28132	6600.3875
2223.1969	6591.0875
2226.11061	6560.0875
2229.02246	6552.5875
2231.93245	6550.4875
2234.84058	6544.9875
2237.74686	6532.0875
2240.65128	6521.4875
2243.55385	6532.2875
2246.45456	6498.8875
2249.35343	6498.0875
2252.25044	6507.2875
2255.14561	6500.8875
2258.03893	6497.4875
2260.93041	6477.3875
2263.82004	6455.0875
2266.70783	6472.3875
2269.59378	6416.0875
2272.4779	6422.5875
2275.36017	6408.6875
2278.24061	6396.9875
2281.11922	6378.0875
2283.996	6379.3875
2286.87094	6373.8875
2289.74405	6343.8875
2292.61534	6353.5875
2295.4848	6353.0875
2298.35243	6356.0875
2301.21824	6341.6875
2304.08223	6345.6875
2306.94439	6329.0875
2309.80474	6334.0875
2312.66327	6325.7875
2315.51999	6329.1875
2318.37489	6323.5875
2321.22797	6322.6875
2324.07925	6306.1875
2326.92871	6281.4875
2329.77637	6286.2875
2332.62222	6273.8875
2335.46626	6281.5875
2338.3085	6262.7875
2341.14893	6248.6875
2343.98756	6269.2875
2346.8244	6254.9875
2349.65943	6272.3875
2352.49267	6248.2875
2355.32411	6254.1875
2358.15376	6261.6875
2360.98161	6250.6875
2363.80768	6252.0875
2366.63195	6245.2875
2369.45444	6231.2875
2372.27514	6227.0875
2375.09405	6219.4875
2377.91118	6215.3875
2380.72652	6200.2875
2383.54009	6164.2875
2386.35187	6195.2875
2389.16188	6171.9875
2391.97011	6143.9875
2394.77657	6138.8875
2397.58125	6127.2875
2400.38416	6118.8875
2403.18529	6122.5875
2405.98466	6120.3875
2408.78226	6091.8875
2411.57809	6082.5875
2414.37216	6095.8875
2417.16446	6081.4875
2419.955	6059.5875
2422.74378	6054.5875
2425.5308	6042.0875
2428.31606	6054.1875
2431.09956	6037.9875
2433.88131	6061.8875
2436.6613	6053.1875
2439.43954	6024.6875
2442.21603	6039.8875
2444.99077	6043.9875
2447.76377	6032.8875
2450.53501	6031.3875
2453.30451	6004.8875
2456.07226	5998.4875
2458.83827	6008.9875
2461.60254	5992.1875
2464.36507	6009.4875
2467.12586	5985.2875
2469.88492	5993.3875
2472.64224	5986.7875
2475.39782	5995.9875
2478.15167	5990.8875
2480.90379	5999.9875
2483.65417	6003.9875
2486.40283	5987.1875
2489.14976	5999.3875
2491.89497	6007.0875
2494.63845	5984.6875
2497.3802	5987.1875
2500.12024	5981.5875
2502.85855	5987.1875
2505.59514	5963.7875
2508.33002	5955.8875
2511.06318	5953.5875
2513.79462	5933.5875
2516.52435	5927.5875
2519.25237	5930.2875
2521.97867	5924.8875
2524.70327	5917.7875
2527.42616	5906.4875
2530.14734	5889.2875
2532.86681	5907.9875
2535.58458	5905.1875
2538.30065	5893.6875
2541.01501	5900.1875
2543.72768	5873.9875
2546.43864	5864.2875
2549.14791	5859.8875
2551.85548	5859.6875
2554.56136	5864.4875
2557.26554	5836.9875
2559.96803	5832.6875
2562.66883	5805.4875
2565.36794	5818.0875
2568.06536	5800.9875
2570.7611	5804.0875
2573.45514	5795.3875
2576.14751	5793.8875
2578.83819	5779.8875
2581.52719	5780.1875
2584.21451	5760.1875
2586.90015	5753.2875
2589.58411	5773.6875
2592.2664	5767.0875
2594.94701	5745.0875
2597.62594	5730.0875
2600.30321	5703.9875
2602.9788	5726.6875
2605.65273	5708.7875
2608.32498	5707.3875
2610.99557	5708.8875
2613.66449	5710.5875
2616.33175	5700.2875
2618.99734	5686.6875
2621.66128	5688.9875
2624.32355	5696.4875
2626.98416	5688.6875
2629.64311	5676.6875
2632.30041	5675.7875
2634.95605	5662.5875
2637.61004	5651.1875
2640.26238	5638.6875
2642.91306	5650.6875
2645.56209	5624.7875
2648.20948	5651.7875
2650.85521	5625.9875
2653.4993	5640.7875
2656.14175	5639.5875
2658.78255	5638.5875
2661.42171	5643.1875
2664.05923	5644.5875
2666.6951	5645.4875
2669.32934	5647.3875
2671.96194	5643.8875
2674.59291	5622.8875
2677.22224	5656.8875
2679.84993	5648.4875
2682.476	5635.9875
2685.10043	5645.4875
2687.72324	5619.6875
2690.34441	5616.0875
2692.96396	5612.4875
2695.58188	5623.8875
2698.19818	5618.0875
2700.81285	5607.2875
2703.4259	5608.1875
2706.03733	5617.8875
2708.64714	5640.2875
2711.25533	5603.3875
2713.86191	5611.5875
2716.46687	5639.5875
2719.07021	5637.8875
2721.67194	5626.7875
2724.27206	5620.7875
2726.87057	5624.6875
2729.46747	5636.7875
2732.06276	5631.2875
2734.65644	5639.9875
2737.24852	5629.7875
2739.83899	5622.4875
2742.42786	5644.1875
2745.01513	5630.2875
2747.60079	5607.0875
2750.18486	5604.9875
2752.76733	5580.0875
2755.3482	5572.0875
2757.92747	5577.6875
2760.50515	5570.8875
2763.08123	5566.8875
2765.65573	5570.0875
2768.22863	5575.5875
2770.79994	5558.7875
2773.36967	5561.1875
2775.9378	5548.6875
2778.50435	5531.4875
2781.06932	5524.7875
2783.6327	5531.9875
2786.1945	5522.3875
2788.75471	5522.9875
2791.31335	5500.4875
2793.87041	5519.4875
2796.42589	5505.3875
2798.97979	5482.3875
2801.53212	5475.3875
2804.08288	5475.4875
2806.63206	5456.0875
2809.17967	5458.0875
2811.72571	5433.8875
2814.27018	5427.0875
2816.81308	5420.3875
2819.35442	5411.8875
2821.89419	5395.9875
2824.43239	5387.4875
2826.96904	5391.0875
2829.50412	5381.1875
2832.03763	5369.5875
2834.56959	5372.7875
2837.1	5381.3875
2839.62884	5357.3875
2842.15613	5353.1875
2844.68186	5356.4875
2847.20604	5359.0875
2849.72867	5352.3875
2852.24974	5342.7875
2854.76927	5331.3875
2857.28724	5332.9875
2859.80367	5327.2875
2862.31855	5324.8875
2864.83189	5323.4875
2867.34368	5300.4875
2869.85393	5312.5875
2872.36264	5290.0875
2874.8698	5304.8875
2877.37543	5300.8875
2879.87952	5297.3875
2882.38207	5290.4875
2884.88308	5308.9875
2887.38256	5304.0875
2889.88051	5302.2875
2892.37692	5299.0875
2894.8718	5300.9875
2897.36515	5315.9875
2899.85698	5288.4875
2902.34727	5315.9875
2904.83604	5333.8875
2907.32328	5345.1875
2909.809	5338.6875
2912.29319	5336.1875
2914.77587	5334.0875
2917.25702	5324.3875
2919.73665	5319.8875
2922.21476	5326.7875
2924.69136	5312.6875
2927.16644	5342.8875
2929.64	5310.4875
2932.11205	5335.6875
2934.58258	5292.7875
2937.05161	5299.5875
2939.51912	5312.6875
2941.98513	5300.3875
2944.44962	5294.4875
2946.91261	5287.9875
2949.37409	5301.0875
2951.83407	5296.0875
2954.29254	5289.9875
2956.74951	5296.3875
2959.20498	5297.9875
2961.65895	5290.1875
2964.11142	5284.1875
2966.56239	5293.4875
2969.01186	5300.7875
2971.45984	5288.9875
2973.90632	5304.4875
2976.35131	5280.5875
2978.7948	5275.8875
2981.23681	5274.7875
2983.67732	5278.6875
2986.11635	5251.3875
2988.55388	5252.1875
2990.98993	5236.6875
2993.4245	5233.7875
2995.85758	5239.1875
2998.28917	5217.3875
3000.71928	5200.1875
3003.14791	5197.0875
3005.57506	5187.8875
3008.00073	5179.9875
3010.42493	5186.4875
3012.84764	5144.8875
3015.26888	5175.8875
3017.68865	5169.7875
3020.10694	5156.4875
3022.52376	5148.9875
3024.9391	5159.0875
3027.35298	5148.9875
3029.76539	5144.1875
3032.17632	5135.5875
3034.5858	5136.0875
3036.9938	5124.1875
3039.40034	5131.4875
3041.80542	5139.8875
3044.20903	5125.4875
3046.61118	5131.4875
3049.01187	5122.1875
3051.4111	5108.9875
3053.80888	5113.3875
3056.20519	5093.9875
3058.60005	5099.0875
3060.99345	5097.4875
3063.3854	5078.2875
3065.7759	5074.1875
3068.16494	5076.8875
3070.55254	5042.2875
3072.93868	5049.9875
3075.32338	5045.7875
3077.70662	5046.1875
3080.08842	5039.9875
3082.46878	5036.7875
3084.84769	5031.6875
3087.22515	5038.5875
3089.60118	5050.1875
3091.97576	5045.0875
3094.3489	5062.6875
3096.72061	5059.8875
3099.09087	5042.7875
3101.4597	5067.2875
3103.82709	5059.0875
3106.19305	5049.6875
3108.55757	5072.7875
3110.92066	5074.7875
3113.28232	5072.9875
