Data from AgNPs_UA_200uM_CRN_0uM_R6G_10uM_Q_RamanShift__27__14-31-24-170.txt Node

Date: Tue Jul 26 14:31:24 BST 2022
User: TCL
Spectrometer: QEP01345
Trigger mode: 4
Integration Time (sec): 7.000000E0
Scans to average: 10
Electric dark correction enabled: true
Nonlinearity correction enabled: false
Boxcar width: 0
XAxis mode: Raman Shifts
Number of Pixels in Spectrum: 1044
>>>>>Begin Spectral Data<<<<<
46.04893	-1.45
50.45542	0.25
54.85868	-0.85
59.25871	0.75
63.6555	48.45
68.04907	48.25
72.43941	54.65
76.82654	51.35
81.21044	63.05
85.59113	62.15
89.96862	62.85
94.34289	64.75
98.71396	69.25
103.08183	70.75
107.4465	73.35
111.80798	71.05
116.16626	72.55
120.52136	71.75
124.87327	74.15
129.222	75.75
133.56755	75.55
137.90993	82.25
142.24913	83.65
146.58517	87.65
150.91804	90.65
155.24774	103.95
159.57429	127.95
163.89768	147.55
168.21792	187.35
172.53501	243.05
176.84895	329.05
181.15975	441.65
185.46741	612.85
189.77193	839.25
194.07331	1102.15
198.37157	1435.25
202.6667	1774.85
206.9587	2118.65
211.24758	2491.95
215.53334	2871.75
219.81599	3300.15
224.09553	3817.25
228.37195	4331.65
232.64527	4915.35
236.91549	5442.05
241.18261	5855.65
245.44663	6174.35
249.70755	6381.55
253.96539	6579.15
258.22014	6743.85
262.4718	6892.45
266.72039	6972.35
270.96589	6955.45
275.20832	6819.55
279.44768	6653.25
283.68397	6434.65
287.91719	6342.45
292.14735	6405.25
296.37445	6649.75
300.59849	7065.35
304.81948	7574.25
309.03742	7956.75
313.25231	7987.25
317.46415	7544.75
321.67296	6863.75
325.87872	6278.35
330.08145	6028.75
334.28114	6042.85
338.47781	6175.65
342.67145	6399.85
346.86207	6754.65
351.04966	7291.15
355.23424	7895.95
359.4158	8310.55
363.59435	8517.35
367.76989	8499.05
371.94243	8418.85
376.11196	8298.45
380.27849	8170.65
384.44203	8040.05
388.60257	7905.85
392.76012	7817.25
396.91468	7877.95
401.06626	8059.15
405.21485	8122.65
409.36047	7869.45
413.50311	7318.95
417.64277	6809.75
421.77947	6519.55
425.9132	6363.25
430.04396	6311.95
434.17176	6336.35
438.2966	6466.65
442.41849	6615.35
446.53742	6769.85
450.6534	6923.05
454.76644	7003.75
458.87653	6993.05
462.98368	6943.85
467.08789	6855.35
471.18916	6718.55
475.2875	6557.05
479.38291	6436.75
483.4754	6348.65
487.56496	6296.35
491.6516	6317.55
495.73531	6300.75
499.81612	6351.75
503.89401	6416.05
507.96899	6505.65
512.04106	6658.15
516.11023	6840.35
520.1765	6974.85
524.23987	7032.85
528.30034	6976.65
532.35792	6901.35
536.41261	6801.95
540.46441	6632.35
544.51333	6530.55
548.55936	6562.35
552.60252	6667.85
556.64279	6812.75
560.6802	6929.95
564.71473	7169.15
568.7464	7544.15
572.7752	7568.75
576.80114	7065.85
580.82422	6627.45
584.84444	6453.05
588.86181	6486.35
592.87633	6565.85
596.888	6722.65
600.89682	7164.05
604.9028	8576.15
608.90594	11959.25
612.90624	15704.95
616.90371	14397.15
620.89834	9736.15
624.89015	7796.75
628.87913	7643.75
632.86528	7898.75
636.84862	8044.75
640.82913	7785.35
644.80683	7209.35
648.78172	6792.75
652.75379	6734.45
656.72306	7033.45
660.68952	7344.95
664.65319	7117.15
668.61405	6644.45
672.57211	6438.55
676.52738	6402.95
680.47986	6367.65
684.42955	6313.95
688.37646	6300.75
692.32058	6321.75
696.26192	6376.65
700.20048	6455.95
704.13626	6468.25
708.06928	6418.45
711.99952	6363.45
715.927	6406.65
719.85171	6476.65
723.77365	6549.55
727.69284	6550.55
731.60928	6530.45
735.52295	6491.25
739.43388	6492.65
743.34206	6498.45
747.24749	6508.45
751.15017	6530.25
755.05012	6677.65
758.94733	7152.45
762.8418	8361.15
766.73354	10158.25
770.62254	11745.95
774.50882	12328.95
778.39237	11562.05
782.27321	9794.55
786.15132	8116.75
790.02671	7160.95
793.89938	6757.35
797.76935	6586.75
801.6366	6579.95
805.50115	6584.35
809.36299	6658.25
813.22213	6699.05
817.07857	6683.25
820.93231	6596.75
824.78336	6540.95
828.63172	6521.35
832.47738	6534.95
836.32036	6469.25
840.16066	6422.75
843.99827	6384.75
847.8332	6406.05
851.66546	6371.95
855.49504	6358.25
859.32195	6345.25
863.1462	6328.15
866.96777	6314.45
870.78668	6337.65
874.60293	6389.45
878.41652	6499.75
882.22745	6623.65
886.03573	6714.45
889.84136	6718.55
893.64433	6676.05
897.44466	6599.85
901.24235	6540.95
905.0374	6426.75
908.8298	6344.85
912.61957	6254.95
916.40671	6242.25
920.19121	6267.25
923.97308	6367.95
927.75233	6519.15
931.52895	6673.85
935.30295	6577.95
939.07433	6359.35
942.84309	6186.55
946.60924	6106.75
950.37278	6041.35
954.13371	5981.95
957.89203	5968.25
961.64774	5929.85
965.40086	5906.05
969.15137	5892.45
972.89929	5893.45
976.64461	5879.85
980.38733	5888.45
984.12747	5907.95
987.86502	5976.85
991.59999	6039.05
995.33237	6182.05
999.06217	6378.65
1002.78939	6602.55
1006.51404	6776.55
1010.23611	6870.45
1013.95561	6944.95
1017.67255	6943.95
1021.38692	6897.85
1025.09872	6897.65
1028.80796	6968.75
1032.51465	7155.25
1036.21877	7289.05
1039.92035	7238.35
1043.61937	7118.35
1047.31584	6933.95
1051.00976	6730.35
1054.70114	6620.35
1058.38998	6578.55
1062.07627	6579.95
1065.76003	6570.85
1069.44126	6562.65
1073.11995	6630.05
1076.79611	6761.35
1080.46974	6923.35
1084.14085	7197.45
1087.80943	7428.15
1091.47549	7448.25
1095.13903	7249.45
1098.80005	6951.55
1102.45857	6790.35
1106.11456	6812.25
1109.76805	6978.15
1113.41903	7305.05
1117.06751	7741.75
1120.71348	8324.55
1124.35696	8972.25
1127.99793	9375.05
1131.63641	9134.25
1135.2724	8582.35
1138.90589	8070.15
1142.5369	7731.65
1146.16542	7383.35
1149.79145	7147.55
1153.415	6992.65
1157.03607	6966.35
1160.65467	7039.35
1164.27079	7295.35
1167.88443	7698.95
1171.49561	8369.75
1175.10432	9520.05
1178.71056	11071.25
1182.31434	12299.05
1185.91565	12576.55
1189.51451	11927.65
1193.11091	10892.85
1196.70485	9941.55
1200.29634	9400.55
1203.88538	9032.75
1207.47197	8519.65
1211.05612	7975.35
1214.63782	7590.85
1218.21708	7420.65
1221.79391	7356.05
1225.36829	7381.85
1228.94024	7333.65
1232.50976	7220.35
1236.07685	7168.95
1239.6415	7141.45
1243.20374	7240.05
1246.76355	7330.15
1250.32093	7460.85
1253.8759	7616.05
1257.42845	7882.75
1260.97859	8198.65
1264.52631	8489.35
1268.07163	8755.55
1271.61453	8990.45
1275.15503	9154.85
1278.69312	9276.25
1282.22882	9423.25
1285.76211	9711.15
1289.29301	10085.05
1292.82151	10426.25
1296.34761	10872.75
1299.87133	11695.35
1303.39266	13178.15
1306.9116	15413.75
1310.42815	17495.25
1313.94233	17933.85
1317.45412	16442.35
1320.96354	14365.85
1324.47058	12534.75
1327.97525	11129.85
1331.47754	10338.15
1334.97747	10064.45
1338.47502	10204.45
1341.97022	10769.25
1345.46305	11740.85
1348.95352	13067.25
1352.44163	14689.55
1355.92738	17001.05
1359.41078	20527.95
1362.89183	23364.75
1366.37053	21650.35
1369.84688	16949.35
1373.32088	13299.15
1376.79254	11346.05
1380.26186	10260.85
1383.72883	9490.15
1387.19347	8916.55
1390.65578	8452.25
1394.11575	8117.35
1397.57339	7939.05
1401.0287	7878.15
1404.48168	7881.45
1407.93234	7869.45
1411.38068	7910.75
1414.82669	8034.55
1418.27039	8081.65
1421.71177	8021.75
1425.15083	7916.85
1428.58758	7939.55
1432.02203	8066.55
1435.45416	8142.25
1438.88399	8080.95
1442.31151	7996.15
1445.73673	7980.15
1449.15965	7998.45
1452.58027	7943.45
1455.9986	7848.35
1459.41463	7790.05
1462.82837	7846.05
1466.23982	8032.45
1469.64898	8245.15
1473.05586	8380.05
1476.46045	8464.55
1479.86276	8617.35
1483.26279	8896.95
1486.66054	9224.75
1490.05602	9760.85
1493.44922	10548.85
1496.84016	11825.25
1500.22882	13822.35
1503.61521	16702.45
1506.99934	19869.15
1510.38121	22000.55
1513.76081	21759.05
1517.13816	19126.15
1520.51324	15628.85
1523.88607	12838.25
1527.25665	11106.15
1530.62498	10204.85
1533.99105	9670.15
1537.35488	9360.35
1540.71647	9172.75
1544.07581	9144.25
1547.4329	9191.05
1550.78776	9284.45
1554.14038	9414.05
1557.49077	9570.85
1560.83892	9804.55
1564.18484	10219.95
1567.52853	10696.35
1570.86999	11041.95
1574.20922	11210.05
1577.54624	10929.75
1580.88103	10138.95
1584.2136	9192.75
1587.54395	8727.25
1590.87208	8786.85
1594.19801	9343.85
1597.52172	10088.65
1600.84321	10376.95
1604.16251	9998.55
1607.47959	9380.15
1610.79447	8777.45
1614.10715	8193.55
1617.41763	7761.45
1620.7259	7500.15
1624.03199	7380.15
1627.33587	7430.35
1630.63757	7659.45
1633.93707	8117.55
1637.23439	8819.55
1640.52951	9900.15
1643.82246	11480.65
1647.11321	13384.25
1650.40179	14551.65
1653.68819	13823.65
1656.97241	11614.55
1660.25446	9456.75
1663.53433	8056.35
1666.81203	7272.25
1670.08756	6807.35
1673.36092	6535.95
1676.63211	6369.25
1679.90115	6229.65
1683.16801	6129.05
1686.43272	6058.85
1689.69527	6004.25
1692.95567	5960.45
1696.2139	5914.55
1699.46999	5861.95
1702.72392	5817.05
1705.97571	5778.65
1709.22535	5761.85
1712.47284	5727.45
1715.71819	5717.65
1718.96139	5692.85
1722.20246	5646.35
1725.44139	5603.95
1728.67818	5568.95
1731.91284	5508.25
1735.14537	5458.85
1738.37576	5449.55
1741.60403	5444.95
1744.83017	5414.15
1748.05418	5395.65
1751.27607	5354.65
1754.49584	5352.65
1757.71349	5345.25
1760.92903	5333.45
1764.14244	5305.65
1767.35375	5306.75
1770.56294	5264.45
1773.77002	5253.15
1776.97499	5220.85
1780.17785	5219.35
1783.37861	5212.85
1786.57727	5192.05
1789.77382	5194.85
1792.96828	5186.95
1796.16064	5178.05
1799.3509	5172.35
1802.53907	5163.75
1805.72514	5147.35
1808.90913	5142.75
1812.09102	5128.15
1815.27083	5091.05
1818.44856	5083.25
1821.6242	5065.05
1824.79776	5073.55
1827.96924	5053.45
1831.13864	5046.25
1834.30597	5036.35
1837.47122	5028.35
1840.6344	5012.15
1843.7955	5004.05
1846.95454	5009.05
1850.11151	5008.25
1853.26642	4998.05
1856.41926	4994.05
1859.57004	4992.75
1862.71876	5017.65
1865.86542	4993.35
1869.01003	4979.75
1872.15258	5000.15
1875.29308	4997.15
1878.43152	5000.25
1881.56792	4982.95
1884.70227	4970.35
1887.83457	4971.45
1890.96482	4974.25
1894.09304	4971.35
1897.21921	4966.45
1900.34335	4948.05
1903.46544	4952.55
1906.58551	4948.75
1909.70353	4956.45
1912.81953	4933.95
1915.93349	4950.85
1919.04543	4932.35
1922.15534	4931.45
1925.26322	4917.35
1928.36908	4903.55
1931.47292	4893.05
1934.57473	4889.35
1937.67453	4874.95
1940.77232	4851.75
1943.86808	4837.35
1946.96184	4816.55
1950.05358	4811.25
1953.14331	4798.35
1956.23103	4799.45
1959.31675	4781.95
1962.40046	4749.75
1965.48217	4750.55
1968.56188	4748.95
1971.63959	4739.25
1974.7153	4718.65
1977.78901	4722.65
1980.86073	4687.95
1983.93046	4683.75
1986.99819	4647.25
1990.06394	4641.85
1993.1277	4617.95
1996.18947	4601.65
1999.24925	4583.95
2002.30706	4566.95
2005.36288	4540.15
2008.41672	4549.25
2011.46859	4533.75
2014.51848	4529.75
2017.56639	4510.05
2020.61233	4506.35
2023.6563	4486.05
2026.6983	4479.55
2029.73833	4475.45
2032.7764	4457.15
2035.8125	4454.25
2038.84664	4440.85
2041.87881	4445.35
2044.90903	4437.65
2047.93729	4428.45
2050.96359	4432.55
2053.98794	4423.55
2057.01034	4421.05
2060.03078	4424.45
2063.04927	4405.45
2066.06582	4390.55
2069.08042	4403.15
2072.09307	4391.95
2075.10378	4391.85
2078.11255	4381.05
2081.11938	4390.35
2084.12426	4380.15
2087.12722	4393.85
2090.12824	4387.35
2093.12732	4368.65
2096.12447	4374.25
2099.11969	4372.85
2102.11299	4374.55
2105.10435	4380.85
2108.09379	4371.65
2111.08131	4405.45
2114.0669	4387.45
2117.05057	4419.25
2120.03233	4415.05
2123.01216	4417.75
2125.99008	4420.55
2128.96609	4403.45
2131.94018	4420.25
2134.91236	4412.45
2137.88263	4411.85
2140.851	4427.75
2143.81746	4411.85
2146.78201	4412.65
2149.74466	4410.75
2152.7054	4418.45
2155.66425	4417.95
2158.6212	4405.25
2161.57625	4401.15
2164.52941	4393.35
2167.48067	4386.45
2170.43004	4407.95
2173.37752	4391.85
2176.32311	4407.05
2179.26681	4393.65
2182.20863	4408.05
2185.14856	4408.35
2188.08661	4409.55
2191.02278	4406.85
2193.95707	4412.75
2196.88948	4391.05
2199.82001	4406.75
2202.74867	4393.65
2205.67545	4407.15
2208.60037	4397.15
2211.52341	4396.95
2214.44458	4383.15
2217.36388	4374.65
2220.28132	4362.25
2223.1969	4364.75
2226.11061	4359.95
2229.02246	4339.25
2231.93245	4338.65
2234.84058	4349.85
2237.74686	4312.15
2240.65128	4315.45
2243.55385	4319.95
2246.45456	4309.75
2249.35343	4298.55
2252.25044	4320.75
2255.14561	4300.15
2258.03893	4322.45
2260.93041	4309.85
2263.82004	4312.65
2266.70783	4307.85
2269.59378	4283.15
2272.4779	4279.35
2275.36017	4248.95
2278.24061	4271.15
2281.11922	4256.45
2283.996	4224.45
2286.87094	4237.65
2289.74405	4212.15
2292.61534	4214.95
2295.4848	4201.35
2298.35243	4197.95
2301.21824	4216.75
2304.08223	4208.05
2306.94439	4211.75
2309.80474	4232.45
2312.66327	4216.55
2315.51999	4217.65
2318.37489	4223.05
2321.22797	4223.15
2324.07925	4205.45
2326.92871	4214.85
2329.77637	4215.15
2332.62222	4204.15
2335.46626	4202.25
2338.3085	4194.05
2341.14893	4202.35
2343.98756	4192.75
2346.8244	4217.45
2349.65943	4225.75
2352.49267	4232.25
2355.32411	4240.95
2358.15376	4233.15
2360.98161	4251.35
2363.80768	4235.05
2366.63195	4242.45
2369.45444	4207.95
2372.27514	4219.65
2375.09405	4224.05
2377.91118	4200.35
2380.72652	4197.15
2383.54009	4159.65
2386.35187	4151.55
2389.16188	4151.25
2391.97011	4119.55
2394.77657	4122.35
2397.58125	4108.65
2400.38416	4110.25
2403.18529	4092.45
2405.98466	4090.25
2408.78226	4065.25
2411.57809	4080.15
2414.37216	4050.35
2417.16446	4054.55
2419.955	4052.85
2422.74378	4040.95
2425.5308	4034.95
2428.31606	4032.15
2431.09956	4030.95
2433.88131	4046.55
2436.6613	4038.55
2439.43954	4020.65
2442.21603	4051.85
2444.99077	4041.35
2447.76377	4051.65
2450.53501	4026.65
2453.30451	4033.55
2456.07226	4044.15
2458.83827	4025.75
2461.60254	4026.65
2464.36507	4034.05
2467.12586	4025.05
2469.88492	4022.25
2472.64224	4042.85
2475.39782	4041.95
2478.15167	4042.15
2480.90379	4061.35
2483.65417	4057.75
2486.40283	4069.25
2489.14976	4079.35
2491.89497	4081.15
2494.63845	4081.45
2497.3802	4071.05
2500.12024	4073.15
2502.85855	4045.65
2505.59514	4044.35
2508.33002	4027.05
2511.06318	4019.15
2513.79462	3997.95
2516.52435	3975.95
2519.25237	3982.55
2521.97867	3959.35
2524.70327	3958.35
2527.42616	3957.95
2530.14734	3952.55
2532.86681	3930.75
2535.58458	3957.65
2538.30065	3939.55
2541.01501	3949.65
2543.72768	3963.45
2546.43864	3945.65
2549.14791	3931.85
2551.85548	3952.55
2554.56136	3937.65
2557.26554	3927.45
2559.96803	3929.05
2562.66883	3915.25
2565.36794	3911.45
2568.06536	3922.35
2570.7611	3916.65
2573.45514	3904.65
2576.14751	3893.75
2578.83819	3884.45
2581.52719	3880.75
2584.21451	3883.55
2586.90015	3890.05
2589.58411	3895.55
2592.2664	3879.55
2594.94701	3875.35
2597.62594	3875.45
2600.30321	3866.65
2602.9788	3866.05
2605.65273	3853.25
2608.32498	3868.85
2610.99557	3865.55
2613.66449	3867.65
2616.33175	3863.05
2618.99734	3864.05
2621.66128	3874.65
2624.32355	3876.55
2626.98416	3871.85
2629.64311	3867.55
2632.30041	3855.25
2634.95605	3857.85
2637.61004	3856.55
2640.26238	3842.95
2642.91306	3844.95
2645.56209	3829.65
2648.20948	3823.75
2650.85521	3826.65
2653.4993	3805.15
2656.14175	3821.95
2658.78255	3836.05
2661.42171	3819.45
2664.05923	3838.65
2666.6951	3845.05
2669.32934	3859.65
2671.96194	3842.95
2674.59291	3854.25
2677.22224	3854.25
2679.84993	3859.35
2682.476	3845.05
2685.10043	3831.15
2687.72324	3835.45
2690.34441	3823.25
2692.96396	3816.45
2695.58188	3811.35
2698.19818	3814.65
2700.81285	3809.55
2703.4259	3801.25
2706.03733	3805.95
2708.64714	3808.25
2711.25533	3821.85
2713.86191	3810.95
2716.46687	3829.75
2719.07021	3815.55
2721.67194	3817.35
2724.27206	3814.05
2726.87057	3830.15
2729.46747	3824.15
2732.06276	3804.75
2734.65644	3818.55
2737.24852	3816.55
2739.83899	3798.85
2742.42786	3803.75
2745.01513	3776.35
2747.60079	3784.45
2750.18486	3772.85
2752.76733	3763.05
2755.3482	3749.15
2757.92747	3761.35
2760.50515	3749.65
2763.08123	3746.45
2765.65573	3759.75
2768.22863	3758.65
2770.79994	3751.45
2773.36967	3753.35
2775.9378	3755.85
2778.50435	3752.75
2781.06932	3726.35
2783.6327	3737.85
2786.1945	3730.95
2788.75471	3752.05
2791.31335	3733.15
2793.87041	3744.35
2796.42589	3728.75
2798.97979	3726.55
2801.53212	3726.25
2804.08288	3722.25
2806.63206	3714.25
2809.17967	3716.45
2811.72571	3722.45
2814.27018	3716.25
2816.81308	3698.65
2819.35442	3718.85
2821.89419	3714.35
2824.43239	3706.65
2826.96904	3706.15
2829.50412	3718.45
2832.03763	3699.05
2834.56959	3713.95
2837.1	3697.45
2839.62884	3701.85
2842.15613	3690.75
2844.68186	3693.55
2847.20604	3678.35
2849.72867	3699.65
2852.24974	3682.95
2854.76927	3695.75
2857.28724	3692.75
2859.80367	3681.65
2862.31855	3693.75
2864.83189	3705.35
2867.34368	3704.95
2869.85393	3688.55
2872.36264	3711.85
2874.8698	3702.15
2877.37543	3695.95
2879.87952	3694.35
2882.38207	3701.85
2884.88308	3692.05
2887.38256	3697.25
2889.88051	3685.25
2892.37692	3696.65
2894.8718	3702.35
2897.36515	3698.75
2899.85698	3710.25
2902.34727	3709.05
2904.83604	3709.45
2907.32328	3722.95
2909.809	3704.25
2912.29319	3722.95
2914.77587	3714.15
2917.25702	3702.05
2919.73665	3703.55
2922.21476	3697.15
2924.69136	3688.15
2927.16644	3681.25
2929.64	3677.45
2932.11205	3669.35
2934.58258	3666.55
2937.05161	3673.15
2939.51912	3686.55
2941.98513	3673.15
2944.44962	3640.65
2946.91261	3641.85
2949.37409	3667.75
2951.83407	3669.55
2954.29254	3649.55
2956.74951	3660.75
2959.20498	3655.65
2961.65895	3658.95
2964.11142	3655.35
2966.56239	3663.85
2969.01186	3657.15
2971.45984	3653.15
2973.90632	3646.35
2976.35131	3632.75
2978.7948	3628.85
2981.23681	3616.15
2983.67732	3628.15
2986.11635	3620.55
2988.55388	3606.05
2990.98993	3599.05
2993.4245	3599.35
2995.85758	3589.95
2998.28917	3589.75
3000.71928	3579.05
3003.14791	3576.65
3005.57506	3565.55
3008.00073	3557.65
3010.42493	3580.35
3012.84764	3559.05
3015.26888	3570.35
3017.68865	3550.65
3020.10694	3572.95
3022.52376	3559.25
3024.9391	3568.05
3027.35298	3546.85
3029.76539	3541.95
3032.17632	3522.45
3034.5858	3525.15
3036.9938	3527.05
3039.40034	3531.35
3041.80542	3524.55
3044.20903	3519.05
3046.61118	3505.05
3049.01187	3517.35
3051.4111	3511.15
3053.80888	3499.05
3056.20519	3509.25
3058.60005	3499.25
3060.99345	3510.75
3063.3854	3485.85
3065.7759	3470.45
3068.16494	3472.45
3070.55254	3467.15
3072.93868	3455.55
3075.32338	3455.45
3077.70662	3446.55
3080.08842	3455.45
3082.46878	3439.45
3084.84769	3458.45
3087.22515	3449.55
3089.60118	3460.15
3091.97576	3452.75
3094.3489	3454.85
3096.72061	3465.35
3099.09087	3473.65
3101.4597	3473.05
3103.82709	3475.05
3106.19305	3483.25
3108.55757	3479.95
3110.92066	3476.15
3113.28232	3484.55
3115.64255	3481.55
3118.00134	3484.45
3120.35871	3472.45
3122.71466	3476.05
3125.06917	3486.95
3127.42226	3469.75
3129.77393	3469.45
3132.12417	3471.15
3134.47299	3478.35
3136.82039	3485.05
3139.16636	3481.25
3141.51092	3489.25
3143.85406	3498.15
3146.19579	3502.65
3148.53609	3505.45
3150.87499	3530.55
3153.21246	3535.55
3155.54853	3536.85
3157.88318	3544.05
3160.21642	3551.55
3162.54826	3549.35
3164.87868	3555.15
3167.2077	3562.75
3169.5353	3573.55
3171.86151	3566.35
3174.18631	3567.95
3176.5097	3574.65
3178.83169	3562.65
3181.15228	3593.65
3183.47147	3559.75
3185.78926	3568.15
3188.10565	3571.45
3190.42065	3572.35
3192.73424	3590.55
3195.04645	3586.75
3197.35725	3593.45
3199.66667	3604.45
3201.97469	3605.55
3204.28132	3600.65
3206.58656	3622.95
3208.8904	3643.05
3211.19287	3640.45
3213.49394	3642.65
3215.79363	3657.55
3218.09193	3651.75
3220.38884	3670.65
3222.68438	3677.15
3224.97853	3672.75
3227.2713	3671.15
3229.56269	3666.05
3231.8527	3673.55
3234.14133	3687.85
3236.42858	3656.15
3238.71446	3673.65
3240.99896	3660.65
3243.28209	3652.95
3245.56384	3652.45
3247.84423	3649.25
3250.12324	3656.15
3252.40088	3663.75
3254.67715	3656.15
3256.95205	3652.95
3259.22558	3660.55
3261.49775	3661.55
3263.76855	3659.15
3266.03799	3652.35
3268.30606	3662.45
3270.57277	3659.55
3272.83812	3644.05
3275.10211	3631.05
3277.36474	3636.15
3279.62601	3634.05
3281.88593	3641.25
3284.14448	3630.25
3286.40168	3633.45
3288.65753	3627.55
3290.91202	3644.55
3293.16516	3640.95
3295.41695	3636.25
3297.66738	3612.05
3299.91647	3596.25
3302.16421	3583.95
3304.4106	3553.75
3306.65564	3532.25
3308.89933	3518.85
3311.14169	3483.45
3313.38269	3468.85
3315.62236	3445.95
3317.86068	3422.25
3320.09766	3401.05
3322.3333	3377.65
3324.5676	3357.75
3326.80056	3314.25
3329.03219	3287.35
3331.26248	1.05
3333.49143	-0.15
3335.71905	0.85
