Data from AgNPs_UA_10uM_CRN_0uM_R6G_10uM_Q_RamanShift__6__11-55-42-629.txt Node

Date: Mon Jul 18 11:55:42 BST 2022
User: TCL
Spectrometer: QEP01345
Trigger mode: 4
Integration Time (sec): 7.000000E0
Scans to average: 10
Electric dark correction enabled: true
Nonlinearity correction enabled: false
Boxcar width: 0
XAxis mode: Raman Shifts
Number of Pixels in Spectrum: 1044
>>>>>Begin Spectral Data<<<<<
46.04893	-0.5125
50.45542	-2.2125
54.85868	-2.2125
59.25871	-1.3125
63.6555	121.9875
68.04907	126.4875
72.43941	135.4875
76.82654	135.7875
81.21044	142.1875
85.59113	144.8875
89.96862	149.4875
94.34289	159.7875
98.71396	166.2875
103.08183	166.4875
107.4465	173.7875
111.80798	176.6875
116.16626	184.5875
120.52136	193.4875
124.87327	203.9875
129.222	216.2875
133.56755	228.5875
137.90993	247.3875
142.24913	262.6875
146.58517	306.5875
150.91804	356.6875
155.24774	432.2875
159.57429	535.4875
163.89768	693.9875
168.21792	925.5875
172.53501	1273.9875
176.84895	1777.1875
181.15975	2505.4875
185.46741	3510.3875
189.77193	4851.5875
194.07331	6483.5875
198.37157	8339.3875
202.6667	10263.7875
206.9587	12205.1875
211.24758	14138.1875
215.53334	16044.3875
219.81599	18139.0875
224.09553	20457.9875
228.37195	23023.4875
232.64527	25743.2875
236.91549	28535.9875
241.18261	31200.2875
245.44663	33549.7875
249.70755	35558.4875
253.96539	37390.5875
258.22014	38916.9875
262.4718	40188.7875
266.72039	41050.9875
270.96589	41501.2875
275.20832	41565.0875
279.44768	41160.4875
283.68397	40735.0875
287.91719	40443.8875
292.14735	40387.2875
296.37445	40623.9875
300.59849	41232.0875
304.81948	41907.1875
309.03742	42487.5875
313.25231	42485.8875
317.46415	41749.3875
321.67296	40450.4875
325.87872	39301.6875
330.08145	38724.4875
334.28114	38731.1875
338.47781	39101.7875
342.67145	39770.3875
346.86207	40590.2875
351.04966	41619.1875
355.23424	42710.3875
359.4158	43513.9875
363.59435	43887.3875
367.76989	44043.4875
371.94243	44057.3875
376.11196	44002.1875
380.27849	43946.5875
384.44203	44088.6875
388.60257	44210.9875
392.76012	44469.3875
396.91468	45106.1875
401.06626	45846.9875
405.21485	46213.8875
409.36047	45710.8875
413.50311	44743.7875
417.64277	44022.1875
421.77947	43855.8875
425.9132	43931.0875
430.04396	44019.3875
434.17176	44147.9875
438.2966	44528.5875
442.41849	45301.0875
446.53742	46542.6875
450.6534	47716.6875
454.76644	48451.3875
458.87653	48552.6875
462.98368	48201.7875
467.08789	47675.3875
471.18916	46934.8875
475.2875	46145.8875
479.38291	45582.2875
483.4754	45098.5875
487.56496	44619.7875
491.6516	44186.1875
495.73531	43986.7875
499.81612	44012.3875
503.89401	44315.9875
507.96899	44480.7875
512.04106	44532.8875
516.11023	44534.5875
520.1765	44474.8875
524.23987	44319.9875
528.30034	44134.7875
532.35792	43819.0875
536.41261	43421.9875
540.46441	42890.2875
544.51333	42837.0875
548.55936	43290.5875
552.60252	44188.4875
556.64279	45315.0875
560.6802	46032.7875
564.71473	46504.5875
568.7464	47429.5875
572.7752	48483.0875
576.80114	49237.6875
580.82422	50231.9875
584.84444	51656.7875
588.86181	53489.6875
592.87633	55005.6875
596.888	54909.9875
600.89682	53792.2875
604.9028	54966.5875
608.90594	60829.6875
612.90624	66429.3875
616.90371	60911.8875
620.89834	49797.7875
624.89015	45395.5875
628.87913	45034.5875
632.86528	45601.1875
636.84862	45658.6875
640.82913	44801.0875
644.80683	43481.8875
648.78172	42747.7875
652.75379	42890.4875
656.72306	43818.0875
660.68952	44701.7875
664.65319	44208.3875
668.61405	43308.9875
672.57211	43232.4875
676.52738	43429.2875
680.47986	43253.6875
684.42955	42818.3875
688.37646	42604.3875
692.32058	42949.2875
696.26192	43594.0875
700.20048	44215.3875
704.13626	44540.8875
708.06928	44482.1875
711.99952	44259.4875
715.927	44246.6875
719.85171	44394.4875
723.77365	44176.7875
727.69284	43596.7875
731.60928	43162.3875
735.52295	43137.1875
739.43388	43217.9875
743.34206	43366.3875
747.24749	43683.5875
751.15017	43959.9875
755.05012	44815.3875
758.94733	46416.7875
762.8418	49710.7875
766.73354	54440.0875
770.62254	58113.5875
774.50882	58161.4875
778.39237	55160.4875
782.27321	51207.3875
786.15132	47519.2875
790.02671	45236.1875
793.89938	44020.1875
797.76935	43469.1875
801.6366	43231.7875
805.50115	43039.4875
809.36299	42863.0875
813.22213	42589.0875
817.07857	42467.8875
820.93231	42497.7875
824.78336	42446.5875
828.63172	42423.9875
832.47738	42379.3875
836.32036	42313.2875
840.16066	42385.5875
843.99827	42457.7875
847.8332	42480.4875
851.66546	42447.7875
855.49504	42496.4875
859.32195	42466.7875
863.1462	42359.2875
866.96777	42359.1875
870.78668	42291.1875
874.60293	42297.3875
878.41652	42437.7875
882.22745	42643.2875
886.03573	42780.9875
889.84136	42727.1875
893.64433	42522.4875
897.44466	42426.3875
901.24235	42342.5875
905.0374	42210.4875
908.8298	42075.3875
912.61957	42041.2875
916.40671	42298.3875
920.19121	42795.8875
923.97308	43315.2875
927.75233	43579.3875
931.52895	43495.8875
935.30295	42908.2875
939.07433	42060.0875
942.84309	41466.0875
946.60924	41075.3875
950.37278	41038.9875
954.13371	40990.6875
957.89203	41007.4875
961.64774	41039.7875
965.40086	41104.2875
969.15137	41021.4875
972.89929	41024.3875
976.64461	41042.3875
980.38733	41014.1875
984.12747	41124.4875
987.86502	41349.4875
991.59999	41524.5875
995.33237	41931.3875
999.06217	42625.5875
1002.78939	43435.1875
1006.51404	44182.1875
1010.23611	44802.5875
1013.95561	45150.0875
1017.67255	45178.3875
1021.38692	44686.3875
1025.09872	43944.9875
1028.80796	43577.2875
1032.51465	43819.8875
1036.21877	44244.0875
1039.92035	44371.7875
1043.61937	44346.8875
1047.31584	44119.4875
1051.00976	43890.6875
1054.70114	43881.2875
1058.38998	44036.4875
1062.07627	44321.4875
1065.76003	44720.7875
1069.44126	45300.3875
1073.11995	46211.9875
1076.79611	46921.8875
1080.46974	47472.4875
1084.14085	47904.7875
1087.80943	48573.4875
1091.47549	48855.7875
1095.13903	48571.2875
1098.80005	47660.9875
1102.45857	46670.2875
1106.11456	45961.1875
1109.76805	45684.9875
1113.41903	45839.0875
1117.06751	46349.3875
1120.71348	47167.1875
1124.35696	48011.6875
1127.99793	48851.3875
1131.63641	48644.9875
1135.2724	47877.3875
1138.90589	47215.1875
1142.5369	47030.1875
1146.16542	46980.5875
1149.79145	47195.0875
1153.415	47413.5875
1157.03607	47893.5875
1160.65467	48940.0875
1164.27079	50646.8875
1167.88443	52970.5875
1171.49561	55970.4875
1175.10432	60113.8875
1178.71056	65322.3875
1182.31434	69654.4875
1185.91565	71107.9875
1189.51451	70073.5875
1193.11091	67647.6875
1196.70485	64826.7875
1200.29634	62264.1875
1203.88538	60213.4875
1207.47197	58508.5875
1211.05612	57155.4875
1214.63782	55950.3875
1218.21708	54884.9875
1221.79391	54049.6875
1225.36829	53695.4875
1228.94024	53308.5875
1232.50976	52666.9875
1236.07685	51978.4875
1239.6415	51571.4875
1243.20374	51488.5875
1246.76355	51852.6875
1250.32093	52547.7875
1253.8759	53462.3875
1257.42845	54910.8875
1260.97859	56427.4875
1264.52631	58155.5875
1268.07163	59697.9875
1271.61453	61256.9875
1275.15503	62662.0875
1278.69312	64034.7875
1282.22882	65293.1875
1285.76211	67177.1875
1289.29301	69463.0875
1292.82151	72064.3875
1296.34761	75110.6875
1299.87133	78942.7875
1303.39266	83679.5875
1306.9116	89356.8875
1310.42815	94721.4875
1313.94233	97074.7875
1317.45412	95309.6875
1320.96354	91702.3875
1324.47058	88346.5875
1327.97525	85499.7875
1331.47754	83453.0875
1334.97747	82123.1875
1338.47502	81319.8875
1341.97022	81184.9875
1345.46305	81700.7875
1348.95352	82673.2875
1352.44163	84528.1875
1355.92738	87666.2875
1359.41078	93057.9875
1362.89183	98142.2875
1366.37053	96303.4875
1369.84688	86674.6875
1373.32088	76131.4875
1376.79254	69371.1875
1380.26186	66478.9875
1383.72883	65529.6875
1387.19347	64753.1875
1390.65578	63650.8875
1394.11575	63000.1875
1397.57339	62974.4875
1401.0287	63172.5875
1404.48168	63188.7875
1407.93234	62746.1875
1411.38068	61834.2875
1414.82669	60592.4875
1418.27039	59089.2875
1421.71177	57583.9875
1425.15083	56330.1875
1428.58758	55989.4875
1432.02203	56756.1875
1435.45416	58080.6875
1438.88399	59174.9875
1442.31151	59694.0875
1445.73673	59911.2875
1449.15965	60101.1875
1452.58027	60039.1875
1455.9986	60021.7875
1459.41463	60270.7875
1462.82837	60962.7875
1466.23982	61979.7875
1469.64898	62976.8875
1473.05586	63569.0875
1476.46045	63819.2875
1479.86276	63867.9875
1483.26279	63992.0875
1486.66054	64571.2875
1490.05602	65703.5875
1493.44922	67604.7875
1496.84016	70146.5875
1500.22882	73910.8875
1503.61521	79009.8875
1506.99934	84507.0875
1510.38121	88503.8875
1513.76081	88822.8875
1517.13816	84603.2875
1520.51324	78519.8875
1523.88607	73565.6875
1527.25665	70668.7875
1530.62498	69220.1875
1533.99105	68089.1875
1537.35488	66758.3875
1540.71647	65186.8875
1544.07581	63654.3875
1547.4329	62244.4875
1550.78776	61114.7875
1554.14038	60544.7875
1557.49077	60333.2875
1560.83892	60562.1875
1564.18484	61306.9875
1567.52853	62287.0875
1570.86999	63200.0875
1574.20922	64107.5875
1577.54624	64271.2875
1580.88103	63199.4875
1584.2136	62155.7875
1587.54395	62512.9875
1590.87208	64657.2875
1594.19801	67951.4875
1597.52172	71045.6875
1600.84321	71522.2875
1604.16251	68715.6875
1607.47959	64530.9875
1610.79447	60013.2875
1614.10715	55780.5875
1617.41763	52310.1875
1620.7259	50099.8875
1624.03199	49107.8875
1627.33587	49280.1875
1630.63757	50719.1875
1633.93707	53630.8875
1637.23439	58626.8875
1640.52951	65924.8875
1643.82246	74662.9875
1647.11321	81984.8875
1650.40179	83918.9875
1653.68819	78441.3875
1656.97241	68230.6875
1660.25446	58361.9875
1663.53433	51253.0875
1666.81203	46795.2875
1670.08756	44139.7875
1673.36092	42482.6875
1676.63211	41437.6875
1679.90115	40673.5875
1683.16801	40073.6875
1686.43272	39595.1875
1689.69527	39289.6875
1692.95567	39044.7875
1696.2139	38849.8875
1699.46999	38710.9875
1702.72392	38656.3875
1705.97571	38541.7875
1709.22535	38500.2875
1712.47284	38544.5875
1715.71819	38517.8875
1718.96139	38438.5875
1722.20246	38254.2875
1725.44139	38100.2875
1728.67818	37906.0875
1731.91284	37617.7875
1735.14537	37424.6875
1738.37576	37297.9875
1741.60403	37240.2875
1744.83017	37160.0875
1748.05418	37050.4875
1751.27607	36948.2875
1754.49584	36885.4875
1757.71349	36860.6875
1760.92903	36800.4875
1764.14244	36727.3875
1767.35375	36734.8875
1770.56294	36644.0875
1773.77002	36580.0875
1776.97499	36586.6875
1780.17785	36469.8875
1783.37861	36414.8875
1786.57727	36346.5875
1789.77382	36299.9875
1792.96828	36241.0875
1796.16064	36150.2875
1799.3509	36045.8875
1802.53907	35979.5875
1805.72514	35869.0875
1808.90913	35774.6875
1812.09102	35684.7875
1815.27083	35669.3875
1818.44856	35618.9875
1821.6242	35609.6875
1824.79776	35535.0875
1827.96924	35460.3875
1831.13864	35417.6875
1834.30597	35392.5875
1837.47122	35369.8875
1840.6344	35412.7875
1843.7955	35374.8875
1846.95454	35332.1875
1850.11151	35316.6875
1853.26642	35291.3875
1856.41926	35277.3875
1859.57004	35237.4875
1862.71876	35225.6875
1865.86542	35152.3875
1869.01003	35148.6875
1872.15258	35110.7875
1875.29308	35052.2875
1878.43152	34977.1875
1881.56792	34955.2875
1884.70227	34923.2875
1887.83457	34905.0875
1890.96482	34854.8875
1894.09304	34807.7875
1897.21921	34734.9875
1900.34335	34752.7875
1903.46544	34637.7875
1906.58551	34645.8875
1909.70353	34562.0875
1912.81953	34512.2875
1915.93349	34562.0875
1919.04543	34442.2875
1922.15534	34379.7875
1925.26322	34311.9875
1928.36908	34255.8875
1931.47292	34179.6875
1934.57473	34031.8875
1937.67453	33976.1875
1940.77232	33852.8875
1943.86808	33807.9875
1946.96184	33765.9875
1950.05358	33598.6875
1953.14331	33487.9875
1956.23103	33441.1875
1959.31675	33341.5875
1962.40046	33278.2875
1965.48217	33168.8875
1968.56188	33086.8875
1971.63959	33036.3875
1974.7153	32962.9875
1977.78901	32811.5875
1980.86073	32670.6875
1983.93046	32571.5875
1986.99819	32507.1875
1990.06394	32467.7875
1993.1277	32320.8875
1996.18947	32209.0875
1999.24925	32172.4875
2002.30706	32066.9875
2005.36288	32013.9875
2008.41672	31951.2875
2011.46859	31829.5875
2014.51848	31762.5875
2017.56639	31695.3875
2020.61233	31614.5875
2023.6563	31518.2875
2026.6983	31371.6875
2029.73833	31243.3875
2032.7764	31248.3875
2035.8125	31209.2875
2038.84664	31115.1875
2041.87881	31091.9875
2044.90903	31016.1875
2047.93729	30942.3875
2050.96359	30903.4875
2053.98794	30829.5875
2057.01034	30848.2875
2060.03078	30819.0875
2063.04927	30807.5875
2066.06582	30764.0875
2069.08042	30711.3875
2072.09307	30689.4875
2075.10378	30664.1875
2078.11255	30670.8875
2081.11938	30679.3875
2084.12426	30659.9875
2087.12722	30660.4875
2090.12824	30635.2875
2093.12732	30611.8875
2096.12447	30659.0875
2099.11969	30651.4875
2102.11299	30657.9875
2105.10435	30697.1875
2108.09379	30649.3875
2111.08131	30714.7875
2114.0669	30724.4875
2117.05057	30709.6875
2120.03233	30740.2875
2123.01216	30817.0875
2125.99008	30813.1875
2128.96609	30896.2875
2131.94018	30936.9875
2134.91236	30927.8875
2137.88263	30894.1875
2140.851	30906.2875
2143.81746	30975.7875
2146.78201	30938.2875
2149.74466	30970.6875
2152.7054	30897.5875
2155.66425	30932.6875
2158.6212	30931.3875
2161.57625	30825.6875
2164.52941	30873.4875
2167.48067	30836.7875
2170.43004	30848.3875
2173.37752	30855.4875
2176.32311	30853.5875
2179.26681	30819.1875
2182.20863	30863.7875
2185.14856	30883.4875
2188.08661	30806.8875
2191.02278	30793.4875
2193.95707	30803.9875
2196.88948	30803.6875
2199.82001	30769.1875
2202.74867	30711.5875
2205.67545	30679.2875
2208.60037	30575.5875
2211.52341	30559.9875
2214.44458	30504.2875
2217.36388	30479.4875
2220.28132	30464.0875
2223.1969	30391.3875
2226.11061	30326.5875
2229.02246	30234.1875
2231.93245	30268.4875
2234.84058	30149.8875
2237.74686	30103.7875
2240.65128	30064.3875
2243.55385	30047.9875
2246.45456	29977.3875
2249.35343	29957.6875
2252.25044	29931.0875
2255.14561	29863.5875
2258.03893	29844.4875
2260.93041	29771.8875
2263.82004	29765.2875
2266.70783	29692.6875
2269.59378	29645.6875
2272.4779	29591.8875
2275.36017	29466.8875
2278.24061	29440.7875
2281.11922	29385.0875
2283.996	29356.6875
2286.87094	29292.8875
2289.74405	29235.8875
2292.61534	29224.7875
2295.4848	29205.1875
2298.35243	29207.1875
2301.21824	29211.2875
2304.08223	29141.4875
2306.94439	29160.2875
2309.80474	29132.1875
2312.66327	29114.4875
2315.51999	29053.2875
2318.37489	29102.5875
2321.22797	29090.7875
2324.07925	28966.2875
2326.92871	28950.8875
2329.77637	28922.6875
2332.62222	28871.1875
2335.46626	28906.7875
2338.3085	28922.5875
2341.14893	28841.3875
2343.98756	28835.5875
2346.8244	28841.5875
2349.65943	28949.9875
2352.49267	28847.0875
2355.32411	28847.8875
2358.15376	28812.3875
2360.98161	28858.4875
2363.80768	28810.4875
2366.63195	28896.5875
2369.45444	28802.2875
2372.27514	28796.5875
2375.09405	28713.8875
2377.91118	28596.9875
2380.72652	28553.4875
2383.54009	28453.5875
2386.35187	28420.8875
2389.16188	28379.5875
2391.97011	28342.2875
2394.77657	28275.4875
2397.58125	28237.0875
2400.38416	28202.0875
2403.18529	28189.9875
2405.98466	28177.2875
2408.78226	28095.8875
2411.57809	28106.6875
2414.37216	28045.7875
2417.16446	28063.2875
2419.955	27985.5875
2422.74378	28023.5875
2425.5308	27932.7875
2428.31606	27866.0875
2431.09956	27948.9875
2433.88131	27865.6875
2436.6613	27858.1875
2439.43954	27866.8875
2442.21603	27814.8875
2444.99077	27830.5875
2447.76377	27823.6875
2450.53501	27743.7875
2453.30451	27771.6875
2456.07226	27720.1875
2458.83827	27708.1875
2461.60254	27691.0875
2464.36507	27683.9875
2467.12586	27652.8875
2469.88492	27657.7875
2472.64224	27684.2875
2475.39782	27651.4875
2478.15167	27694.0875
2480.90379	27700.3875
2483.65417	27738.0875
2486.40283	27770.5875
2489.14976	27806.8875
2491.89497	27775.5875
2494.63845	27788.8875
2497.3802	27763.5875
2500.12024	27686.7875
2502.85855	27635.2875
2505.59514	27600.2875
2508.33002	27580.1875
2511.06318	27457.4875
2513.79462	27477.6875
2516.52435	27413.6875
2519.25237	27368.0875
2521.97867	27337.1875
2524.70327	27349.3875
2527.42616	27327.9875
2530.14734	27326.3875
2532.86681	27264.3875
2535.58458	27275.7875
2538.30065	27237.9875
2541.01501	27234.0875
2543.72768	27218.4875
2546.43864	27136.3875
2549.14791	27108.7875
2551.85548	27080.5875
2554.56136	27048.4875
2557.26554	27003.0875
2559.96803	27021.3875
2562.66883	26951.4875
2565.36794	26924.5875
2568.06536	26939.2875
2570.7611	26960.7875
2573.45514	26890.3875
2576.14751	26886.8875
2578.83819	26834.8875
2581.52719	26819.9875
2584.21451	26708.2875
2586.90015	26713.9875
2589.58411	26690.6875
2592.2664	26707.7875
2594.94701	26681.6875
2597.62594	26707.1875
2600.30321	26621.3875
2602.9788	26552.1875
2605.65273	26466.3875
2608.32498	26477.3875
2610.99557	26475.9875
2613.66449	26491.4875
2616.33175	26437.5875
2618.99734	26425.2875
2621.66128	26364.2875
2624.32355	26385.3875
2626.98416	26367.5875
2629.64311	26327.5875
2632.30041	26285.0875
2634.95605	26263.1875
2637.61004	26221.2875
2640.26238	26253.2875
2642.91306	26250.1875
2645.56209	26206.6875
2648.20948	26141.9875
2650.85521	26159.3875
2653.4993	26116.7875
2656.14175	26121.6875
2658.78255	26173.0875
2661.42171	26240.2875
2664.05923	26290.4875
2666.6951	26243.9875
2669.32934	26252.1875
2671.96194	26248.3875
2674.59291	26211.9875
2677.22224	26238.8875
2679.84993	26233.4875
2682.476	26198.2875
2685.10043	26182.7875
2687.72324	26142.4875
2690.34441	26142.9875
2692.96396	26159.5875
2695.58188	26113.0875
2698.19818	26055.2875
2700.81285	26107.5875
2703.4259	26083.3875
2706.03733	26129.2875
2708.64714	26200.2875
2711.25533	26170.6875
2713.86191	26143.5875
2716.46687	26165.2875
2719.07021	26129.6875
2721.67194	26219.1875
2724.27206	26191.9875
2726.87057	26168.5875
2729.46747	26253.7875
2732.06276	26258.9875
2734.65644	26207.5875
2737.24852	26184.1875
2739.83899	26163.2875
2742.42786	26139.4875
2745.01513	26049.8875
2747.60079	26094.8875
2750.18486	26103.6875
2752.76733	26073.4875
2755.3482	26019.8875
2757.92747	26048.4875
2760.50515	25969.6875
2763.08123	25972.2875
2765.65573	25874.9875
2768.22863	25910.7875
2770.79994	25880.6875
2773.36967	25904.7875
2775.9378	25839.7875
2778.50435	25787.7875
2781.06932	25764.0875
2783.6327	25780.1875
2786.1945	25798.1875
2788.75471	25780.0875
2791.31335	25663.2875
2793.87041	25618.6875
2796.42589	25537.6875
2798.97979	25567.6875
2801.53212	25539.3875
2804.08288	25563.9875
2806.63206	25434.4875
2809.17967	25418.9875
2811.72571	25374.4875
2814.27018	25319.5875
2816.81308	25208.8875
2819.35442	25199.3875
2821.89419	25163.2875
2824.43239	25156.0875
2826.96904	25135.6875
2829.50412	25094.1875
2832.03763	25099.8875
2834.56959	25053.7875
2837.1	24996.9875
2839.62884	25032.7875
2842.15613	24959.0875
2844.68186	24930.0875
2847.20604	24859.1875
2849.72867	24879.1875
2852.24974	24858.4875
2854.76927	24834.2875
2857.28724	24852.2875
2859.80367	24856.1875
2862.31855	24832.5875
2864.83189	24806.0875
2867.34368	24780.4875
2869.85393	24740.0875
2872.36264	24714.6875
2874.8698	24658.3875
2877.37543	24661.6875
2879.87952	24663.5875
2882.38207	24627.3875
2884.88308	24623.4875
2887.38256	24668.1875
2889.88051	24599.2875
2892.37692	24609.0875
2894.8718	24654.6875
2897.36515	24656.4875
2899.85698	24638.2875
2902.34727	24645.1875
2904.83604	24686.9875
2907.32328	24746.6875
2909.809	24728.5875
2912.29319	24715.0875
2914.77587	24721.5875
2917.25702	24736.6875
2919.73665	24696.3875
2922.21476	24702.3875
2924.69136	24682.9875
2927.16644	24680.0875
2929.64	24638.3875
2932.11205	24585.6875
2934.58258	24538.5875
2937.05161	24495.0875
2939.51912	24501.2875
2941.98513	24523.8875
2944.44962	24468.6875
2946.91261	24356.7875
2949.37409	24435.5875
2951.83407	24397.2875
2954.29254	24427.7875
2956.74951	24442.2875
2959.20498	24402.7875
2961.65895	24406.9875
2964.11142	24449.4875
2966.56239	24426.9875
2969.01186	24356.3875
2971.45984	24282.7875
2973.90632	24311.5875
2976.35131	24228.4875
2978.7948	24218.9875
2981.23681	24174.9875
2983.67732	24162.5875
2986.11635	24145.5875
2988.55388	24124.1875
2990.98993	24062.2875
2993.4245	23965.9875
2995.85758	23911.4875
2998.28917	23838.0875
3000.71928	23801.3875
3003.14791	23710.2875
3005.57506	23726.7875
3008.00073	23661.4875
3010.42493	23627.3875
3012.84764	23600.6875
3015.26888	23570.7875
3017.68865	23551.8875
3020.10694	23507.1875
3022.52376	23455.7875
3024.9391	23392.9875
