Data from AgNPs_UA_200uM_CRN_0uM_R6G_10uM_Q_RamanShift__3__14-03-24-137.txt Node

Date: Tue Jul 26 14:03:24 BST 2022
User: TCL
Spectrometer: QEP01345
Trigger mode: 4
Integration Time (sec): 7.000000E0
Scans to average: 10
Electric dark correction enabled: true
Nonlinearity correction enabled: false
Boxcar width: 0
XAxis mode: Raman Shifts
Number of Pixels in Spectrum: 1044
>>>>>Begin Spectral Data<<<<<
46.04893	0.4125
50.45542	-0.1875
54.85868	-1.3875
59.25871	0.1125
63.6555	47.1125
68.04907	51.7125
72.43941	55.2125
76.82654	56.8125
81.21044	60.2125
85.59113	64.4125
89.96862	65.9125
94.34289	71.2125
98.71396	65.6125
103.08183	72.1125
107.4465	74.1125
111.80798	70.6125
116.16626	74.3125
120.52136	77.9125
124.87327	73.3125
129.222	75.4125
133.56755	76.3125
137.90993	79.6125
142.24913	85.9125
146.58517	84.9125
150.91804	88.7125
155.24774	101.4125
159.57429	115.0125
163.89768	135.3125
168.21792	168.5125
172.53501	217.1125
176.84895	287.6125
181.15975	391.4125
185.46741	539.9125
189.77193	732.7125
194.07331	963.1125
198.37157	1243.5125
202.6667	1528.6125
206.9587	1797.8125
211.24758	2075.4125
215.53334	2359.7125
219.81599	2658.8125
224.09553	2976.8125
228.37195	3323.7125
232.64527	3725.6125
236.91549	4143.1125
241.18261	4534.0125
245.44663	4932.4125
249.70755	5271.5125
253.96539	5562.7125
258.22014	5842.6125
262.4718	6023.1125
266.72039	6148.5125
270.96589	6171.3125
275.20832	6193.9125
279.44768	6138.5125
283.68397	6059.7125
287.91719	5991.4125
292.14735	5930.2125
296.37445	5931.5125
300.59849	5938.3125
304.81948	5985.5125
309.03742	6010.7125
313.25231	5989.5125
317.46415	5940.1125
321.67296	5854.5125
325.87872	5766.0125
330.08145	5747.5125
334.28114	5764.2125
338.47781	5844.8125
342.67145	5904.3125
346.86207	6012.4125
351.04966	6142.9125
355.23424	6285.0125
359.4158	6425.7125
363.59435	6501.6125
367.76989	6560.9125
371.94243	6625.9125
376.11196	6676.5125
380.27849	6739.5125
384.44203	6790.3125
388.60257	6828.9125
392.76012	6868.1125
396.91468	6908.0125
401.06626	7006.3125
405.21485	7059.0125
409.36047	7072.9125
413.50311	6984.7125
417.64277	6911.9125
421.77947	6883.2125
425.9132	6897.2125
430.04396	6917.9125
434.17176	6954.3125
438.2966	7024.8125
442.41849	7106.1125
446.53742	7175.0125
450.6534	7264.5125
454.76644	7338.3125
458.87653	7381.1125
462.98368	7393.2125
467.08789	7367.2125
471.18916	7374.1125
475.2875	7346.8125
479.38291	7323.7125
483.4754	7313.9125
487.56496	7330.4125
491.6516	7336.2125
495.73531	7361.7125
499.81612	7390.8125
503.89401	7419.6125
507.96899	7427.9125
512.04106	7474.9125
516.11023	7480.5125
520.1765	7533.1125
524.23987	7556.3125
528.30034	7560.8125
532.35792	7556.8125
536.41261	7548.9125
540.46441	7525.3125
544.51333	7478.7125
548.55936	7517.9125
552.60252	7554.9125
556.64279	7616.6125
560.6802	7641.8125
564.71473	7661.3125
568.7464	7696.8125
572.7752	7725.9125
576.80114	7702.1125
580.82422	7691.8125
584.84444	7723.1125
588.86181	7756.0125
592.87633	7817.2125
596.888	7890.5125
600.89682	8011.0125
604.9028	8335.7125
608.90594	9030.9125
612.90624	9791.0125
616.90371	9486.3125
620.89834	8489.2125
624.89015	8087.4125
628.87913	8102.2125
632.86528	8249.2125
636.84862	8387.9125
640.82913	8396.8125
644.80683	8220.0125
648.78172	8085.8125
652.75379	8022.5125
656.72306	8034.2125
660.68952	8105.7125
664.65319	8072.6125
668.61405	7957.6125
672.57211	7962.5125
676.52738	7933.7125
680.47986	7923.0125
684.42955	7929.5125
688.37646	7912.7125
692.32058	7934.6125
696.26192	7969.6125
700.20048	8014.7125
704.13626	8043.9125
708.06928	8050.0125
711.99952	8015.5125
715.927	8037.5125
719.85171	8073.0125
723.77365	8106.6125
727.69284	8140.4125
731.60928	8145.6125
735.52295	8130.3125
739.43388	8100.9125
743.34206	8108.0125
747.24749	8122.9125
751.15017	8097.6125
755.05012	8136.5125
758.94733	8247.8125
762.8418	8515.3125
766.73354	8885.5125
770.62254	9310.5125
774.50882	9514.2125
778.39237	9333.8125
782.27321	8923.8125
786.15132	8531.5125
790.02671	8310.9125
793.89938	8197.8125
797.76935	8129.9125
801.6366	8133.6125
805.50115	8162.8125
809.36299	8168.3125
813.22213	8222.9125
817.07857	8226.0125
820.93231	8201.8125
824.78336	8147.0125
828.63172	8134.5125
832.47738	8139.3125
836.32036	8147.1125
840.16066	8104.2125
843.99827	8116.8125
847.8332	8123.6125
851.66546	8156.5125
855.49504	8152.0125
859.32195	8155.8125
863.1462	8154.6125
866.96777	8169.8125
870.78668	8181.6125
874.60293	8229.6125
878.41652	8276.1125
882.22745	8326.2125
886.03573	8359.6125
889.84136	8388.6125
893.64433	8400.4125
897.44466	8353.5125
901.24235	8299.3125
905.0374	8251.6125
908.8298	8218.4125
912.61957	8212.4125
916.40671	8196.5125
920.19121	8201.8125
923.97308	8196.1125
927.75233	8194.7125
931.52895	8225.7125
935.30295	8168.3125
939.07433	8156.2125
942.84309	8100.5125
946.60924	8084.9125
950.37278	8086.0125
954.13371	8068.2125
957.89203	8059.1125
961.64774	8043.1125
965.40086	8035.5125
969.15137	8037.3125
972.89929	8017.8125
976.64461	8028.2125
980.38733	8018.7125
984.12747	8044.5125
987.86502	8071.8125
991.59999	8101.1125
995.33237	8131.2125
999.06217	8204.1125
1002.78939	8237.4125
1006.51404	8309.5125
1010.23611	8386.3125
1013.95561	8424.4125
1017.67255	8440.2125
1021.38692	8421.6125
1025.09872	8397.9125
1028.80796	8370.7125
1032.51465	8355.7125
1036.21877	8343.6125
1039.92035	8360.2125
1043.61937	8338.0125
1047.31584	8354.9125
1051.00976	8355.0125
1054.70114	8349.7125
1058.38998	8367.9125
1062.07627	8397.9125
1065.76003	8416.7125
1069.44126	8469.0125
1073.11995	8534.8125
1076.79611	8622.0125
1080.46974	8651.1125
1084.14085	8677.3125
1087.80943	8692.6125
1091.47549	8704.3125
1095.13903	8675.8125
1098.80005	8612.0125
1102.45857	8582.9125
1106.11456	8570.7125
1109.76805	8547.7125
1113.41903	8588.2125
1117.06751	8693.2125
1120.71348	8810.9125
1124.35696	8975.0125
1127.99793	9133.6125
1131.63641	9190.9125
1135.2724	9148.1125
1138.90589	9058.0125
1142.5369	8940.8125
1146.16542	8814.5125
1149.79145	8701.2125
1153.415	8583.0125
1157.03607	8512.3125
1160.65467	8528.5125
1164.27079	8581.5125
1167.88443	8711.1125
1171.49561	8897.0125
1175.10432	9194.0125
1178.71056	9573.9125
1182.31434	9958.0125
1185.91565	10169.3125
1189.51451	10176.4125
1193.11091	10043.0125
1196.70485	9857.1125
1200.29634	9704.8125
1203.88538	9554.9125
1207.47197	9386.9125
1211.05612	9208.3125
1214.63782	9064.5125
1218.21708	8961.6125
1221.79391	8910.4125
1225.36829	8874.8125
1228.94024	8834.1125
1232.50976	8808.3125
1236.07685	8844.2125
1239.6415	8865.0125
1243.20374	8879.7125
1246.76355	8917.4125
1250.32093	8938.7125
1253.8759	8998.2125
1257.42845	9095.7125
1260.97859	9197.3125
1264.52631	9296.8125
1268.07163	9361.9125
1271.61453	9452.6125
1275.15503	9503.2125
1278.69312	9513.6125
1282.22882	9525.9125
1285.76211	9572.8125
1289.29301	9663.8125
1292.82151	9761.3125
1296.34761	9896.8125
1299.87133	10111.0125
1303.39266	10420.3125
1306.9116	10818.8125
1310.42815	11223.4125
1313.94233	11338.8125
1317.45412	11175.4125
1320.96354	10918.7125
1324.47058	10592.9125
1327.97525	10297.1125
1331.47754	10092.2125
1334.97747	10025.6125
1338.47502	10083.3125
1341.97022	10214.7125
1345.46305	10425.7125
1348.95352	10742.1125
1352.44163	11111.1125
1355.92738	11565.1125
1359.41078	12163.2125
1362.89183	12687.1125
1366.37053	12470.5125
1369.84688	11526.7125
1373.32088	10595.1125
1376.79254	9998.2125
1380.26186	9663.2125
1383.72883	9429.5125
1387.19347	9232.9125
1390.65578	9063.2125
1394.11575	8919.2125
1397.57339	8795.9125
1401.0287	8722.7125
1404.48168	8704.9125
1407.93234	8673.9125
1411.38068	8685.8125
1414.82669	8697.7125
1418.27039	8703.0125
1421.71177	8684.0125
1425.15083	8623.2125
1428.58758	8572.4125
1432.02203	8592.9125
1435.45416	8581.3125
1438.88399	8598.1125
1442.31151	8596.7125
1445.73673	8588.9125
1449.15965	8605.6125
1452.58027	8582.4125
1455.9986	8581.0125
1459.41463	8584.8125
1462.82837	8620.5125
1466.23982	8716.3125
1469.64898	8799.9125
1473.05586	8901.6125
1476.46045	8989.5125
1479.86276	9016.6125
1483.26279	9106.3125
1486.66054	9193.8125
1490.05602	9327.6125
1493.44922	9561.3125
1496.84016	9884.2125
1500.22882	10362.0125
1503.61521	10972.9125
1506.99934	11586.3125
1510.38121	11929.4125
1513.76081	11841.7125
1517.13816	11289.5125
1520.51324	10657.7125
1523.88607	10102.0125
1527.25665	9756.8125
1530.62498	9592.2125
1533.99105	9482.7125
1537.35488	9452.9125
1540.71647	9432.7125
1544.07581	9380.5125
1547.4329	9376.3125
1550.78776	9336.1125
1554.14038	9345.2125
1557.49077	9317.7125
1560.83892	9377.7125
1564.18484	9444.1125
1567.52853	9565.7125
1570.86999	9668.8125
1574.20922	9726.6125
1577.54624	9734.5125
1580.88103	9543.7125
1584.2136	9327.1125
1587.54395	9204.0125
1590.87208	9231.9125
1594.19801	9348.4125
1597.52172	9533.4125
1600.84321	9585.8125
1604.16251	9539.3125
1607.47959	9413.4125
1610.79447	9226.9125
1614.10715	9048.8125
1617.41763	8853.4125
1620.7259	8694.7125
1624.03199	8599.5125
1627.33587	8514.0125
1630.63757	8528.3125
1633.93707	8621.8125
1637.23439	8818.7125
1640.52951	9101.9125
1643.82246	9537.0125
1647.11321	9982.8125
1650.40179	10216.4125
1653.68819	10057.8125
1656.97241	9560.2125
1660.25446	9026.4125
1663.53433	8633.3125
1666.81203	8384.5125
1670.08756	8240.2125
1673.36092	8166.9125
1676.63211	8084.1125
1679.90115	8047.1125
1683.16801	7978.2125
1686.43272	7954.0125
1689.69527	7896.6125
1692.95567	7881.7125
1696.2139	7849.3125
1699.46999	7831.9125
1702.72392	7785.8125
1705.97571	7761.6125
1709.22535	7714.2125
1712.47284	7683.8125
1715.71819	7664.9125
1718.96139	7654.6125
1722.20246	7618.4125
1725.44139	7571.1125
1728.67818	7526.5125
1731.91284	7531.3125
1735.14537	7483.4125
1738.37576	7449.4125
1741.60403	7462.1125
1744.83017	7437.2125
1748.05418	7419.4125
1751.27607	7405.4125
1754.49584	7390.9125
1757.71349	7397.7125
1760.92903	7377.9125
1764.14244	7384.2125
1767.35375	7384.8125
1770.56294	7359.4125
1773.77002	7353.6125
1776.97499	7351.7125
1780.17785	7325.8125
1783.37861	7324.7125
1786.57727	7321.9125
1789.77382	7317.6125
1792.96828	7321.0125
1796.16064	7327.5125
1799.3509	7277.9125
1802.53907	7280.8125
1805.72514	7282.0125
1808.90913	7246.9125
1812.09102	7240.3125
1815.27083	7234.7125
1818.44856	7229.0125
1821.6242	7208.3125
1824.79776	7204.9125
1827.96924	7180.8125
1831.13864	7170.5125
1834.30597	7183.0125
1837.47122	7172.6125
1840.6344	7151.5125
1843.7955	7167.6125
1846.95454	7139.9125
1850.11151	7153.8125
1853.26642	7169.3125
1856.41926	7142.8125
1859.57004	7122.9125
1862.71876	7134.9125
1865.86542	7141.7125
1869.01003	7129.9125
1872.15258	7106.7125
1875.29308	7098.7125
1878.43152	7091.6125
1881.56792	7095.8125
1884.70227	7087.7125
1887.83457	7078.5125
1890.96482	7078.4125
1894.09304	7045.0125
1897.21921	7051.8125
1900.34335	7057.2125
1903.46544	7042.8125
1906.58551	7057.8125
1909.70353	7058.3125
1912.81953	7023.7125
1915.93349	7015.3125
1919.04543	7001.3125
1922.15534	7000.6125
1925.26322	6987.1125
1928.36908	6975.8125
1931.47292	6989.5125
1934.57473	6960.1125
1937.67453	6932.4125
1940.77232	6919.8125
1943.86808	6883.4125
1946.96184	6884.8125
1950.05358	6872.4125
1953.14331	6869.9125
1956.23103	6835.9125
1959.31675	6845.3125
1962.40046	6821.1125
1965.48217	6802.6125
1968.56188	6788.1125
1971.63959	6747.0125
1974.7153	6745.0125
1977.78901	6731.9125
1980.86073	6689.8125
1983.93046	6682.8125
1986.99819	6662.0125
1990.06394	6652.1125
1993.1277	6614.4125
1996.18947	6624.6125
1999.24925	6594.6125
2002.30706	6567.7125
2005.36288	6549.7125
2008.41672	6550.0125
2011.46859	6543.8125
2014.51848	6506.6125
2017.56639	6493.8125
2020.61233	6476.9125
2023.6563	6468.0125
2026.6983	6439.4125
2029.73833	6422.9125
2032.7764	6414.9125
2035.8125	6399.0125
2038.84664	6389.1125
2041.87881	6400.4125
2044.90903	6386.6125
2047.93729	6392.2125
2050.96359	6374.1125
2053.98794	6361.6125
2057.01034	6342.2125
2060.03078	6340.3125
2063.04927	6327.4125
2066.06582	6334.4125
2069.08042	6340.4125
2072.09307	6343.4125
2075.10378	6314.2125
2078.11255	6323.6125
2081.11938	6332.7125
2084.12426	6314.7125
2087.12722	6326.0125
2090.12824	6315.3125
2093.12732	6302.0125
2096.12447	6322.3125
2099.11969	6312.2125
2102.11299	6338.2125
2105.10435	6327.6125
2108.09379	6341.8125
2111.08131	6332.2125
2114.0669	6343.2125
2117.05057	6337.9125
2120.03233	6345.2125
2123.01216	6347.5125
2125.99008	6367.7125
2128.96609	6353.8125
2131.94018	6370.1125
2134.91236	6372.2125
2137.88263	6394.8125
2140.851	6387.6125
2143.81746	6380.6125
2146.78201	6382.6125
2149.74466	6404.4125
2152.7054	6403.4125
2155.66425	6406.9125
2158.6212	6392.3125
2161.57625	6368.8125
2164.52941	6392.7125
2167.48067	6385.4125
2170.43004	6385.5125
2173.37752	6379.5125
2176.32311	6399.9125
2179.26681	6384.3125
2182.20863	6389.7125
2185.14856	6390.8125
2188.08661	6379.7125
2191.02278	6391.7125
2193.95707	6374.8125
2196.88948	6392.5125
2199.82001	6389.0125
2202.74867	6363.7125
2205.67545	6360.4125
2208.60037	6361.1125
2211.52341	6343.9125
2214.44458	6334.4125
2217.36388	6313.8125
2220.28132	6327.1125
2223.1969	6278.8125
2226.11061	6289.8125
2229.02246	6282.2125
2231.93245	6272.9125
2234.84058	6248.9125
2237.74686	6252.3125
2240.65128	6246.3125
2243.55385	6253.9125
2246.45456	6244.3125
2249.35343	6235.6125
2252.25044	6223.7125
2255.14561	6219.9125
2258.03893	6227.8125
2260.93041	6203.2125
2263.82004	6200.5125
2266.70783	6177.4125
2269.59378	6152.5125
2272.4779	6159.3125
2275.36017	6137.1125
2278.24061	6113.9125
2281.11922	6111.2125
2283.996	6115.1125
2286.87094	6103.7125
2289.74405	6070.0125
2292.61534	6077.5125
2295.4848	6076.5125
2298.35243	6071.5125
2301.21824	6058.3125
2304.08223	6059.7125
2306.94439	6061.7125
2309.80474	6045.4125
2312.66327	6035.0125
2315.51999	6025.7125
2318.37489	6036.4125
2321.22797	6044.1125
2324.07925	6019.3125
2326.92871	6013.5125
2329.77637	6010.2125
2332.62222	5980.1125
2335.46626	5985.5125
2338.3085	5945.8125
2341.14893	5945.8125
2343.98756	5949.0125
2346.8244	5956.2125
2349.65943	5946.7125
2352.49267	5946.8125
2355.32411	5960.9125
2358.15376	5945.6125
2360.98161	5942.4125
2363.80768	5932.8125
2366.63195	5927.1125
2369.45444	5931.9125
2372.27514	5920.9125
2375.09405	5917.7125
2377.91118	5918.8125
2380.72652	5901.9125
2383.54009	5901.4125
2386.35187	5889.7125
2389.16188	5871.6125
2391.97011	5854.4125
2394.77657	5851.5125
2397.58125	5824.7125
2400.38416	5832.8125
2403.18529	5828.3125
2405.98466	5812.5125
2408.78226	5792.1125
2411.57809	5808.1125
2414.37216	5812.8125
2417.16446	5804.0125
2419.955	5784.4125
2422.74378	5790.1125
2425.5308	5774.6125
2428.31606	5767.4125
2431.09956	5751.1125
2433.88131	5764.7125
2436.6613	5751.5125
2439.43954	5750.9125
2442.21603	5750.0125
2444.99077	5763.5125
2447.76377	5745.6125
2450.53501	5717.1125
2453.30451	5716.8125
2456.07226	5711.1125
2458.83827	5723.3125
2461.60254	5722.2125
2464.36507	5702.3125
2467.12586	5700.0125
2469.88492	5695.6125
2472.64224	5692.8125
2475.39782	5691.5125
2478.15167	5693.6125
2480.90379	5679.4125
2483.65417	5690.3125
2486.40283	5682.4125
2489.14976	5706.7125
2491.89497	5680.5125
2494.63845	5670.8125
2497.3802	5686.5125
2500.12024	5665.2125
2502.85855	5676.6125
2505.59514	5660.1125
2508.33002	5648.3125
2511.06318	5653.6125
2513.79462	5622.2125
2516.52435	5622.4125
2519.25237	5629.8125
2521.97867	5599.9125
2524.70327	5599.6125
2527.42616	5586.7125
2530.14734	5607.6125
2532.86681	5590.9125
2535.58458	5588.3125
2538.30065	5553.5125
2541.01501	5564.8125
2543.72768	5550.3125
2546.43864	5557.1125
2549.14791	5529.8125
2551.85548	5536.9125
2554.56136	5522.2125
2557.26554	5506.2125
2559.96803	5506.8125
2562.66883	5496.4125
2565.36794	5496.3125
2568.06536	5474.1125
2570.7611	5462.1125
2573.45514	5450.6125
2576.14751	5464.2125
2578.83819	5424.9125
2581.52719	5433.2125
2584.21451	5420.2125
2586.90015	5418.1125
2589.58411	5408.6125
2592.2664	5414.2125
2594.94701	5407.8125
2597.62594	5391.2125
2600.30321	5374.8125
2602.9788	5363.5125
2605.65273	5350.1125
2608.32498	5348.6125
2610.99557	5347.0125
2613.66449	5350.7125
2616.33175	5322.8125
2618.99734	5327.3125
2621.66128	5323.8125
2624.32355	5323.0125
2626.98416	5291.3125
2629.64311	5303.9125
2632.30041	5303.8125
2634.95605	5285.6125
2637.61004	5274.8125
2640.26238	5273.5125
2642.91306	5268.9125
2645.56209	5275.7125
2648.20948	5267.5125
2650.85521	5256.6125
2653.4993	5269.5125
2656.14175	5261.3125
2658.78255	5269.5125
2661.42171	5254.0125
2664.05923	5266.9125
2666.6951	5284.0125
2669.32934	5272.4125
2671.96194	5283.9125
2674.59291	5267.8125
2677.22224	5286.7125
2679.84993	5265.5125
2682.476	5271.7125
2685.10043	5260.5125
2687.72324	5248.4125
2690.34441	5259.6125
2692.96396	5248.1125
2695.58188	5259.5125
2698.19818	5243.9125
2700.81285	5237.8125
2703.4259	5246.4125
2706.03733	5254.9125
2708.64714	5247.2125
2711.25533	5256.9125
2713.86191	5255.8125
2716.46687	5256.2125
2719.07021	5263.0125
2721.67194	5265.1125
2724.27206	5258.8125
2726.87057	5245.6125
2729.46747	5254.2125
2732.06276	5260.6125
2734.65644	5259.6125
2737.24852	5252.5125
2739.83899	5276.1125
2742.42786	5263.3125
2745.01513	5235.4125
2747.60079	5250.3125
2750.18486	5213.2125
2752.76733	5212.7125
2755.3482	5189.2125
2757.92747	5198.7125
2760.50515	5190.2125
2763.08123	5188.6125
2765.65573	5169.9125
2768.22863	5168.0125
2770.79994	5169.2125
2773.36967	5157.4125
2775.9378	5164.4125
2778.50435	5147.4125
2781.06932	5134.2125
2783.6327	5131.1125
2786.1945	5142.1125
2788.75471	5131.4125
2791.31335	5129.0125
2793.87041	5118.5125
2796.42589	5108.0125
2798.97979	5105.7125
2801.53212	5082.0125
2804.08288	5070.3125
2806.63206	5069.5125
2809.17967	5070.1125
2811.72571	5053.0125
2814.27018	5048.6125
2816.81308	5029.9125
2819.35442	5025.2125
2821.89419	5016.2125
2824.43239	4998.9125
2826.96904	4994.2125
2829.50412	5002.7125
2832.03763	4973.2125
2834.56959	4971.8125
2837.1	4989.9125
2839.62884	4965.4125
2842.15613	4962.3125
2844.68186	4973.5125
2847.20604	4958.9125
2849.72867	4957.8125
2852.24974	4949.3125
2854.76927	4952.8125
2857.28724	4952.3125
2859.80367	4948.3125
2862.31855	4943.4125
2864.83189	4940.0125
2867.34368	4914.2125
2869.85393	4914.3125
2872.36264	4932.8125
2874.8698	4917.7125
2877.37543	4926.3125
2879.87952	4922.0125
2882.38207	4908.4125
2884.88308	4923.0125
2887.38256	4913.4125
2889.88051	4915.0125
2892.37692	4911.9125
2894.8718	4910.0125
2897.36515	4918.3125
2899.85698	4902.7125
2902.34727	4929.8125
2904.83604	4943.1125
2907.32328	4940.8125
2909.809	4942.8125
2912.29319	4935.0125
2914.77587	4923.4125
2917.25702	4934.6125
2919.73665	4920.7125
2922.21476	4941.2125
2924.69136	4918.7125
2927.16644	4914.6125
2929.64	4928.9125
2932.11205	4926.4125
2934.58258	4901.7125
2937.05161	4912.6125
2939.51912	4913.7125
2941.98513	4911.9125
2944.44962	4900.3125
2946.91261	4898.0125
2949.37409	4887.0125
2951.83407	4900.3125
2954.29254	4897.6125
2956.74951	4905.4125
2959.20498	4904.1125
2961.65895	4888.5125
2964.11142	4908.5125
2966.56239	4886.4125
2969.01186	4900.3125
2971.45984	4882.2125
2973.90632	4890.8125
2976.35131	4893.8125
2978.7948	4882.7125
2981.23681	4888.5125
2983.67732	4883.6125
2986.11635	4875.7125
2988.55388	4861.2125
2990.98993	4866.2125
2993.4245	4834.7125
2995.85758	4826.2125
2998.28917	4828.7125
3000.71928	4821.9125
3003.14791	4812.3125
3005.57506	4813.7125
3008.00073	4802.6125
3010.42493	4789.4125
3012.84764	4774.3125
3015.26888	4795.0125
3017.68865	4767.8125
3020.10694	4774.4125
3022.52376	4761.5125
3024.9391	4768.0125
3027.35298	4764.7125
3029.76539	4760.9125
3032.17632	4751.4125
3034.5858	4738.6125
3036.9938	4761.0125
3039.40034	4737.7125
3041.80542	4745.7125
3044.20903	4739.2125
3046.61118	4732.5125
3049.01187	4727.7125
3051.4111	4727.2125
3053.80888	4731.0125
3056.20519	4720.2125
3058.60005	4705.7125
3060.99345	4705.4125
3063.3854	4701.3125
3065.7759	4708.2125
3068.16494	4689.0125
3070.55254	4679.3125
3072.93868	4684.9125
3075.32338	4676.5125
3077.70662	4660.7125
3080.08842	4644.7125
3082.46878	4680.2125
3084.84769	4655.5125
3087.22515	4662.5125
3089.60118	4670.7125
3091.97576	4669.7125
3094.3489	4668.8125
3096.72061	4684.5125
3099.09087	4697.3125
3101.4597	4684.9125
3103.82709	4700.1125
3106.19305	4691.5125
3108.55757	4705.8125
3110.92066	4697.3125
3113.28232	4698.7125
3115.64255	4692.6125
3118.00134	4683.1125
3120.35871	4697.0125
3122.71466	4683.1125
3125.06917	4658.3125
