Data from AgNPs_UA_100uM_CRN_0uM_R6G_10uM_Q_RamanShift__30__13-47-25-348.txt Node

Date: Tue Jul 26 13:47:25 BST 2022
User: TCL
Spectrometer: QEP01345
Trigger mode: 4
Integration Time (sec): 7.000000E0
Scans to average: 10
Electric dark correction enabled: true
Nonlinearity correction enabled: false
Boxcar width: 0
XAxis mode: Raman Shifts
Number of Pixels in Spectrum: 1044
>>>>>Begin Spectral Data<<<<<
46.04893	-0.3125
50.45542	0.9875
54.85868	-0.2125
59.25871	-2.1125
63.6555	52.5875
68.04907	56.0875
72.43941	58.2875
76.82654	66.1875
81.21044	68.0875
85.59113	71.8875
89.96862	74.7875
94.34289	79.2875
98.71396	77.8875
103.08183	81.4875
107.4465	78.4875
111.80798	79.4875
116.16626	82.6875
120.52136	80.5875
124.87327	82.5875
129.222	89.4875
133.56755	92.3875
137.90993	93.9875
142.24913	95.7875
146.58517	100.6875
150.91804	107.8875
155.24774	123.8875
159.57429	144.2875
163.89768	171.3875
168.21792	216.6875
172.53501	282.4875
176.84895	383.3875
181.15975	527.0875
185.46741	724.6875
189.77193	981.9875
194.07331	1326.1875
198.37157	1692.3875
202.6667	2093.4875
206.9587	2500.9875
211.24758	2889.3875
215.53334	3318.6875
219.81599	3784.2875
224.09553	4326.2875
228.37195	4933.3875
232.64527	5572.9875
236.91549	6170.7875
241.18261	6704.1875
245.44663	7168.4875
249.70755	7501.5875
253.96539	7801.0875
258.22014	8036.1875
262.4718	8268.6875
266.72039	8399.5875
270.96589	8429.2875
275.20832	8298.6875
279.44768	8126.1875
283.68397	7956.6875
287.91719	7854.5875
292.14735	7881.4875
296.37445	8117.7875
300.59849	8500.0875
304.81948	8937.0875
309.03742	9237.2875
313.25231	9237.8875
317.46415	8851.9875
321.67296	8197.6875
325.87872	7695.5875
330.08145	7473.1875
334.28114	7521.1875
338.47781	7676.9875
342.67145	7911.8875
346.86207	8258.4875
351.04966	8796.7875
355.23424	9394.0875
359.4158	9848.0875
363.59435	10016.9875
367.76989	10091.7875
371.94243	10045.6875
376.11196	9977.9875
380.27849	9916.8875
384.44203	9826.2875
388.60257	9724.6875
392.76012	9642.5875
396.91468	9728.4875
401.06626	9883.7875
405.21485	10043.3875
409.36047	9798.5875
413.50311	9319.3875
417.64277	8865.1875
421.77947	8619.4875
425.9132	8480.2875
430.04396	8484.9875
434.17176	8545.6875
438.2966	8697.5875
442.41849	8908.3875
446.53742	9143.1875
450.6534	9344.2875
454.76644	9472.4875
458.87653	9483.1875
462.98368	9404.1875
467.08789	9276.0875
471.18916	9101.7875
475.2875	8904.4875
479.38291	8762.6875
483.4754	8656.7875
487.56496	8617.7875
491.6516	8578.4875
495.73531	8586.2875
499.81612	8595.6875
503.89401	8705.1875
507.96899	8795.7875
512.04106	8963.9875
516.11023	9175.4875
520.1765	9334.0875
524.23987	9361.7875
528.30034	9281.5875
532.35792	9186.2875
536.41261	9055.3875
540.46441	8906.2875
544.51333	8825.0875
548.55936	8872.7875
552.60252	9004.9875
556.64279	9173.1875
560.6802	9284.5875
564.71473	9462.7875
568.7464	9814.8875
572.7752	9856.5875
576.80114	9454.6875
580.82422	9114.8875
584.84444	8985.3875
588.86181	9043.0875
592.87633	9131.7875
596.888	9357.7875
600.89682	9785.1875
604.9028	11118.4875
608.90594	14352.9875
612.90624	17829.2875
616.90371	16542.4875
620.89834	12044.7875
624.89015	10162.6875
628.87913	9927.9875
632.86528	10103.3875
636.84862	10199.2875
640.82913	9979.4875
644.80683	9493.9875
648.78172	9189.4875
652.75379	9221.2875
656.72306	9537.1875
660.68952	9894.6875
664.65319	9694.4875
668.61405	9276.1875
672.57211	9099.7875
676.52738	9068.7875
680.47986	9044.8875
684.42955	9031.3875
688.37646	8999.4875
692.32058	9063.4875
696.26192	9110.8875
700.20048	9238.8875
704.13626	9282.9875
708.06928	9230.3875
711.99952	9173.5875
715.927	9186.1875
719.85171	9291.6875
723.77365	9320.4875
727.69284	9275.2875
731.60928	9266.3875
735.52295	9260.2875
739.43388	9292.1875
743.34206	9332.0875
747.24749	9365.8875
751.15017	9399.7875
755.05012	9552.8875
758.94733	10026.5875
762.8418	11166.6875
766.73354	12835.5875
770.62254	14334.6875
774.50882	15034.0875
778.39237	14334.7875
782.27321	12594.2875
786.15132	10943.6875
790.02671	10026.3875
793.89938	9651.0875
797.76935	9481.5875
801.6366	9467.2875
805.50115	9470.2875
809.36299	9478.7875
813.22213	9479.0875
817.07857	9454.9875
820.93231	9442.1875
824.78336	9446.6875
828.63172	9478.8875
832.47738	9483.5875
836.32036	9457.6875
840.16066	9433.1875
843.99827	9440.3875
847.8332	9423.9875
851.66546	9389.3875
855.49504	9398.9875
859.32195	9415.4875
863.1462	9390.5875
866.96777	9360.3875
870.78668	9353.6875
874.60293	9422.7875
878.41652	9496.4875
882.22745	9587.5875
886.03573	9661.7875
889.84136	9667.5875
893.64433	9642.4875
897.44466	9588.7875
901.24235	9563.5875
905.0374	9523.5875
908.8298	9420.2875
912.61957	9388.8875
916.40671	9408.9875
920.19121	9448.2875
923.97308	9543.3875
927.75233	9690.9875
931.52895	9832.4875
935.30295	9742.3875
939.07433	9511.2875
942.84309	9358.9875
946.60924	9254.6875
950.37278	9205.5875
954.13371	9147.3875
957.89203	9158.9875
961.64774	9109.9875
965.40086	9098.3875
969.15137	9053.6875
972.89929	9038.6875
976.64461	9037.9875
980.38733	9077.2875
984.12747	9083.5875
987.86502	9162.0875
991.59999	9267.4875
995.33237	9384.2875
999.06217	9634.6875
1002.78939	9915.0875
1006.51404	10082.6875
1010.23611	10216.3875
1013.95561	10296.7875
1017.67255	10316.6875
1021.38692	10271.8875
1025.09872	10244.3875
1028.80796	10313.2875
1032.51465	10561.7875
1036.21877	10737.6875
1039.92035	10707.8875
1043.61937	10585.7875
1047.31584	10418.1875
1051.00976	10182.8875
1054.70114	10027.8875
1058.38998	10002.3875
1062.07627	10012.1875
1065.76003	10035.8875
1069.44126	10040.3875
1073.11995	10097.4875
1076.79611	10208.9875
1080.46974	10391.5875
1084.14085	10644.0875
1087.80943	10862.3875
1091.47549	10886.1875
1095.13903	10655.9875
1098.80005	10397.0875
1102.45857	10221.7875
1106.11456	10213.4875
1109.76805	10362.2875
1113.41903	10653.2875
1117.06751	11082.1875
1120.71348	11602.6875
1124.35696	12147.0875
1127.99793	12431.1875
1131.63641	12173.3875
1135.2724	11639.6875
1138.90589	11180.6875
1142.5369	10915.8875
1146.16542	10616.9875
1149.79145	10439.0875
1153.415	10352.4875
1157.03607	10370.3875
1160.65467	10502.5875
1164.27079	10774.9875
1167.88443	11197.0875
1171.49561	11878.5875
1175.10432	13045.4875
1178.71056	14606.4875
1182.31434	15901.2875
1185.91565	16203.2875
1189.51451	15743.6875
1193.11091	14780.7875
1196.70485	13810.1875
1200.29634	13117.8875
1203.88538	12625.8875
1207.47197	12074.5875
1211.05612	11568.7875
1214.63782	11240.3875
1218.21708	11124.8875
1221.79391	11082.4875
1225.36829	11146.0875
1228.94024	11103.3875
1232.50976	11086.6875
1236.07685	11014.5875
1239.6415	11053.3875
1243.20374	11132.2875
1246.76355	11224.7875
1250.32093	11379.1875
1253.8759	11568.4875
1257.42845	11847.6875
1260.97859	12202.9875
1264.52631	12457.2875
1268.07163	12715.1875
1271.61453	12942.3875
1275.15503	13162.7875
1278.69312	13328.0875
1282.22882	13508.5875
1285.76211	13793.3875
1289.29301	14153.8875
1292.82151	14502.6875
1296.34761	14956.8875
1299.87133	15792.4875
1303.39266	17202.2875
1306.9116	19265.8875
1310.42815	21242.4875
1313.94233	21716.4875
1317.45412	20477.1875
1320.96354	18574.2875
1324.47058	16870.8875
1327.97525	15539.5875
1331.47754	14814.3875
1334.97747	14633.0875
1338.47502	14924.5875
1341.97022	15556.4875
1345.46305	16450.4875
1348.95352	17600.8875
1352.44163	18922.1875
1355.92738	20976.7875
1359.41078	24156.7875
1362.89183	26531.3875
1366.37053	24822.3875
1369.84688	20585.9875
1373.32088	17149.6875
1376.79254	15200.8875
1380.26186	14119.9875
1383.72883	13454.8875
1387.19347	12988.7875
1390.65578	12521.7875
1394.11575	12210.5875
1397.57339	12026.3875
1401.0287	12003.8875
1404.48168	12058.7875
1407.93234	12163.4875
1411.38068	12381.7875
1414.82669	12551.0875
1418.27039	12596.3875
1421.71177	12465.5875
1425.15083	12318.9875
1428.58758	12306.5875
1432.02203	12472.8875
1435.45416	12519.5875
1438.88399	12437.0875
1442.31151	12355.0875
1445.73673	12364.8875
1449.15965	12387.7875
1452.58027	12297.3875
1455.9986	12175.5875
1459.41463	12107.7875
1462.82837	12203.5875
1466.23982	12403.0875
1469.64898	12631.2875
1473.05586	12823.8875
1476.46045	12938.4875
1479.86276	13127.5875
1483.26279	13426.5875
1486.66054	13816.4875
1490.05602	14349.1875
1493.44922	15108.6875
1496.84016	16305.4875
1500.22882	18118.2875
1503.61521	20620.5875
1506.99934	23392.7875
1510.38121	25145.8875
1513.76081	24877.6875
1517.13816	22493.2875
1520.51324	19313.4875
1523.88607	16764.4875
1527.25665	15274.0875
1530.62498	14429.9875
1533.99105	13980.1875
1537.35488	13706.6875
1540.71647	13615.2875
1544.07581	13593.6875
1547.4329	13670.9875
1550.78776	13729.2875
1554.14038	13804.5875
1557.49077	13908.3875
1560.83892	14092.8875
1564.18484	14387.1875
1567.52853	14760.0875
1570.86999	15007.8875
1574.20922	15149.4875
1577.54624	14941.7875
1580.88103	14294.3875
1584.2136	13499.4875
1587.54395	13129.2875
1590.87208	13306.6875
1594.19801	13988.3875
1597.52172	14914.1875
1600.84321	15321.0875
1604.16251	14980.0875
1607.47959	14275.0875
1610.79447	13437.4875
1614.10715	12680.3875
1617.41763	12057.5875
1620.7259	11675.3875
1624.03199	11514.8875
1627.33587	11548.1875
1630.63757	11803.2875
1633.93707	12281.6875
1637.23439	13032.1875
1640.52951	14132.3875
1643.82246	15624.7875
1647.11321	17287.1875
1650.40179	18190.2875
1653.68819	17368.5875
1656.97241	15227.3875
1660.25446	13161.4875
1663.53433	11824.6875
1666.81203	11032.5875
1670.08756	10549.1875
1673.36092	10280.9875
1676.63211	10091.4875
1679.90115	9962.7875
1683.16801	9866.8875
1686.43272	9761.6875
1689.69527	9715.7875
1692.95567	9664.5875
1696.2139	9640.1875
1699.46999	9615.0875
1702.72392	9584.2875
1705.97571	9594.1875
1709.22535	9597.2875
1712.47284	9569.5875
1715.71819	9575.5875
1718.96139	9546.6875
1722.20246	9502.4875
1725.44139	9482.2875
1728.67818	9440.2875
1731.91284	9416.4875
1735.14537	9362.4875
1738.37576	9338.1875
1741.60403	9292.0875
1744.83017	9291.0875
1748.05418	9280.5875
1751.27607	9250.7875
1754.49584	9243.0875
1757.71349	9230.5875
1760.92903	9208.0875
1764.14244	9199.2875
1767.35375	9203.4875
1770.56294	9181.0875
1773.77002	9176.9875
1776.97499	9167.2875
1780.17785	9154.0875
1783.37861	9158.1875
1786.57727	9123.7875
1789.77382	9137.9875
1792.96828	9139.9875
1796.16064	9113.4875
1799.3509	9109.3875
1802.53907	9130.4875
1805.72514	9085.4875
1808.90913	9043.1875
1812.09102	9061.9875
1815.27083	9021.2875
1818.44856	9028.6875
1821.6242	9006.3875
1824.79776	9007.3875
1827.96924	8974.6875
1831.13864	8981.5875
1834.30597	8945.5875
1837.47122	8970.1875
1840.6344	8943.5875
1843.7955	8961.1875
1846.95454	8955.0875
1850.11151	8922.9875
1853.26642	8923.9875
1856.41926	8928.4875
1859.57004	8937.7875
1862.71876	8946.4875
1865.86542	8949.0875
1869.01003	8943.9875
1872.15258	8931.9875
1875.29308	8949.7875
1878.43152	8942.6875
1881.56792	8962.1875
1884.70227	8950.2875
1887.83457	8913.1875
1890.96482	8923.4875
1894.09304	8903.7875
1897.21921	8911.5875
1900.34335	8883.5875
1903.46544	8903.2875
1906.58551	8912.9875
1909.70353	8884.2875
1912.81953	8909.7875
1915.93349	8892.1875
1919.04543	8858.1875
1922.15534	8877.7875
1925.26322	8869.1875
1928.36908	8887.9875
1931.47292	8855.6875
1934.57473	8825.2875
1937.67453	8818.8875
1940.77232	8819.1875
1943.86808	8784.3875
1946.96184	8731.8875
1950.05358	8718.8875
1953.14331	8740.6875
1956.23103	8683.2875
1959.31675	8658.4875
1962.40046	8664.5875
1965.48217	8632.2875
1968.56188	8598.0875
1971.63959	8597.6875
1974.7153	8566.9875
1977.78901	8565.3875
1980.86073	8512.4875
1983.93046	8486.2875
1986.99819	8476.5875
1990.06394	8466.2875
1993.1277	8430.5875
1996.18947	8408.0875
1999.24925	8381.2875
2002.30706	8362.7875
2005.36288	8331.6875
2008.41672	8325.9875
2011.46859	8286.4875
2014.51848	8277.6875
2017.56639	8275.4875
2020.61233	8247.6875
2023.6563	8251.0875
2026.6983	8221.2875
2029.73833	8193.2875
2032.7764	8199.2875
2035.8125	8171.6875
2038.84664	8149.1875
2041.87881	8178.7875
2044.90903	8155.7875
2047.93729	8154.9875
2050.96359	8136.8875
2053.98794	8147.4875
2057.01034	8141.8875
2060.03078	8149.7875
2063.04927	8102.5875
2066.06582	8115.3875
2069.08042	8106.4875
2072.09307	8099.6875
2075.10378	8089.2875
2078.11255	8088.5875
2081.11938	8105.5875
2084.12426	8081.9875
2087.12722	8084.4875
2090.12824	8079.6875
2093.12732	8075.3875
2096.12447	8088.0875
2099.11969	8076.2875
2102.11299	8098.2875
2105.10435	8096.8875
2108.09379	8111.6875
2111.08131	8142.4875
2114.0669	8113.2875
2117.05057	8121.8875
2120.03233	8159.8875
2123.01216	8157.7875
2125.99008	8166.2875
2128.96609	8174.4875
2131.94018	8183.7875
2134.91236	8187.7875
2137.88263	8192.2875
2140.851	8207.7875
2143.81746	8227.7875
2146.78201	8202.6875
2149.74466	8214.4875
2152.7054	8227.7875
2155.66425	8228.6875
2158.6212	8221.2875
2161.57625	8207.8875
2164.52941	8218.4875
2167.48067	8206.4875
2170.43004	8179.8875
2173.37752	8192.6875
2176.32311	8217.0875
2179.26681	8232.7875
2182.20863	8220.1875
2185.14856	8210.7875
2188.08661	8232.2875
2191.02278	8241.3875
2193.95707	8215.9875
2196.88948	8224.0875
2199.82001	8221.8875
2202.74867	8224.0875
2205.67545	8220.6875
2208.60037	8221.9875
2211.52341	8202.5875
2214.44458	8211.2875
2217.36388	8196.2875
2220.28132	8157.5875
2223.1969	8164.7875
2226.11061	8167.3875
2229.02246	8127.3875
2231.93245	8124.5875
2234.84058	8124.5875
2237.74686	8087.6875
2240.65128	8081.6875
2243.55385	8071.5875
2246.45456	8083.0875
2249.35343	8070.2875
2252.25044	8070.7875
2255.14561	8065.6875
2258.03893	8052.2875
2260.93041	8071.3875
2263.82004	8052.9875
2266.70783	8048.8875
2269.59378	8046.4875
2272.4779	8004.5875
2275.36017	7995.4875
2278.24061	7982.0875
2281.11922	7966.6875
2283.996	7963.6875
2286.87094	7924.3875
2289.74405	7922.1875
2292.61534	7935.8875
2295.4848	7910.2875
2298.35243	7925.8875
2301.21824	7908.0875
2304.08223	7912.6875
2306.94439	7924.5875
2309.80474	7927.5875
2312.66327	7944.1875
2315.51999	7939.8875
2318.37489	7924.5875
2321.22797	7913.9875
2324.07925	7926.8875
2326.92871	7904.3875
2329.77637	7900.8875
2332.62222	7911.9875
2335.46626	7912.3875
2338.3085	7886.1875
2341.14893	7877.3875
2343.98756	7872.4875
2346.8244	7898.1875
2349.65943	7897.5875
2352.49267	7899.6875
2355.32411	7887.5875
2358.15376	7889.9875
2360.98161	7889.1875
2363.80768	7866.1875
2366.63195	7885.0875
2369.45444	7885.3875
2372.27514	7880.2875
2375.09405	7868.9875
2377.91118	7845.5875
2380.72652	7826.5875
2383.54009	7792.8875
2386.35187	7784.5875
2389.16188	7747.6875
2391.97011	7754.4875
2394.77657	7723.0875
2397.58125	7726.0875
2400.38416	7697.5875
2403.18529	7694.2875
2405.98466	7705.1875
2408.78226	7654.8875
2411.57809	7666.5875
2414.37216	7670.3875
2417.16446	7649.3875
2419.955	7627.4875
2422.74378	7619.7875
2425.5308	7648.0875
2428.31606	7623.9875
2431.09956	7649.2875
2433.88131	7633.8875
2436.6613	7638.0875
2439.43954	7622.8875
2442.21603	7617.5875
2444.99077	7629.0875
2447.76377	7622.9875
2450.53501	7628.3875
2453.30451	7604.6875
2456.07226	7586.0875
2458.83827	7591.6875
2461.60254	7588.8875
2464.36507	7585.4875
2467.12586	7603.3875
2469.88492	7562.7875
2472.64224	7583.5875
2475.39782	7585.6875
2478.15167	7609.2875
2480.90379	7595.7875
2483.65417	7596.2875
2486.40283	7629.9875
2489.14976	7634.6875
2491.89497	7626.2875
2494.63845	7613.7875
2497.3802	7612.4875
2500.12024	7613.9875
2502.85855	7597.5875
2505.59514	7593.4875
2508.33002	7569.8875
2511.06318	7558.0875
2513.79462	7528.4875
2516.52435	7516.3875
2519.25237	7526.3875
2521.97867	7513.1875
2524.70327	7508.6875
2527.42616	7499.3875
2530.14734	7486.9875
2532.86681	7486.3875
2535.58458	7476.5875
2538.30065	7482.5875
2541.01501	7477.2875
2543.72768	7477.1875
2546.43864	7455.1875
2549.14791	7444.2875
2551.85548	7452.3875
2554.56136	7443.0875
2557.26554	7452.9875
2559.96803	7439.6875
2562.66883	7421.0875
2565.36794	7401.2875
2568.06536	7394.3875
2570.7611	7384.4875
2573.45514	7376.5875
2576.14751	7391.5875
2578.83819	7401.1875
2581.52719	7365.9875
2584.21451	7378.3875
2586.90015	7368.5875
2589.58411	7340.9875
2592.2664	7344.8875
2594.94701	7345.3875
2597.62594	7330.4875
2600.30321	7323.3875
2602.9788	7324.5875
2605.65273	7312.8875
2608.32498	7334.2875
2610.99557	7324.6875
2613.66449	7328.0875
2616.33175	7329.7875
2618.99734	7309.4875
2621.66128	7309.9875
2624.32355	7305.9875
2626.98416	7304.3875
2629.64311	7317.3875
2632.30041	7305.5875
2634.95605	7311.7875
2637.61004	7283.7875
2640.26238	7279.8875
2642.91306	7254.3875
2645.56209	7251.1875
2648.20948	7244.7875
2650.85521	7240.4875
2653.4993	7233.9875
2656.14175	7240.2875
2658.78255	7230.0875
2661.42171	7229.9875
2664.05923	7243.3875
2666.6951	7250.7875
2669.32934	7278.4875
2671.96194	7268.6875
2674.59291	7283.5875
2677.22224	7246.5875
2679.84993	7277.9875
2682.476	7266.4875
2685.10043	7262.7875
2687.72324	7264.6875
2690.34441	7256.3875
2692.96396	7256.8875
2695.58188	7285.2875
2698.19818	7227.1875
2700.81285	7240.7875
2703.4259	7236.9875
2706.03733	7241.6875
2708.64714	7252.2875
2711.25533	7251.4875
2713.86191	7247.0875
2716.46687	7263.1875
2719.07021	7278.2875
2721.67194	7271.0875
2724.27206	7253.7875
2726.87057	7272.0875
2729.46747	7276.3875
2732.06276	7264.2875
2734.65644	7280.1875
2737.24852	7270.3875
2739.83899	7249.1875
2742.42786	7269.4875
2745.01513	7233.8875
2747.60079	7238.1875
2750.18486	7216.9875
2752.76733	7223.8875
2755.3482	7216.5875
2757.92747	7212.2875
2760.50515	7216.2875
2763.08123	7195.9875
2765.65573	7192.6875
2768.22863	7197.0875
2770.79994	7207.6875
2773.36967	7179.3875
2775.9378	7157.6875
2778.50435	7191.1875
2781.06932	7189.8875
2783.6327	7153.9875
2786.1945	7165.8875
2788.75471	7170.8875
2791.31335	7150.9875
2793.87041	7134.5875
2796.42589	7143.8875
2798.97979	7123.3875
2801.53212	7120.1875
2804.08288	7108.0875
2806.63206	7094.6875
2809.17967	7099.1875
2811.72571	7096.4875
2814.27018	7075.3875
2816.81308	7055.1875
2819.35442	7057.1875
2821.89419	7046.1875
2824.43239	7081.0875
2826.96904	7060.3875
2829.50412	7042.7875
2832.03763	7028.1875
2834.56959	7034.0875
2837.1	7029.7875
2839.62884	7045.1875
2842.15613	7014.3875
2844.68186	7023.9875
2847.20604	7016.8875
2849.72867	7011.6875
2852.24974	6996.9875
2854.76927	6984.3875
2857.28724	6984.1875
2859.80367	7004.0875
2862.31855	7007.3875
2864.83189	6996.5875
2867.34368	6991.3875
2869.85393	6978.5875
2872.36264	6974.8875
2874.8698	6967.8875
2877.37543	6987.0875
2879.87952	6983.8875
2882.38207	6983.4875
2884.88308	6995.8875
2887.38256	7002.1875
2889.88051	6985.9875
2892.37692	6989.7875
2894.8718	6987.0875
2897.36515	7000.0875
2899.85698	6988.6875
2902.34727	6996.6875
2904.83604	7017.0875
2907.32328	7048.6875
2909.809	7020.3875
2912.29319	7025.8875
2914.77587	7011.5875
2917.25702	7013.2875
2919.73665	7003.2875
2922.21476	6998.7875
2924.69136	7006.8875
2927.16644	7005.7875
2929.64	7017.0875
2932.11205	6967.9875
2934.58258	6951.2875
2937.05161	6971.1875
2939.51912	6971.0875
2941.98513	6984.1875
2944.44962	6956.3875
2946.91261	6957.5875
2949.37409	7011.1875
2951.83407	6959.0875
2954.29254	6963.5875
2956.74951	6953.8875
2959.20498	6961.3875
2961.65895	6962.2875
2964.11142	6958.1875
2966.56239	6938.1875
2969.01186	6955.0875
2971.45984	6950.9875
2973.90632	6965.7875
2976.35131	6928.2875
2978.7948	6921.4875
2981.23681	6907.1875
2983.67732	6919.8875
2986.11635	6890.8875
2988.55388	6892.2875
2990.98993	6872.2875
2993.4245	6863.4875
2995.85758	6853.9875
2998.28917	6843.1875
3000.71928	6828.7875
3003.14791	6828.4875
3005.57506	6841.6875
3008.00073	6829.2875
3010.42493	6804.1875
3012.84764	6799.4875
3015.26888	6799.0875
3017.68865	6772.4875
3020.10694	6770.5875
3022.52376	6779.4875
3024.9391	6747.5875
3027.35298	6753.9875
3029.76539	6773.9875
3032.17632	6757.1875
3034.5858	6731.8875
3036.9938	6738.6875
3039.40034	6736.1875
3041.80542	6738.1875
3044.20903	6712.6875
3046.61118	6730.2875
3049.01187	6719.4875
3051.4111	6712.0875
3053.80888	6686.7875
3056.20519	6674.1875
3058.60005	6657.2875
3060.99345	6655.3875
3063.3854	6658.7875
3065.7759	6636.7875
3068.16494	6625.4875
3070.55254	6617.4875
3072.93868	6610.8875
3075.32338	6592.6875
3077.70662	6585.4875
3080.08842	6557.9875
3082.46878	6569.4875
3084.84769	6571.3875
3087.22515	6565.3875
3089.60118	6556.5875
3091.97576	6571.7875
3094.3489	6584.4875
3096.72061	6581.5875
3099.09087	6578.3875
3101.4597	6583.6875
3103.82709	6584.5875
