Data from AgNPs_UA_100uM_CRN_0uM_R6G_10uM_Q_RamanShift__20__13-35-45-334.txt Node

Date: Tue Jul 26 13:35:45 BST 2022
User: TCL
Spectrometer: QEP01345
Trigger mode: 4
Integration Time (sec): 7.000000E0
Scans to average: 10
Electric dark correction enabled: true
Nonlinearity correction enabled: false
Boxcar width: 0
XAxis mode: Raman Shifts
Number of Pixels in Spectrum: 1044
>>>>>Begin Spectral Data<<<<<
46.04893	0.075
50.45542	1.175
54.85868	-0.025
59.25871	-1.325
63.6555	54.675
68.04907	58.475
72.43941	62.775
76.82654	69.875
81.21044	68.775
85.59113	69.875
89.96862	78.775
94.34289	78.275
98.71396	83.775
103.08183	82.175
107.4465	81.875
111.80798	85.275
116.16626	84.275
120.52136	87.975
124.87327	88.275
129.222	93.575
133.56755	97.275
137.90993	98.775
142.24913	101.175
146.58517	105.475
150.91804	116.475
155.24774	134.075
159.57429	159.175
163.89768	190.075
168.21792	246.675
172.53501	320.375
176.84895	426.775
181.15975	601.675
185.46741	831.575
189.77193	1133.275
194.07331	1505.775
198.37157	1930.375
202.6667	2365.475
206.9587	2799.475
211.24758	3242.375
215.53334	3682.275
219.81599	4144.375
224.09553	4646.975
228.37195	5228.275
232.64527	5865.175
236.91549	6522.375
241.18261	7154.875
245.44663	7755.875
249.70755	8262.075
253.96539	8723.075
258.22014	9082.575
262.4718	9371.475
266.72039	9571.575
270.96589	9662.675
275.20832	9622.375
279.44768	9518.675
283.68397	9355.775
287.91719	9249.975
292.14735	9164.875
296.37445	9188.875
300.59849	9273.075
304.81948	9367.175
309.03742	9417.375
313.25231	9395.675
317.46415	9244.075
321.67296	9013.675
325.87872	8827.375
330.08145	8790.975
334.28114	8824.875
338.47781	8918.375
342.67145	9066.875
346.86207	9267.975
351.04966	9518.575
355.23424	9802.375
359.4158	10005.275
363.59435	10192.375
367.76989	10328.175
371.94243	10417.875
376.11196	10493.275
380.27849	10574.475
384.44203	10605.775
388.60257	10648.775
392.76012	10717.975
396.91468	10777.375
401.06626	10917.675
405.21485	11020.675
409.36047	10988.475
413.50311	10851.175
417.64277	10633.075
421.77947	10547.975
425.9132	10509.675
430.04396	10527.375
434.17176	10620.975
438.2966	10730.175
442.41849	10911.475
446.53742	11134.075
450.6534	11334.475
454.76644	11464.475
458.87653	11567.275
462.98368	11568.875
467.08789	11486.075
471.18916	11394.275
475.2875	11266.775
479.38291	11135.875
483.4754	11070.175
487.56496	10992.775
491.6516	10959.375
495.73531	10961.275
499.81612	10990.475
503.89401	11029.775
507.96899	11096.175
512.04106	11158.375
516.11023	11180.375
520.1765	11274.075
524.23987	11284.175
528.30034	11299.375
532.35792	11240.375
536.41261	11208.075
540.46441	11112.975
544.51333	11097.575
548.55936	11114.975
552.60252	11213.775
556.64279	11333.075
560.6802	11426.175
564.71473	11505.875
568.7464	11610.575
572.7752	11645.375
576.80114	11619.375
580.82422	11613.175
584.84444	11665.875
588.86181	11785.275
592.87633	11911.275
596.888	12074.675
600.89682	12266.475
604.9028	12955.675
608.90594	14487.575
612.90624	15993.575
616.90371	15141.775
620.89834	12897.375
624.89015	11994.575
628.87913	11945.875
632.86528	12027.775
636.84862	12100.775
640.82913	11982.275
644.80683	11684.075
648.78172	11477.375
652.75379	11501.575
656.72306	11677.075
660.68952	11890.575
664.65319	11826.175
668.61405	11706.575
672.57211	11699.175
676.52738	11756.075
680.47986	11713.075
684.42955	11636.575
688.37646	11624.875
692.32058	11711.675
696.26192	11771.975
700.20048	11833.075
704.13626	11867.575
708.06928	11825.475
711.99952	11738.575
715.927	11729.075
719.85171	11765.175
723.77365	11781.875
727.69284	11759.875
731.60928	11684.775
735.52295	11689.675
739.43388	11720.475
743.34206	11736.275
747.24749	11767.775
751.15017	11774.275
755.05012	11861.275
758.94733	12086.275
762.8418	12590.775
766.73354	13426.275
770.62254	14331.975
774.50882	14735.275
778.39237	14456.875
782.27321	13559.075
786.15132	12733.075
790.02671	12204.675
793.89938	11971.075
797.76935	11839.075
801.6366	11807.675
805.50115	11783.175
809.36299	11764.675
813.22213	11718.275
817.07857	11715.475
820.93231	11673.575
824.78336	11682.675
828.63172	11671.975
832.47738	11689.475
836.32036	11689.175
840.16066	11719.575
843.99827	11721.075
847.8332	11726.875
851.66546	11706.675
855.49504	11719.875
859.32195	11717.875
863.1462	11728.475
866.96777	11720.575
870.78668	11733.875
874.60293	11752.675
878.41652	11773.775
882.22745	11849.775
886.03573	11895.675
889.84136	11922.975
893.64433	11878.075
897.44466	11834.575
901.24235	11775.075
905.0374	11731.175
908.8298	11694.975
912.61957	11674.875
916.40671	11681.575
920.19121	11756.775
923.97308	11817.375
927.75233	11876.375
931.52895	11946.775
935.30295	11875.175
939.07433	11767.275
942.84309	11643.375
946.60924	11635.075
950.37278	11597.175
954.13371	11576.775
957.89203	11534.375
961.64774	11521.475
965.40086	11485.975
969.15137	11487.275
972.89929	11451.475
976.64461	11482.075
980.38733	11471.975
984.12747	11506.075
987.86502	11593.675
991.59999	11714.775
995.33237	11861.975
999.06217	12044.675
1002.78939	12250.275
1006.51404	12427.675
1010.23611	12525.075
1013.95561	12609.475
1017.67255	12652.275
1021.38692	12605.675
1025.09872	12556.375
1028.80796	12581.675
1032.51465	12762.675
1036.21877	12893.375
1039.92035	12870.075
1043.61937	12745.575
1047.31584	12622.175
1051.00976	12469.275
1054.70114	12383.275
1058.38998	12376.775
1062.07627	12392.475
1065.76003	12436.675
1069.44126	12482.875
1073.11995	12622.375
1076.79611	12742.375
1080.46974	12873.975
1084.14085	12974.875
1087.80943	13052.175
1091.47549	13100.475
1095.13903	13025.275
1098.80005	12896.275
1102.45857	12810.075
1106.11456	12806.075
1109.76805	12816.775
1113.41903	12903.975
1117.06751	13048.475
1120.71348	13217.075
1124.35696	13402.575
1127.99793	13546.275
1131.63641	13552.475
1135.2724	13405.375
1138.90589	13225.975
1142.5369	13063.275
1146.16542	12943.575
1149.79145	12825.875
1153.415	12765.775
1157.03607	12790.875
1160.65467	12908.675
1164.27079	13089.075
1167.88443	13491.075
1171.49561	13955.275
1175.10432	14735.975
1178.71056	15729.375
1182.31434	16678.375
1185.91565	17119.275
1189.51451	17078.575
1193.11091	16632.475
1196.70485	16008.475
1200.29634	15535.475
1203.88538	15081.875
1207.47197	14672.375
1211.05612	14283.475
1214.63782	14015.275
1218.21708	13924.775
1221.79391	13930.475
1225.36829	13961.375
1228.94024	13908.475
1232.50976	13827.775
1236.07685	13707.275
1239.6415	13650.175
1243.20374	13698.475
1246.76355	13771.075
1250.32093	13889.975
1253.8759	14097.675
1257.42845	14333.175
1260.97859	14624.575
1264.52631	14888.175
1268.07163	15200.675
1271.61453	15482.075
1275.15503	15741.175
1278.69312	15942.975
1282.22882	16061.575
1285.76211	16155.475
1289.29301	16318.375
1292.82151	16567.575
1296.34761	16914.775
1299.87133	17489.275
1303.39266	18352.775
1306.9116	19565.475
1310.42815	20706.675
1313.94233	21327.775
1317.45412	21033.475
1320.96354	20249.675
1324.47058	19369.275
1327.97525	18605.275
1331.47754	18011.175
1334.97747	17775.975
1338.47502	17806.475
1341.97022	18070.675
1345.46305	18464.575
1348.95352	18966.075
1352.44163	19615.075
1355.92738	20555.775
1359.41078	21860.175
1362.89183	22911.775
1366.37053	22277.675
1369.84688	20096.075
1373.32088	18094.675
1376.79254	16820.975
1380.26186	16144.475
1383.72883	15768.375
1387.19347	15445.775
1390.65578	15113.975
1394.11575	14860.275
1397.57339	14705.675
1401.0287	14698.975
1404.48168	14726.975
1407.93234	14768.175
1411.38068	14792.775
1414.82669	14779.375
1418.27039	14683.575
1421.71177	14559.275
1425.15083	14423.475
1428.58758	14419.875
1432.02203	14492.775
1435.45416	14630.275
1438.88399	14696.975
1442.31151	14748.275
1445.73673	14766.975
1449.15965	14766.475
1452.58027	14775.775
1455.9986	14760.775
1459.41463	14788.775
1462.82837	14984.075
1466.23982	15197.975
1469.64898	15418.875
1473.05586	15587.475
1476.46045	15663.375
1479.86276	15741.275
1483.26279	15772.575
1486.66054	15875.575
1490.05602	16005.375
1493.44922	16282.375
1496.84016	16755.775
1500.22882	17497.975
1503.61521	18506.175
1506.99934	19594.275
1510.38121	20280.675
1513.76081	20191.075
1517.13816	19295.675
1520.51324	18006.375
1523.88607	16924.875
1527.25665	16242.075
1530.62498	15883.375
1533.99105	15688.775
1537.35488	15590.875
1540.71647	15494.475
1544.07581	15440.875
1547.4329	15392.675
1550.78776	15326.275
1554.14038	15257.075
1557.49077	15257.375
1560.83892	15334.875
1564.18484	15450.675
1567.52853	15629.575
1570.86999	15775.675
1574.20922	15918.675
1577.54624	15836.575
1580.88103	15554.875
1584.2136	15190.875
1587.54395	15118.375
1590.87208	15428.475
1594.19801	16052.275
1597.52172	16787.275
1600.84321	17148.475
1604.16251	16860.675
1607.47959	16253.175
1610.79447	15420.775
1614.10715	14682.675
1617.41763	14040.975
1620.7259	13618.675
1624.03199	13369.275
1627.33587	13326.375
1630.63757	13482.875
1633.93707	13878.875
1637.23439	14578.875
1640.52951	15505.775
1643.82246	16596.175
1647.11321	17535.675
1650.40179	17879.475
1653.68819	17177.975
1656.97241	15781.075
1660.25446	14343.475
1663.53433	13324.375
1666.81203	12696.275
1670.08756	12311.475
1673.36092	12051.875
1676.63211	11864.275
1679.90115	11735.775
1683.16801	11645.475
1686.43272	11544.775
1689.69527	11476.675
1692.95567	11439.275
1696.2139	11380.875
1699.46999	11359.175
1702.72392	11298.875
1705.97571	11295.375
1709.22535	11269.375
1712.47284	11269.075
1715.71819	11221.675
1718.96139	11196.575
1722.20246	11174.475
1725.44139	11159.975
1728.67818	11131.675
1731.91284	11052.875
1735.14537	11030.575
1738.37576	10994.975
1741.60403	10949.675
1744.83017	10913.175
1748.05418	10911.175
1751.27607	10884.475
1754.49584	10858.475
1757.71349	10821.975
1760.92903	10816.475
1764.14244	10798.175
1767.35375	10837.875
1770.56294	10801.375
1773.77002	10810.975
1776.97499	10766.975
1780.17785	10756.975
1783.37861	10761.475
1786.57727	10753.075
1789.77382	10726.975
1792.96828	10732.375
1796.16064	10701.775
1799.3509	10699.175
1802.53907	10703.775
1805.72514	10660.475
1808.90913	10625.875
1812.09102	10609.375
1815.27083	10595.175
1818.44856	10592.875
1821.6242	10575.575
1824.79776	10565.075
1827.96924	10519.375
1831.13864	10528.375
1834.30597	10512.975
1837.47122	10470.175
1840.6344	10483.375
1843.7955	10509.275
1846.95454	10470.875
1850.11151	10495.675
1853.26642	10463.375
1856.41926	10459.675
1859.57004	10466.875
1862.71876	10449.675
1865.86542	10442.875
1869.01003	10465.175
1872.15258	10435.675
1875.29308	10429.275
1878.43152	10448.675
1881.56792	10411.675
1884.70227	10409.975
1887.83457	10401.275
1890.96482	10392.475
1894.09304	10381.175
1897.21921	10368.975
1900.34335	10350.975
1903.46544	10345.575
1906.58551	10352.075
1909.70353	10348.275
1912.81953	10331.575
1915.93349	10310.575
1919.04543	10312.775
1922.15534	10325.975
1925.26322	10301.375
1928.36908	10281.475
1931.47292	10260.575
1934.57473	10251.875
1937.67453	10232.475
1940.77232	10204.375
1943.86808	10200.575
1946.96184	10158.075
1950.05358	10145.975
1953.14331	10107.775
1956.23103	10075.575
1959.31675	10032.075
1962.40046	10039.975
1965.48217	9996.075
1968.56188	9993.875
1971.63959	9960.075
1974.7153	9913.575
1977.78901	9893.575
1980.86073	9854.075
1983.93046	9868.475
1986.99819	9820.775
1990.06394	9802.075
1993.1277	9791.175
1996.18947	9744.475
1999.24925	9697.375
2002.30706	9709.475
2005.36288	9683.475
2008.41672	9660.975
2011.46859	9598.075
2014.51848	9562.075
2017.56639	9579.075
2020.61233	9570.175
2023.6563	9540.975
2026.6983	9527.475
2029.73833	9479.975
2032.7764	9469.875
2035.8125	9462.175
2038.84664	9463.975
2041.87881	9426.475
2044.90903	9417.875
2047.93729	9399.975
2050.96359	9414.075
2053.98794	9409.175
2057.01034	9397.875
2060.03078	9392.775
2063.04927	9374.875
2066.06582	9351.375
2069.08042	9359.575
2072.09307	9358.775
2075.10378	9382.175
2078.11255	9354.675
2081.11938	9357.575
2084.12426	9363.575
2087.12722	9344.175
2090.12824	9330.775
2093.12732	9365.475
2096.12447	9335.875
2099.11969	9339.875
2102.11299	9342.575
2105.10435	9351.275
2108.09379	9368.075
2111.08131	9372.775
2114.0669	9366.075
2117.05057	9390.375
2120.03233	9408.975
2123.01216	9416.475
2125.99008	9436.975
2128.96609	9419.375
2131.94018	9449.375
2134.91236	9457.875
2137.88263	9464.475
2140.851	9452.675
2143.81746	9481.175
2146.78201	9455.175
2149.74466	9479.675
2152.7054	9480.275
2155.66425	9502.775
2158.6212	9493.675
2161.57625	9468.375
2164.52941	9484.375
2167.48067	9472.875
2170.43004	9441.875
2173.37752	9444.775
2176.32311	9465.975
2179.26681	9465.675
2182.20863	9477.875
2185.14856	9481.075
2188.08661	9477.075
2191.02278	9466.475
2193.95707	9475.875
2196.88948	9457.975
2199.82001	9490.475
2202.74867	9465.275
2205.67545	9473.675
2208.60037	9481.775
2211.52341	9468.975
2214.44458	9462.375
2217.36388	9439.575
2220.28132	9386.775
2223.1969	9399.975
2226.11061	9384.875
2229.02246	9349.775
2231.93245	9374.575
2234.84058	9358.475
2237.74686	9316.275
2240.65128	9310.175
2243.55385	9278.575
2246.45456	9300.375
2249.35343	9286.475
2252.25044	9287.775
2255.14561	9281.075
2258.03893	9232.175
2260.93041	9246.275
2263.82004	9221.775
2266.70783	9226.675
2269.59378	9168.775
2272.4779	9204.975
2275.36017	9157.175
2278.24061	9157.675
2281.11922	9126.275
2283.996	9118.975
2286.87094	9105.875
2289.74405	9103.875
2292.61534	9100.475
2295.4848	9077.275
2298.35243	9093.875
2301.21824	9076.675
2304.08223	9081.675
2306.94439	9075.075
2309.80474	9098.975
2312.66327	9112.675
2315.51999	9085.775
2318.37489	9080.675
2321.22797	9076.575
2324.07925	9062.975
2326.92871	9064.575
2329.77637	9050.975
2332.62222	9065.875
2335.46626	9027.575
2338.3085	8995.575
2341.14893	9014.575
2343.98756	9015.575
2346.8244	9023.175
2349.65943	9004.675
2352.49267	9016.975
2355.32411	9002.775
2358.15376	9005.175
2360.98161	8972.975
2363.80768	8969.075
2366.63195	8976.575
2369.45444	8946.875
2372.27514	8985.275
2375.09405	8980.375
2377.91118	8940.775
2380.72652	8902.275
2383.54009	8915.275
2386.35187	8902.875
2389.16188	8851.775
2391.97011	8864.775
2394.77657	8834.875
2397.58125	8840.775
2400.38416	8830.775
2403.18529	8816.775
2405.98466	8813.975
2408.78226	8766.475
2411.57809	8768.575
2414.37216	8772.175
2417.16446	8765.875
2419.955	8749.975
2422.74378	8749.775
2425.5308	8728.375
2428.31606	8751.575
2431.09956	8738.875
2433.88131	8732.075
2436.6613	8738.275
2439.43954	8711.475
2442.21603	8737.575
2444.99077	8743.075
2447.76377	8708.075
2450.53501	8711.875
2453.30451	8681.675
2456.07226	8677.075
2458.83827	8673.475
2461.60254	8663.675
2464.36507	8658.075
2467.12586	8670.875
2469.88492	8661.875
2472.64224	8674.675
2475.39782	8688.475
2478.15167	8687.175
2480.90379	8674.075
2483.65417	8681.675
2486.40283	8678.275
2489.14976	8695.475
2491.89497	8685.375
2494.63845	8661.775
2497.3802	8648.375
2500.12024	8684.275
2502.85855	8665.775
2505.59514	8646.175
2508.33002	8638.675
2511.06318	8628.575
2513.79462	8623.575
2516.52435	8595.875
2519.25237	8605.275
2521.97867	8567.975
2524.70327	8588.975
2527.42616	8594.175
2530.14734	8588.275
2532.86681	8572.675
2535.58458	8570.375
2538.30065	8538.575
2541.01501	8557.075
2543.72768	8528.175
2546.43864	8511.575
2549.14791	8515.775
2551.85548	8515.975
2554.56136	8536.575
2557.26554	8510.975
2559.96803	8491.475
2562.66883	8481.775
2565.36794	8469.275
2568.06536	8451.675
2570.7611	8445.775
2573.45514	8427.775
2576.14751	8440.175
2578.83819	8437.575
2581.52719	8434.775
2584.21451	8425.675
2586.90015	8407.075
2589.58411	8396.975
2592.2664	8392.675
2594.94701	8368.275
2597.62594	8400.475
2600.30321	8357.975
2602.9788	8363.975
2605.65273	8365.975
2608.32498	8343.275
2610.99557	8339.675
2613.66449	8335.675
2616.33175	8341.575
2618.99734	8322.975
2621.66128	8330.175
2624.32355	8320.275
2626.98416	8344.875
2629.64311	8323.075
2632.30041	8301.275
2634.95605	8301.975
2637.61004	8265.475
2640.26238	8281.375
2642.91306	8261.675
2645.56209	8270.475
2648.20948	8261.975
2650.85521	8256.475
2653.4993	8253.575
2656.14175	8236.675
2658.78255	8253.475
2661.42171	8234.775
2664.05923	8280.275
2666.6951	8273.475
2669.32934	8271.875
2671.96194	8258.275
2674.59291	8284.175
2677.22224	8280.175
2679.84993	8279.475
2682.476	8267.375
2685.10043	8253.075
2687.72324	8256.375
2690.34441	8263.875
2692.96396	8246.175
2695.58188	8231.775
2698.19818	8235.275
2700.81285	8243.975
2703.4259	8207.075
2706.03733	8235.075
2708.64714	8229.775
2711.25533	8235.975
2713.86191	8242.075
2716.46687	8258.575
2719.07021	8268.575
2721.67194	8257.075
2724.27206	8257.675
2726.87057	8273.075
2729.46747	8276.975
2732.06276	8277.275
2734.65644	8267.375
2737.24852	8272.075
2739.83899	8254.475
2742.42786	8254.975
2745.01513	8242.075
2747.60079	8244.575
2750.18486	8216.375
2752.76733	8206.575
2755.3482	8205.375
2757.92747	8223.975
2760.50515	8199.475
2763.08123	8210.175
2765.65573	8178.675
2768.22863	8177.875
2770.79994	8171.375
2773.36967	8156.475
2775.9378	8166.575
2778.50435	8148.175
2781.06932	8157.775
2783.6327	8146.575
2786.1945	8150.775
2788.75471	8153.475
2791.31335	8118.375
2793.87041	8100.575
2796.42589	8083.575
2798.97979	8079.575
2801.53212	8075.175
2804.08288	8055.475
2806.63206	8047.975
2809.17967	8032.375
2811.72571	8014.775
2814.27018	7997.475
2816.81308	7995.175
2819.35442	7952.675
2821.89419	7959.975
2824.43239	7973.475
2826.96904	7954.575
2829.50412	7925.775
2832.03763	7918.375
2834.56959	7893.475
2837.1	7904.775
2839.62884	7913.775
2842.15613	7914.075
2844.68186	7916.275
2847.20604	7920.975
2849.72867	7889.175
2852.24974	7879.875
2854.76927	7852.775
2857.28724	7866.475
2859.80367	7867.275
2862.31855	7859.375
2864.83189	7864.675
2867.34368	7847.275
2869.85393	7830.875
2872.36264	7844.175
2874.8698	7841.675
2877.37543	7830.375
2879.87952	7845.775
2882.38207	7848.575
2884.88308	7842.275
2887.38256	7843.875
2889.88051	7845.275
2892.37692	7852.575
2894.8718	7859.075
2897.36515	7838.375
2899.85698	7862.875
2902.34727	7870.975
2904.83604	7881.475
2907.32328	7892.375
2909.809	7908.375
2912.29319	7921.075
2914.77587	7880.375
2917.25702	7895.175
2919.73665	7886.075
2922.21476	7880.275
2924.69136	7871.375
2927.16644	7868.775
2929.64	7876.875
2932.11205	7860.175
2934.58258	7832.675
2937.05161	7844.275
2939.51912	7863.575
2941.98513	7856.075
2944.44962	7852.975
2946.91261	7820.675
2949.37409	7835.375
2951.83407	7831.475
2954.29254	7833.875
2956.74951	7842.275
2959.20498	7833.975
2961.65895	7821.075
2964.11142	7834.875
2966.56239	7822.675
2969.01186	7828.475
2971.45984	7813.375
2973.90632	7852.475
2976.35131	7820.075
2978.7948	7791.275
2981.23681	7781.675
2983.67732	7777.775
2986.11635	7772.975
2988.55388	7760.775
2990.98993	7741.875
2993.4245	7733.775
2995.85758	7709.575
2998.28917	7700.875
3000.71928	7715.475
3003.14791	7685.375
3005.57506	7687.275
3008.00073	7657.475
3010.42493	7651.575
3012.84764	7654.075
3015.26888	7639.175
3017.68865	7616.575
3020.10694	7618.875
3022.52376	7604.175
3024.9391	7601.475
3027.35298	7611.275
3029.76539	7609.775
3032.17632	7588.975
3034.5858	7599.275
3036.9938	7580.175
3039.40034	7581.475
3041.80542	7579.575
3044.20903	7571.375
3046.61118	7573.975
3049.01187	7551.275
3051.4111	7549.475
3053.80888	7520.275
3056.20519	7520.075
3058.60005	7502.475
3060.99345	7486.775
3063.3854	7485.275
3065.7759	7493.175
3068.16494	7470.575
3070.55254	7441.875
3072.93868	7439.975
3075.32338	7435.375
3077.70662	7422.775
3080.08842	7408.675
3082.46878	7397.575
3084.84769	7403.875
3087.22515	7390.175
3089.60118	7409.075
3091.97576	7427.675
3094.3489	7416.175
3096.72061	7414.175
3099.09087	7421.275
3101.4597	7440.275
3103.82709	7427.075
3106.19305	7425.275
3108.55757	7448.775
3110.92066	7427.975
3113.28232	7439.575
3115.64255	7425.375
3118.00134	7390.075
3120.35871	7421.375
3122.71466	7391.275
3125.06917	7413.775
3127.42226	7376.975
3129.77393	7399.875
3132.12417	7372.775
3134.47299	7373.375
3136.82039	7380.575
3139.16636	7381.775
3141.51092	7362.075
3143.85406	7365.675
3146.19579	7384.075
3148.53609	7409.975
3150.87499	7401.075
3153.21246	7438.375
3155.54853	7450.175
3157.88318	7427.575
3160.21642	7464.575
3162.54826	7432.575
3164.87868	7452.375
3167.2077	7469.275
3169.5353	7469.575
3171.86151	7478.375
3174.18631	7463.275
3176.5097	7491.475
3178.83169	7467.475
3181.15228	7469.275
3183.47147	7456.275
3185.78926	7466.375
