Data from AgNPs_UA_50uM_CRN_0uM_R6G_10uM_Q_RamanShift__35__12-52-01-799.txt Node

Date: Tue Jul 26 12:52:01 BST 2022
User: TCL
Spectrometer: QEP01345
Trigger mode: 4
Integration Time (sec): 7.000000E0
Scans to average: 10
Electric dark correction enabled: true
Nonlinearity correction enabled: false
Boxcar width: 0
XAxis mode: Raman Shifts
Number of Pixels in Spectrum: 1044
>>>>>Begin Spectral Data<<<<<
46.04893	0.725
50.45542	0.525
54.85868	0.425
59.25871	-0.375
63.6555	60.825
68.04907	66.525
72.43941	69.925
76.82654	77.825
81.21044	80.025
85.59113	82.425
89.96862	85.925
94.34289	86.725
98.71396	88.325
103.08183	95.625
107.4465	93.725
111.80798	97.925
116.16626	103.225
120.52136	102.225
124.87327	102.025
129.222	108.325
133.56755	114.225
137.90993	118.225
142.24913	125.525
146.58517	132.925
150.91804	149.925
155.24774	172.025
159.57429	208.125
163.89768	253.625
168.21792	330.325
172.53501	449.225
176.84895	607.025
181.15975	833.425
185.46741	1163.725
189.77193	1588.125
194.07331	2109.625
198.37157	2714.325
202.6667	3352.025
206.9587	3985.725
211.24758	4669.025
215.53334	5384.425
219.81599	6190.625
224.09553	7108.125
228.37195	8108.725
232.64527	9197.825
236.91549	10198.025
241.18261	11058.925
245.44663	11685.125
249.70755	12170.125
253.96539	12555.125
258.22014	12902.125
262.4718	13140.025
266.72039	13362.925
270.96589	13331.925
275.20832	13098.525
279.44768	12779.225
283.68397	12458.125
287.91719	12280.125
292.14735	12395.425
296.37445	12818.025
300.59849	13649.025
304.81948	14612.625
309.03742	15344.725
313.25231	15482.725
317.46415	14744.325
321.67296	13455.525
325.87872	12391.125
330.08145	11894.825
334.28114	11940.025
338.47781	12183.225
342.67145	12630.225
346.86207	13329.025
351.04966	14378.725
355.23424	15498.825
359.4158	16304.125
363.59435	16580.925
367.76989	16563.725
371.94243	16382.025
376.11196	16186.025
380.27849	15990.325
384.44203	15761.925
388.60257	15453.525
392.76012	15314.025
396.91468	15381.525
401.06626	15790.425
405.21485	16008.225
409.36047	15542.925
413.50311	14458.025
417.64277	13424.725
421.77947	12816.825
425.9132	12581.225
430.04396	12567.825
434.17176	12718.325
438.2966	13113.125
442.41849	13692.925
446.53742	14363.325
450.6534	14938.325
454.76644	15223.325
458.87653	15087.425
462.98368	14731.925
467.08789	14252.525
471.18916	13698.025
475.2875	13129.325
479.38291	12672.725
483.4754	12312.425
487.56496	12091.325
491.6516	11971.925
495.73531	11918.425
499.81612	11995.625
503.89401	12172.425
507.96899	12444.025
512.04106	12713.025
516.11023	13082.125
520.1765	13345.925
524.23987	13418.025
528.30034	13319.725
532.35792	13093.125
536.41261	12830.625
540.46441	12473.525
544.51333	12250.125
548.55936	12339.925
552.60252	12622.325
556.64279	13005.425
560.6802	13239.525
564.71473	13572.225
568.7464	14333.425
572.7752	14496.525
576.80114	13739.025
580.82422	13001.225
584.84444	12877.425
588.86181	13284.825
592.87633	14024.825
596.888	14739.025
600.89682	15464.925
604.9028	17785.425
608.90594	24138.125
612.90624	31431.725
616.90371	28663.525
620.89834	18599.825
624.89015	14108.425
628.87913	13401.225
632.86528	13622.825
636.84862	13889.825
640.82913	13483.025
644.80683	12573.525
648.78172	12004.625
652.75379	12079.625
656.72306	12828.725
660.68952	13604.425
664.65319	13223.325
668.61405	12258.125
672.57211	11894.325
676.52738	11873.025
680.47986	11735.925
684.42955	11513.425
688.37646	11455.825
692.32058	11526.125
696.26192	11688.425
700.20048	11930.325
704.13626	12041.525
708.06928	11914.925
711.99952	11756.725
715.927	11810.325
719.85171	11979.725
723.77365	12033.225
727.69284	11908.525
731.60928	11838.025
735.52295	11859.325
739.43388	11917.825
743.34206	12036.025
747.24749	12056.825
751.15017	12054.525
755.05012	12380.925
758.94733	13389.325
762.8418	15782.225
766.73354	19382.425
770.62254	22632.925
774.50882	24268.325
778.39237	23126.725
782.27321	19399.925
786.15132	15630.125
790.02671	13478.525
793.89938	12551.525
797.76935	12180.025
801.6366	12006.025
805.50115	11919.525
809.36299	11855.625
813.22213	11772.725
817.07857	11735.125
820.93231	11716.925
824.78336	11779.025
828.63172	11893.925
832.47738	11906.825
836.32036	11833.225
840.16066	11732.225
843.99827	11670.425
847.8332	11609.925
851.66546	11590.425
855.49504	11579.325
859.32195	11568.825
863.1462	11509.825
866.96777	11453.825
870.78668	11481.925
874.60293	11529.925
878.41652	11647.325
882.22745	11799.925
886.03573	11880.625
889.84136	11875.125
893.64433	11795.725
897.44466	11776.425
901.24235	11754.025
905.0374	11672.925
908.8298	11529.825
912.61957	11429.925
916.40671	11431.525
920.19121	11516.625
923.97308	11705.925
927.75233	11988.025
931.52895	12246.725
935.30295	12039.225
939.07433	11559.325
942.84309	11197.225
946.60924	10984.925
950.37278	10907.725
954.13371	10860.725
957.89203	10802.325
961.64774	10763.825
965.40086	10741.125
969.15137	10729.525
972.89929	10712.925
976.64461	10723.425
980.38733	10752.325
984.12747	10814.825
987.86502	10934.225
991.59999	11099.125
995.33237	11356.725
999.06217	11760.925
1002.78939	12159.125
1006.51404	12512.325
1010.23611	12790.625
1013.95561	12981.325
1017.67255	12993.525
1021.38692	12744.725
1025.09872	12471.025
1028.80796	12393.225
1032.51465	12511.525
1036.21877	12729.625
1039.92035	12729.825
1043.61937	12699.225
1047.31584	12511.325
1051.00976	12297.125
1054.70114	12162.725
1058.38998	12113.425
1062.07627	12109.525
1065.76003	12119.025
1069.44126	12164.925
1073.11995	12389.825
1076.79611	12683.325
1080.46974	13177.825
1084.14085	13781.125
1087.80943	14289.225
1091.47549	14358.725
1095.13903	13923.125
1098.80005	13269.725
1102.45857	12895.025
1106.11456	12842.125
1109.76805	13111.025
1113.41903	13608.425
1117.06751	14458.725
1120.71348	15468.825
1124.35696	16657.625
1127.99793	17321.725
1131.63641	16775.125
1135.2724	15511.425
1138.90589	14504.625
1142.5369	13841.525
1146.16542	13442.425
1149.79145	13179.625
1153.415	13129.325
1157.03607	13246.725
1160.65467	13586.925
1164.27079	14193.625
1167.88443	15251.925
1171.49561	16972.325
1175.10432	19747.725
1178.71056	23367.925
1182.31434	26359.625
1185.91565	27083.925
1189.51451	25935.825
1193.11091	23705.725
1196.70485	21379.725
1200.29634	19679.825
1203.88538	18259.025
1207.47197	16712.225
1211.05612	15534.825
1214.63782	14914.525
1218.21708	14769.925
1221.79391	14915.925
1225.36829	15083.425
1228.94024	15102.925
1232.50976	14957.225
1236.07685	14863.325
1239.6415	14949.325
1243.20374	15067.725
1246.76355	15156.425
1250.32093	15384.225
1253.8759	15764.825
1257.42845	16368.525
1260.97859	17173.125
1264.52631	18010.025
1268.07163	18716.625
1271.61453	19202.425
1275.15503	19452.825
1278.69312	19606.425
1282.22882	19870.025
1285.76211	20666.725
1289.29301	21677.825
1292.82151	22684.825
1296.34761	23826.325
1299.87133	25581.425
1303.39266	28396.325
1306.9116	32739.325
1310.42815	37186.825
1313.94233	38798.925
1317.45412	36593.825
1320.96354	32660.025
1324.47058	28801.125
1327.97525	25860.225
1331.47754	24286.825
1334.97747	23928.525
1338.47502	24284.325
1341.97022	25158.025
1345.46305	26659.925
1348.95352	28996.825
1352.44163	32362.525
1355.92738	37224.725
1359.41078	44268.825
1362.89183	49513.125
1366.37053	46423.425
1369.84688	37501.525
1373.32088	29566.625
1376.79254	25146.825
1380.26186	23032.025
1383.72883	21758.725
1387.19347	20536.125
1390.65578	19239.125
1394.11575	18287.125
1397.57339	17870.925
1401.0287	17914.325
1404.48168	18162.325
1407.93234	18419.025
1411.38068	18730.225
1414.82669	18883.925
1418.27039	18773.525
1421.71177	18333.125
1425.15083	17989.625
1428.58758	18076.025
1432.02203	18592.725
1435.45416	19066.125
1438.88399	19159.925
1442.31151	19127.925
1445.73673	19065.225
1449.15965	19099.725
1452.58027	18774.525
1455.9986	18265.225
1459.41463	18033.325
1462.82837	18293.025
1466.23982	18878.225
1469.64898	19533.325
1473.05586	20019.525
1476.46045	20443.725
1479.86276	20965.825
1483.26279	21491.025
1486.66054	22159.225
1490.05602	23077.525
1493.44922	24403.125
1496.84016	26439.825
1500.22882	29734.725
1503.61521	34460.925
1506.99934	39781.625
1510.38121	43735.125
1513.76081	43885.425
1517.13816	39466.425
1520.51324	32983.525
1523.88607	27489.525
1527.25665	24249.725
1530.62498	22628.925
1533.99105	21708.325
1537.35488	21068.225
1540.71647	20709.625
1544.07581	20531.725
1547.4329	20376.925
1550.78776	20190.925
1554.14038	20021.225
1557.49077	19963.925
1560.83892	20114.425
1564.18484	20812.325
1567.52853	21809.825
1570.86999	22712.225
1574.20922	23229.425
1577.54624	22899.725
1580.88103	21341.925
1584.2136	19481.125
1587.54395	18605.525
1590.87208	19076.525
1594.19801	20820.525
1597.52172	23096.725
1600.84321	24447.325
1604.16251	23815.725
1607.47959	21874.725
1610.79447	19457.525
1614.10715	17297.625
1617.41763	15772.125
1620.7259	14916.125
1624.03199	14556.325
1627.33587	14711.525
1630.63757	15296.025
1633.93707	16417.925
1637.23439	18395.925
1640.52951	21362.125
1643.82246	25484.625
1647.11321	29748.925
1650.40179	31705.225
1653.68819	29444.325
1656.97241	24258.625
1660.25446	19240.725
1663.53433	15912.025
1666.81203	14022.425
1670.08756	12922.225
1673.36092	12276.725
1676.63211	11803.525
1679.90115	11477.625
1683.16801	11248.625
1686.43272	11080.325
1689.69527	10973.725
1692.95567	10869.125
1696.2139	10815.625
1699.46999	10755.025
1702.72392	10745.025
1705.97571	10729.725
1709.22535	10720.225
1712.47284	10730.225
1715.71819	10702.125
1718.96139	10708.125
1722.20246	10641.725
1725.44139	10567.625
1728.67818	10454.225
1731.91284	10394.725
1735.14537	10290.125
1738.37576	10262.125
1741.60403	10164.225
1744.83017	10134.125
1748.05418	10085.125
1751.27607	10079.025
1754.49584	10045.725
1757.71349	10009.725
1760.92903	10002.525
1764.14244	9956.925
1767.35375	9948.725
1770.56294	9906.525
1773.77002	9855.425
1776.97499	9849.525
1780.17785	9813.325
1783.37861	9813.525
1786.57727	9781.425
1789.77382	9747.925
1792.96828	9761.225
1796.16064	9750.525
1799.3509	9721.125
1802.53907	9730.225
1805.72514	9683.625
1808.90913	9654.025
1812.09102	9602.725
1815.27083	9563.025
1818.44856	9533.325
1821.6242	9519.625
1824.79776	9494.025
1827.96924	9482.025
1831.13864	9440.925
1834.30597	9443.425
1837.47122	9440.825
1840.6344	9416.625
1843.7955	9452.425
1846.95454	9389.025
1850.11151	9393.825
1853.26642	9385.525
1856.41926	9379.425
1859.57004	9392.025
1862.71876	9378.725
1865.86542	9369.925
1869.01003	9369.825
1872.15258	9386.925
1875.29308	9373.125
1878.43152	9340.225
1881.56792	9355.725
1884.70227	9357.725
1887.83457	9371.525
1890.96482	9354.225
1894.09304	9330.125
1897.21921	9296.425
1900.34335	9318.825
1903.46544	9279.725
1906.58551	9301.925
1909.70353	9321.625
1912.81953	9323.625
1915.93349	9293.325
1919.04543	9275.225
1922.15534	9230.625
1925.26322	9256.025
1928.36908	9230.625
1931.47292	9200.125
1934.57473	9154.125
1937.67453	9121.625
1940.77232	9123.525
1943.86808	9087.725
1946.96184	9059.025
1950.05358	9030.825
1953.14331	9021.925
1956.23103	8977.925
1959.31675	8964.425
1962.40046	8932.125
1965.48217	8926.025
1968.56188	8906.025
1971.63959	8898.925
1974.7153	8852.525
1977.78901	8839.525
1980.86073	8811.025
1983.93046	8763.025
1986.99819	8727.225
1990.06394	8702.525
1993.1277	8665.925
1996.18947	8648.125
1999.24925	8622.825
2002.30706	8603.425
2005.36288	8563.625
2008.41672	8547.325
2011.46859	8515.125
2014.51848	8492.725
2017.56639	8461.625
2020.61233	8426.025
2023.6563	8416.525
2026.6983	8385.725
2029.73833	8367.025
2032.7764	8379.725
2035.8125	8349.825
2038.84664	8324.625
2041.87881	8356.625
2044.90903	8335.425
2047.93729	8308.525
2050.96359	8295.425
2053.98794	8299.325
2057.01034	8290.825
2060.03078	8273.225
2063.04927	8281.925
2066.06582	8277.125
2069.08042	8250.025
2072.09307	8224.325
2075.10378	8208.125
2078.11255	8182.825
2081.11938	8190.625
2084.12426	8183.325
2087.12722	8202.125
2090.12824	8207.125
2093.12732	8204.825
2096.12447	8183.425
2099.11969	8192.925
2102.11299	8192.925
2105.10435	8184.625
2108.09379	8183.025
2111.08131	8195.725
2114.0669	8171.625
2117.05057	8183.225
2120.03233	8223.225
2123.01216	8234.525
2125.99008	8239.225
2128.96609	8224.825
2131.94018	8218.825
2134.91236	8229.225
2137.88263	8213.025
2140.851	8205.525
2143.81746	8228.625
2146.78201	8180.525
2149.74466	8216.925
2152.7054	8198.325
2155.66425	8195.525
2158.6212	8182.425
2161.57625	8151.625
2164.52941	8163.425
2167.48067	8152.425
2170.43004	8149.825
2173.37752	8169.925
2176.32311	8170.625
2179.26681	8172.225
2182.20863	8175.925
2185.14856	8186.125
2188.08661	8186.425
2191.02278	8145.525
2193.95707	8159.025
2196.88948	8158.125
2199.82001	8174.925
2202.74867	8133.725
2205.67545	8148.225
2208.60037	8144.725
2211.52341	8135.925
2214.44458	8138.125
2217.36388	8114.025
2220.28132	8100.225
2223.1969	8050.725
2226.11061	8069.825
2229.02246	8035.425
2231.93245	8035.525
2234.84058	8006.125
2237.74686	8003.925
2240.65128	7969.325
2243.55385	7974.525
2246.45456	7955.025
2249.35343	7964.625
2252.25044	7968.525
2255.14561	7973.025
2258.03893	7994.425
2260.93041	7969.625
2263.82004	7955.625
2266.70783	7951.625
2269.59378	7922.725
2272.4779	7890.525
2275.36017	7879.625
2278.24061	7843.125
2281.11922	7818.125
2283.996	7819.125
2286.87094	7771.525
2289.74405	7754.125
2292.61534	7744.725
2295.4848	7746.825
2298.35243	7723.125
2301.21824	7728.425
2304.08223	7739.925
2306.94439	7755.025
2309.80474	7752.025
2312.66327	7756.425
2315.51999	7749.425
2318.37489	7752.625
2321.22797	7742.625
2324.07925	7724.625
2326.92871	7692.725
2329.77637	7695.725
2332.62222	7689.425
2335.46626	7685.225
2338.3085	7693.025
2341.14893	7689.025
2343.98756	7715.825
2346.8244	7724.725
2349.65943	7748.825
2352.49267	7747.325
2355.32411	7732.625
2358.15376	7747.125
2360.98161	7746.325
2363.80768	7759.525
2366.63195	7760.125
2369.45444	7752.025
2372.27514	7746.625
2375.09405	7741.725
2377.91118	7728.925
2380.72652	7683.525
2383.54009	7660.525
2386.35187	7616.025
2389.16188	7607.525
2391.97011	7572.725
2394.77657	7546.925
2397.58125	7547.625
2400.38416	7506.525
2403.18529	7496.825
2405.98466	7463.025
2408.78226	7445.225
2411.57809	7442.025
2414.37216	7417.525
2417.16446	7411.325
2419.955	7399.825
2422.74378	7420.025
2425.5308	7417.525
2428.31606	7405.225
2431.09956	7421.125
2433.88131	7390.625
2436.6613	7418.325
2439.43954	7412.925
2442.21603	7426.125
2444.99077	7393.525
2447.76377	7387.625
2450.53501	7404.625
2453.30451	7402.825
2456.07226	7386.225
2458.83827	7415.525
2461.60254	7394.225
2464.36507	7382.425
2467.12586	7351.125
2469.88492	7368.125
2472.64224	7389.625
2475.39782	7381.725
2478.15167	7407.225
2480.90379	7408.725
2483.65417	7451.225
2486.40283	7445.225
2489.14976	7496.725
2491.89497	7496.125
2494.63845	7505.025
2497.3802	7486.725
2500.12024	7488.625
2502.85855	7462.725
2505.59514	7442.925
2508.33002	7407.625
2511.06318	7387.625
2513.79462	7362.725
2516.52435	7338.625
2519.25237	7284.525
2521.97867	7263.725
2524.70327	7239.725
2527.42616	7258.325
2530.14734	7240.025
2532.86681	7229.025
2535.58458	7223.925
2538.30065	7235.225
2541.01501	7224.825
2543.72768	7234.925
2546.43864	7221.325
2549.14791	7227.325
2551.85548	7222.225
2554.56136	7218.225
2557.26554	7221.325
2559.96803	7201.125
2562.66883	7207.625
2565.36794	7194.925
2568.06536	7170.325
2570.7611	7183.025
2573.45514	7166.825
2576.14751	7165.325
2578.83819	7148.825
2581.52719	7135.625
2584.21451	7143.025
2586.90015	7117.025
2589.58411	7114.825
2592.2664	7123.025
2594.94701	7111.525
2597.62594	7108.425
2600.30321	7117.425
2602.9788	7081.725
2605.65273	7104.125
2608.32498	7112.425
2610.99557	7096.425
2613.66449	7107.825
2616.33175	7120.025
2618.99734	7123.325
2621.66128	7106.525
2624.32355	7114.325
2626.98416	7110.825
2629.64311	7114.925
2632.30041	7102.225
2634.95605	7092.725
2637.61004	7097.425
2640.26238	7068.625
2642.91306	7057.925
2645.56209	7068.825
2648.20948	7035.125
2650.85521	7027.125
2653.4993	7015.425
2656.14175	7024.925
2658.78255	7043.625
2661.42171	7044.925
2664.05923	7057.125
2666.6951	7077.625
2669.32934	7104.525
2671.96194	7098.325
2674.59291	7124.725
2677.22224	7106.725
2679.84993	7108.625
2682.476	7100.025
2685.10043	7087.825
2687.72324	7062.125
2690.34441	7074.725
2692.96396	7053.825
2695.58188	7048.725
2698.19818	7056.925
2700.81285	7041.925
2703.4259	7049.825
2706.03733	7054.625
2708.64714	7046.625
2711.25533	7032.725
2713.86191	7028.825
2716.46687	7047.725
2719.07021	7084.925
2721.67194	7094.825
2724.27206	7064.725
2726.87057	7070.325
2729.46747	7062.325
2732.06276	7065.125
2734.65644	7065.625
2737.24852	7057.425
2739.83899	7043.225
2742.42786	7045.425
2745.01513	7044.925
2747.60079	7040.625
2750.18486	7005.525
2752.76733	6999.225
2755.3482	7009.125
2757.92747	6991.725
2760.50515	6985.625
2763.08123	6976.725
2765.65573	6975.925
2768.22863	6973.125
2770.79994	6972.425
2773.36967	6989.125
2775.9378	6941.925
2778.50435	6955.525
2781.06932	6975.125
2783.6327	6965.325
2786.1945	6949.325
2788.75471	6965.525
2791.31335	6951.025
2793.87041	6949.425
2796.42589	6931.825
2798.97979	6930.025
2801.53212	6923.625
2804.08288	6922.425
2806.63206	6914.125
2809.17967	6889.925
2811.72571	6884.425
2814.27018	6901.825
2816.81308	6916.325
2819.35442	6907.725
2821.89419	6927.425
2824.43239	6924.625
2826.96904	6921.125
2829.50412	6929.825
2832.03763	6912.025
2834.56959	6896.325
2837.1	6866.725
2839.62884	6896.325
2842.15613	6896.325
2844.68186	6905.025
2847.20604	6895.025
2849.72867	6906.425
2852.24974	6891.625
2854.76927	6902.625
2857.28724	6891.925
2859.80367	6895.725
2862.31855	6915.225
2864.83189	6909.925
2867.34368	6894.225
2869.85393	6917.525
2872.36264	6905.625
2874.8698	6912.025
2877.37543	6876.925
2879.87952	6879.425
2882.38207	6876.925
2884.88308	6845.125
2887.38256	6844.525
2889.88051	6866.925
2892.37692	6871.025
2894.8718	6869.125
2897.36515	6852.425
2899.85698	6859.225
2902.34727	6883.125
2904.83604	6885.925
2907.32328	6893.425
2909.809	6881.525
2912.29319	6879.025
2914.77587	6879.825
2917.25702	6862.925
2919.73665	6860.925
2922.21476	6865.325
2924.69136	6838.725
2927.16644	6837.425
2929.64	6806.525
2932.11205	6821.025
2934.58258	6790.425
2937.05161	6805.325
2939.51912	6799.725
2941.98513	6782.325
2944.44962	6763.925
2946.91261	6725.325
2949.37409	6721.625
2951.83407	6730.025
2954.29254	6714.825
2956.74951	6708.425
2959.20498	6704.725
2961.65895	6690.625
2964.11142	6692.925
2966.56239	6665.525
2969.01186	6653.925
2971.45984	6652.225
2973.90632	6647.625
2976.35131	6635.425
2978.7948	6630.925
2981.23681	6592.025
2983.67732	6556.525
2986.11635	6559.325
2988.55388	6535.125
2990.98993	6535.125
2993.4245	6500.825
2995.85758	6513.025
2998.28917	6494.925
3000.71928	6480.325
3003.14791	6460.825
3005.57506	6457.225
3008.00073	6428.525
3010.42493	6445.425
3012.84764	6437.125
3015.26888	6418.925
3017.68865	6396.025
3020.10694	6392.625
3022.52376	6362.525
3024.9391	6354.725
3027.35298	6329.625
3029.76539	6328.625
3032.17632	6315.825
3034.5858	6293.825
3036.9938	6301.925
3039.40034	6296.725
3041.80542	6281.625
3044.20903	6253.425
3046.61118	6276.525
3049.01187	6277.125
3051.4111	6258.125
3053.80888	6225.525
3056.20519	6240.425
3058.60005	6199.625
3060.99345	6200.025
3063.3854	6174.125
3065.7759	6159.125
3068.16494	6145.525
3070.55254	6127.925
3072.93868	6121.925
3075.32338	6096.025
3077.70662	6074.525
3080.08842	6068.325
3082.46878	6063.425
3084.84769	6059.225
3087.22515	6044.025
3089.60118	6032.525
3091.97576	6030.425
3094.3489	6047.825
3096.72061	6035.125
3099.09087	6016.925
3101.4597	6006.825
3103.82709	6008.025
3106.19305	6004.525
3108.55757	6010.325
3110.92066	5973.825
3113.28232	5987.425
3115.64255	5960.325
3118.00134	5965.225
3120.35871	5969.325
3122.71466	5946.025
3125.06917	5944.925
3127.42226	5911.825
3129.77393	5939.525
3132.12417	5928.825
3134.47299	5930.125
3136.82039	5925.825
3139.16636	5942.725
3141.51092	5922.425
3143.85406	5917.425
3146.19579	5920.025
3148.53609	5935.425
3150.87499	5941.725
3153.21246	5943.725
3155.54853	5951.325
3157.88318	5937.025
3160.21642	5943.625
3162.54826	5929.725
3164.87868	5942.325
3167.2077	5945.625
3169.5353	5935.625
3171.86151	5956.725
3174.18631	5938.425
3176.5097	5954.325
3178.83169	5938.925
3181.15228	5926.425
3183.47147	5909.325
3185.78926	5918.125
3188.10565	5906.625
3190.42065	5909.225
