Data from AgNPs_UA_1uM_CRN_0uM_R6G_10uM_Q_RamanShift__15__12-28-15-882.txt Node

Date: Wed Jul 13 12:28:15 BST 2022
User: TCL
Spectrometer: QEP01345
Trigger mode: 4
Integration Time (sec): 7.000000E0
Scans to average: 10
Electric dark correction enabled: true
Nonlinearity correction enabled: false
Boxcar width: 0
XAxis mode: Raman Shifts
Number of Pixels in Spectrum: 1044
>>>>>Begin Spectral Data<<<<<
46.04893	-1.825
50.45542	-1.725
54.85868	-1.825
59.25871	-0.025
63.6555	133.275
68.04907	132.475
72.43941	142.175
76.82654	144.775
81.21044	153.275
85.59113	156.075
89.96862	163.275
94.34289	167.275
98.71396	170.275
103.08183	169.375
107.4465	183.275
111.80798	185.275
116.16626	191.975
120.52136	202.075
124.87327	206.775
129.222	221.275
133.56755	233.275
137.90993	252.575
142.24913	275.775
146.58517	311.975
150.91804	358.675
155.24774	421.975
159.57429	519.975
163.89768	665.475
168.21792	884.675
172.53501	1212.675
176.84895	1687.175
181.15975	2407.875
185.46741	3337.575
189.77193	4604.375
194.07331	6172.275
198.37157	7964.875
202.6667	9841.075
206.9587	11689.975
211.24758	13500.275
215.53334	15344.075
219.81599	17268.475
224.09553	19357.075
228.37195	21638.675
232.64527	24123.975
236.91549	26799.275
241.18261	29541.175
245.44663	32115.975
249.70755	34520.075
253.96539	36604.875
258.22014	38475.975
262.4718	39938.675
266.72039	40859.775
270.96589	41275.875
275.20832	41309.075
279.44768	41064.375
283.68397	40590.375
287.91719	40323.875
292.14735	39954.075
296.37445	39840.875
300.59849	39945.075
304.81948	40119.975
309.03742	40172.775
313.25231	40258.175
317.46415	40001.875
321.67296	39565.975
325.87872	39148.975
330.08145	39088.975
334.28114	39281.775
338.47781	39727.175
342.67145	40271.175
346.86207	40926.575
351.04966	41696.275
355.23424	42358.975
359.4158	43060.175
363.59435	43622.075
367.76989	43972.375
371.94243	44236.875
376.11196	44501.375
380.27849	44664.175
384.44203	44951.075
388.60257	45268.775
392.76012	45640.075
396.91468	46208.275
401.06626	46834.475
405.21485	47131.775
409.36047	47104.875
413.50311	46725.675
417.64277	46565.575
421.77947	46670.675
425.9132	46840.875
430.04396	47046.175
434.17176	47325.675
438.2966	47657.675
442.41849	48221.475
446.53742	48696.875
450.6534	49351.975
454.76644	49840.375
458.87653	50115.675
462.98368	50295.775
467.08789	50385.975
471.18916	50238.375
475.2875	49956.475
479.38291	49828.275
483.4754	49704.475
487.56496	49572.975
491.6516	49620.575
495.73531	49651.275
499.81612	49608.875
503.89401	49979.675
507.96899	50233.175
512.04106	50405.575
516.11023	50496.175
520.1765	50442.675
524.23987	50485.175
528.30034	50486.275
532.35792	50455.475
536.41261	50339.675
540.46441	50131.275
544.51333	50159.075
548.55936	50454.675
552.60252	50899.675
556.64279	51377.875
560.6802	51727.375
564.71473	52043.075
568.7464	52456.875
572.7752	52951.475
576.80114	53319.875
580.82422	53773.075
584.84444	54241.675
588.86181	54730.375
592.87633	55190.075
596.888	55469.375
600.89682	55769.975
604.9028	57088.975
608.90594	60265.875
612.90624	63274.475
616.90371	60723.175
620.89834	55513.875
624.89015	53521.175
628.87913	53308.075
632.86528	53823.475
636.84862	54054.675
640.82913	53834.675
644.80683	53282.275
648.78172	53008.775
652.75379	53154.575
656.72306	53652.575
660.68952	54138.075
664.65319	54056.175
668.61405	53802.275
672.57211	53888.375
676.52738	54089.575
680.47986	54044.075
684.42955	53903.775
688.37646	53851.475
692.32058	54051.275
696.26192	54488.175
700.20048	54979.775
704.13626	55282.575
708.06928	55319.375
711.99952	55295.575
715.927	55145.075
719.85171	55196.475
723.77365	55206.575
727.69284	55045.875
731.60928	54925.275
735.52295	54865.275
739.43388	54997.575
743.34206	55138.775
747.24749	55339.675
751.15017	55541.875
755.05012	55938.675
758.94733	56629.775
762.8418	58222.975
766.73354	60544.675
770.62254	62375.075
774.50882	62566.175
778.39237	61535.075
782.27321	59867.775
786.15132	58218.175
790.02671	57076.675
793.89938	56484.875
797.76935	56169.175
801.6366	56019.675
805.50115	55922.875
809.36299	55863.575
813.22213	55873.975
817.07857	55898.575
820.93231	56020.075
824.78336	56069.875
828.63172	56182.075
832.47738	56125.675
836.32036	56155.975
840.16066	56205.775
843.99827	56319.875
847.8332	56351.475
851.66546	56499.275
855.49504	56577.975
859.32195	56618.275
863.1462	56687.475
866.96777	56798.975
870.78668	56911.575
874.60293	57054.475
878.41652	57144.675
882.22745	57369.675
886.03573	57545.475
889.84136	57539.575
893.64433	57584.275
897.44466	57529.375
901.24235	57476.275
905.0374	57456.875
908.8298	57292.575
912.61957	57351.275
916.40671	57420.875
920.19121	57583.975
923.97308	57874.275
927.75233	57946.775
931.52895	57842.675
935.30295	57671.775
939.07433	57198.475
942.84309	56954.575
946.60924	56903.175
950.37278	56835.375
954.13371	56798.775
957.89203	56679.975
961.64774	56601.675
965.40086	56561.375
969.15137	56534.775
972.89929	56511.375
976.64461	56445.275
980.38733	56451.675
984.12747	56544.475
987.86502	56637.475
991.59999	56744.375
995.33237	56957.075
999.06217	57146.275
1002.78939	57521.075
1006.51404	58093.375
1010.23611	58470.275
1013.95561	58698.275
1017.67255	58783.575
1021.38692	58653.075
1025.09872	58366.675
1028.80796	58113.375
1032.51465	57998.075
1036.21877	58030.275
1039.92035	58051.175
1043.61937	58178.375
1047.31584	58309.375
1051.00976	58529.275
1054.70114	58640.775
1058.38998	58863.275
1062.07627	59124.975
1065.76003	59367.275
1069.44126	59727.975
1073.11995	60365.175
1076.79611	60931.675
1080.46974	61301.775
1084.14085	61484.175
1087.80943	61700.875
1091.47549	61724.475
1095.13903	61645.575
1098.80005	61455.275
1102.45857	61200.475
1106.11456	60937.975
1109.76805	60510.875
1113.41903	60306.575
1117.06751	60488.475
1120.71348	60779.775
1124.35696	61220.275
1127.99793	61632.075
1131.63641	61509.075
1135.2724	60994.175
1138.90589	60756.175
1142.5369	60543.775
1146.16542	60369.275
1149.79145	60338.675
1153.415	60300.775
1157.03607	60334.275
1160.65467	60594.475
1164.27079	61259.275
1167.88443	62140.475
1171.49561	63370.875
1175.10432	65260.875
1178.71056	67483.275
1182.31434	69233.075
1185.91565	70038.275
1189.51451	70031.375
1193.11091	69568.775
1196.70485	68801.175
1200.29634	67827.775
1203.88538	66926.575
1207.47197	65913.075
1211.05612	65157.875
1214.63782	64421.375
1218.21708	63782.675
1221.79391	63252.775
1225.36829	62972.675
1228.94024	62817.475
1232.50976	62789.575
1236.07685	62776.975
1239.6415	62771.775
1243.20374	62853.375
1246.76355	63002.875
1250.32093	63204.275
1253.8759	63574.675
1257.42845	64283.975
1260.97859	65141.875
1264.52631	65943.475
1268.07163	66564.575
1271.61453	67005.775
1275.15503	67538.775
1278.69312	67776.675
1282.22882	68229.575
1285.76211	68675.475
1289.29301	69368.975
1292.82151	70091.775
1296.34761	71047.575
1299.87133	72208.375
1303.39266	73789.075
1306.9116	75921.175
1310.42815	78055.875
1313.94233	78836.175
1317.45412	78218.275
1320.96354	76874.675
1324.47058	75738.875
1327.97525	74734.875
1331.47754	74021.975
1334.97747	73840.575
1338.47502	74032.275
1341.97022	74684.675
1345.46305	75906.675
1348.95352	77403.275
1352.44163	78488.275
1355.92738	79396.175
1359.41078	80756.475
1362.89183	82070.275
1366.37053	80630.475
1369.84688	76429.875
1373.32088	71999.775
1376.79254	69146.475
1380.26186	67496.775
1383.72883	66641.575
1387.19347	65900.275
1390.65578	65064.475
1394.11575	64511.375
1397.57339	64032.175
1401.0287	63741.275
1404.48168	63630.475
1407.93234	63570.375
1411.38068	63423.275
1414.82669	63158.675
1418.27039	62662.875
1421.71177	62259.175
1425.15083	61795.375
1428.58758	61616.375
1432.02203	61768.375
1435.45416	61967.175
1438.88399	62268.375
1442.31151	62356.075
1445.73673	62508.775
1449.15965	62585.075
1452.58027	62650.975
1455.9986	62669.875
1459.41463	62837.675
1462.82837	63275.475
1466.23982	63920.775
1469.64898	64281.875
1473.05586	64789.275
1476.46045	65033.975
1479.86276	65276.375
1483.26279	65591.975
1486.66054	65978.375
1490.05602	66547.175
1493.44922	67558.675
1496.84016	69010.975
1500.22882	71083.275
1503.61521	73706.975
1506.99934	76291.275
1510.38121	77918.175
1513.76081	77716.775
1517.13816	75635.375
1520.51324	72845.275
1523.88607	70429.275
1527.25665	68956.975
1530.62498	68172.275
1533.99105	67702.575
1537.35488	67271.875
1540.71647	66774.075
1544.07581	66219.675
1547.4329	65857.375
1550.78776	65536.175
1554.14038	65210.175
1557.49077	65216.075
1560.83892	65421.475
1564.18484	65716.575
1567.52853	66184.975
1570.86999	66548.775
1574.20922	66932.475
1577.54624	66882.875
1580.88103	66047.475
1584.2136	65219.875
1587.54395	65010.475
1590.87208	65482.575
1594.19801	66524.275
1597.52172	67807.175
1600.84321	68116.475
1604.16251	67401.575
1607.47959	66402.075
1610.79447	65035.975
1614.10715	63342.275
1617.41763	61659.175
1620.7259	60498.575
1624.03199	59750.275
1627.33587	59493.875
1630.63757	59754.775
1633.93707	60658.775
1637.23439	62400.675
1640.52951	65186.875
1643.82246	68527.375
1647.11321	71640.275
1650.40179	72854.175
1653.68819	71202.675
1656.97241	67421.975
1660.25446	63337.975
1663.53433	60423.275
1666.81203	58531.075
1670.08756	57308.075
1673.36092	56586.075
1676.63211	55980.275
1679.90115	55574.375
1683.16801	55269.775
1686.43272	55105.375
1689.69527	54866.675
1692.95567	54696.775
1696.2139	54616.175
1699.46999	54589.575
1702.72392	54487.975
1705.97571	54539.675
1709.22535	54564.775
1712.47284	54596.475
1715.71819	54655.075
1718.96139	54600.575
1722.20246	54442.375
1725.44139	54375.475
1728.67818	54242.275
1731.91284	54124.875
1735.14537	53987.075
1738.37576	53903.675
1741.60403	53778.875
1744.83017	53702.875
1748.05418	53596.175
1751.27607	53480.975
1754.49584	53457.875
1757.71349	53489.675
1760.92903	53449.275
1764.14244	53386.975
1767.35375	53366.475
1770.56294	53285.075
1773.77002	53303.575
1776.97499	53313.375
1780.17785	53246.475
1783.37861	53179.675
1786.57727	53053.175
1789.77382	52976.875
1792.96828	52910.875
1796.16064	52852.675
1799.3509	52881.175
1802.53907	52825.075
1805.72514	52720.975
1808.90913	52633.075
1812.09102	52563.975
1815.27083	52398.575
1818.44856	52252.575
1821.6242	52190.675
1824.79776	52115.775
1827.96924	52083.775
1831.13864	52048.775
1834.30597	52022.375
1837.47122	51949.975
1840.6344	51870.475
1843.7955	51904.875
1846.95454	51824.575
1850.11151	51790.975
1853.26642	51768.175
1856.41926	51718.175
1859.57004	51711.675
1862.71876	51654.975
1865.86542	51789.375
1869.01003	51706.875
1872.15258	51518.875
1875.29308	51553.175
1878.43152	51444.975
1881.56792	51362.975
1884.70227	51341.275
1887.83457	51231.475
1890.96482	51170.375
1894.09304	51099.075
1897.21921	51045.775
1900.34335	51023.275
1903.46544	50902.675
1906.58551	50901.875
1909.70353	50807.675
1912.81953	50810.275
1915.93349	50739.275
1919.04543	50598.575
1922.15534	50581.075
1925.26322	50497.075
1928.36908	50398.575
1931.47292	50298.975
1934.57473	50223.075
1937.67453	50069.775
1940.77232	49930.375
1943.86808	49847.175
1946.96184	49730.975
1950.05358	49612.675
1953.14331	49425.575
1956.23103	49397.975
1959.31675	49220.075
1962.40046	49047.975
1965.48217	48944.875
1968.56188	48767.375
1971.63959	48664.775
1974.7153	48534.375
1977.78901	48407.875
1980.86073	48260.775
1983.93046	48155.175
1986.99819	47977.375
1990.06394	47835.075
1993.1277	47708.075
1996.18947	47511.375
1999.24925	47488.275
2002.30706	47364.075
2005.36288	47169.175
2008.41672	47076.475
2011.46859	46907.875
2014.51848	46740.875
2017.56639	46658.375
2020.61233	46539.375
2023.6563	46350.475
2026.6983	46271.075
2029.73833	46196.075
2032.7764	46034.975
2035.8125	45912.675
2038.84664	45847.075
2041.87881	45787.175
2044.90903	45675.275
2047.93729	45530.775
2050.96359	45495.875
2053.98794	45426.475
2057.01034	45430.875
2060.03078	45392.375
2063.04927	45323.875
2066.06582	45332.875
2069.08042	45324.875
2072.09307	45247.475
2075.10378	45128.675
2078.11255	45145.075
2081.11938	45142.875
2084.12426	45113.775
2087.12722	45113.075
2090.12824	45040.675
2093.12732	45029.375
2096.12447	45109.975
2099.11969	45070.575
2102.11299	45066.275
2105.10435	45112.175
2108.09379	45159.275
2111.08131	45125.175
2114.0669	45162.075
2117.05057	45233.375
2120.03233	45239.775
2123.01216	45340.875
2125.99008	45356.175
2128.96609	45349.175
2131.94018	45455.575
2134.91236	45462.575
2137.88263	45515.575
2140.851	45558.675
2143.81746	45593.675
2146.78201	45528.775
2149.74466	45558.975
2152.7054	45618.375
2155.66425	45558.875
2158.6212	45529.375
2161.57625	45475.275
2164.52941	45518.375
2167.48067	45400.375
2170.43004	45436.375
2173.37752	45442.875
2176.32311	45493.875
2179.26681	45522.875
2182.20863	45421.275
2185.14856	45538.175
2188.08661	45421.475
2191.02278	45429.775
2193.95707	45378.875
2196.88948	45361.475
2199.82001	45311.375
2202.74867	45268.275
2205.67545	45213.075
2208.60037	45090.975
2211.52341	45055.375
2214.44458	44944.075
2217.36388	44855.975
2220.28132	44815.275
2223.1969	44668.675
2226.11061	44633.575
2229.02246	44546.275
2231.93245	44468.275
2234.84058	44399.875
2237.74686	44291.575
2240.65128	44297.675
2243.55385	44235.875
2246.45456	44200.775
2249.35343	44166.475
2252.25044	44114.975
2255.14561	43952.275
2258.03893	43937.275
2260.93041	43850.475
2263.82004	43733.575
2266.70783	43624.975
2269.59378	43564.275
2272.4779	43470.775
2275.36017	43330.575
2278.24061	43246.675
2281.11922	43149.975
2283.996	43076.675
2286.87094	43045.175
2289.74405	42926.475
2292.61534	42893.875
2295.4848	42807.675
2298.35243	42767.975
2301.21824	42739.275
2304.08223	42658.675
2306.94439	42648.975
2309.80474	42674.975
2312.66327	42700.775
2315.51999	42528.975
2318.37489	42490.575
2321.22797	42419.075
2324.07925	42324.775
2326.92871	42293.475
2329.77637	42216.775
2332.62222	42130.075
2335.46626	42061.575
2338.3085	41977.275
2341.14893	41830.475
2343.98756	41771.975
2346.8244	41719.775
2349.65943	41708.475
2352.49267	41743.775
2355.32411	41782.075
2358.15376	41774.375
2360.98161	41689.375
2363.80768	41624.575
2366.63195	41598.575
2369.45444	41553.675
2372.27514	41497.575
2375.09405	41501.575
2377.91118	41412.575
2380.72652	41342.375
2383.54009	41227.875
2386.35187	41111.375
2389.16188	41008.575
2391.97011	40943.575
2394.77657	40864.075
2397.58125	40745.875
2400.38416	40700.875
2403.18529	40621.975
2405.98466	40638.775
2408.78226	40544.275
2411.57809	40478.575
2414.37216	40414.675
2417.16446	40452.975
2419.955	40387.775
2422.74378	40345.675
2425.5308	40260.375
2428.31606	40287.375
2431.09956	40237.475
2433.88131	40165.775
2436.6613	40192.675
2439.43954	40062.975
2442.21603	40060.875
2444.99077	40036.975
2447.76377	40003.775
2450.53501	39939.775
2453.30451	39882.975
2456.07226	39813.175
2458.83827	39727.875
2461.60254	39599.675
2464.36507	39619.075
2467.12586	39527.475
2469.88492	39503.375
2472.64224	39530.075
2475.39782	39432.275
2478.15167	39419.475
2480.90379	39338.275
2483.65417	39339.075
2486.40283	39325.375
2489.14976	39284.675
2491.89497	39300.975
2494.63845	39254.575
2497.3802	39210.175
2500.12024	39199.175
2502.85855	39085.075
2505.59514	39079.575
2508.33002	39046.575
2511.06318	38991.175
2513.79462	38918.075
2516.52435	38831.875
2519.25237	38759.675
2521.97867	38718.575
2524.70327	38676.475
2527.42616	38629.575
2530.14734	38607.875
2532.86681	38523.875
2535.58458	38452.275
2538.30065	38390.575
2541.01501	38377.175
2543.72768	38259.675
2546.43864	38183.875
2549.14791	38205.975
2551.85548	38074.475
2554.56136	37969.775
2557.26554	37899.575
2559.96803	37869.075
2562.66883	37756.375
2565.36794	37729.775
2568.06536	37576.775
2570.7611	37561.075
2573.45514	37526.075
2576.14751	37538.075
2578.83819	37419.075
2581.52719	37376.575
2584.21451	37230.975
2586.90015	37194.375
2589.58411	37102.175
2592.2664	37057.375
2594.94701	36931.575
2597.62594	36937.275
2600.30321	36811.375
2602.9788	36758.775
2605.65273	36648.175
2608.32498	36630.875
2610.99557	36513.475
2613.66449	36531.275
2616.33175	36447.275
2618.99734	36466.875
2621.66128	36386.875
2624.32355	36321.975
2626.98416	36262.375
2629.64311	36207.075
2632.30041	36217.275
2634.95605	36143.575
2637.61004	36051.575
2640.26238	35938.575
2642.91306	35836.375
2645.56209	35826.275
2648.20948	35751.375
2650.85521	35716.675
2653.4993	35725.375
2656.14175	35706.975
2658.78255	35712.775
2661.42171	35693.775
2664.05923	35718.875
2666.6951	35721.875
2669.32934	35667.275
2671.96194	35588.775
2674.59291	35656.475
2677.22224	35591.975
2679.84993	35691.875
2682.476	35640.975
2685.10043	35659.575
2687.72324	35588.475
2690.34441	35581.975
2692.96396	35548.675
2695.58188	35552.975
2698.19818	35483.075
2700.81285	35545.775
2703.4259	35492.975
2706.03733	35541.175
2708.64714	35516.575
2711.25533	35551.775
2713.86191	35493.875
2716.46687	35520.875
2719.07021	35479.775
2721.67194	35511.775
2724.27206	35465.075
2726.87057	35471.075
2729.46747	35445.475
2732.06276	35467.875
2734.65644	35455.875
2737.24852	35470.175
2739.83899	35313.875
2742.42786	35315.575
2745.01513	35259.475
2747.60079	35227.875
2750.18486	35129.675
2752.76733	35051.675
2755.3482	35016.675
2757.92747	34992.775
2760.50515	34892.375
2763.08123	34932.375
2765.65573	34846.075
2768.22863	34801.475
2770.79994	34751.875
2773.36967	34704.475
2775.9378	34607.175
2778.50435	34559.275
2781.06932	34534.575
2783.6327	34462.575
2786.1945	34408.075
2788.75471	34344.975
2791.31335	34226.875
2793.87041	34164.575
2796.42589	34108.975
2798.97979	34072.375
2801.53212	33962.175
2804.08288	33899.375
2806.63206	33779.575
2809.17967	33700.675
2811.72571	33567.975
2814.27018	33523.375
2816.81308	33461.275
2819.35442	33439.375
2821.89419	33281.475
2824.43239	33268.275
2826.96904	33230.675
2829.50412	33207.075
2832.03763	33127.975
2834.56959	33098.475
2837.1	33067.875
2839.62884	33014.475
2842.15613	32946.475
2844.68186	32978.875
2847.20604	32910.975
2849.72867	32874.875
2852.24974	32813.975
2854.76927	32778.875
2857.28724	32748.375
2859.80367	32714.475
2862.31855	32617.475
2864.83189	32561.375
2867.34368	32525.975
2869.85393	32429.175
2872.36264	32390.975
2874.8698	32361.775
2877.37543	32300.775
2879.87952	32274.175
2882.38207	32198.075
2884.88308	32177.075
2887.38256	32146.575
2889.88051	32150.675
2892.37692	32133.675
2894.8718	32146.775
2897.36515	32203.375
2899.85698	32136.375
2902.34727	32193.575
2904.83604	32154.075
2907.32328	32181.875
2909.809	32182.175
2912.29319	32193.875
2914.77587	32155.675
2917.25702	32158.575
2919.73665	32099.075
2922.21476	32086.375
2924.69136	32010.875
2927.16644	32051.375
2929.64	32009.275
2932.11205	31919.175
2934.58258	31838.575
2937.05161	31882.475
2939.51912	31878.775
2941.98513	31876.075
2944.44962	31810.675
2946.91261	31687.275
2949.37409	31739.875
2951.83407	31736.975
2954.29254	31780.975
2956.74951	31690.675
2959.20498	31706.475
2961.65895	31625.975
2964.11142	31702.175
2966.56239	31680.675
2969.01186	31706.975
2971.45984	31631.675
2973.90632	31663.275
2976.35131	31575.075
2978.7948	31532.975
2981.23681	31426.875
2983.67732	31406.575
2986.11635	31319.675
2988.55388	31297.875
2990.98993	31139.475
2993.4245	31099.375
2995.85758	31028.675
2998.28917	30974.175
3000.71928	30927.575
3003.14791	30863.075
3005.57506	30829.175
3008.00073	30740.675
3010.42493	30695.275
3012.84764	30615.175
3015.26888	30617.575
3017.68865	30504.775
3020.10694	30443.475
3022.52376	30433.875
3024.9391	30346.875
3027.35298	30292.575
3029.76539	30266.675
3032.17632	30275.575
3034.5858	30192.675
3036.9938	30183.875
3039.40034	30164.175
3041.80542	30035.675
3044.20903	29945.275
3046.61118	29965.075
3049.01187	29836.575
3051.4111	29891.375
3053.80888	29829.375
3056.20519	29830.575
3058.60005	29726.175
3060.99345	29656.075
3063.3854	29561.075
3065.7759	29503.175
3068.16494	29406.575
3070.55254	29268.975
3072.93868	29253.575
3075.32338	29175.875
3077.70662	29129.375
3080.08842	29047.675
3082.46878	29088.075
3084.84769	28972.075
3087.22515	28975.675
3089.60118	28946.275
3091.97576	28945.875
3094.3489	28909.475
3096.72061	28897.875
3099.09087	28922.675
3101.4597	28897.375
3103.82709	28907.275
3106.19305	28831.175
3108.55757	28806.575
3110.92066	28747.475
3113.28232	28678.375
3115.64255	28651.375
3118.00134	28618.175
3120.35871	28584.375
3122.71466	28496.575
3125.06917	28461.175
3127.42226	28364.475
3129.77393	28386.275
