Data from AgNPs_UA_0uM_CRN_0uM_R6G_10uM_Q_RamanShift__32__11-55-48-784.txt Node

Date: Wed Jul 13 11:55:48 BST 2022
User: TCL
Spectrometer: QEP01345
Trigger mode: 4
Integration Time (sec): 7.000000E0
Scans to average: 10
Electric dark correction enabled: true
Nonlinearity correction enabled: false
Boxcar width: 0
XAxis mode: Raman Shifts
Number of Pixels in Spectrum: 1044
>>>>>Begin Spectral Data<<<<<
46.04893	0.4125
50.45542	0.9125
54.85868	-0.3875
59.25871	-0.0875
63.6555	37.6125
68.04907	42.1125
72.43941	45.0125
76.82654	51.7125
81.21044	55.8125
85.59113	61.1125
89.96862	60.2125
94.34289	65.2125
98.71396	58.8125
103.08183	66.0125
107.4465	69.3125
111.80798	64.8125
116.16626	69.3125
120.52136	65.8125
124.87327	62.4125
129.222	67.3125
133.56755	66.3125
137.90993	71.7125
142.24913	66.2125
146.58517	73.6125
150.91804	75.3125
155.24774	79.0125
159.57429	91.3125
163.89768	103.4125
168.21792	123.3125
172.53501	158.2125
176.84895	206.9125
181.15975	271.2125
185.46741	365.3125
189.77193	486.3125
194.07331	639.8125
198.37157	803.3125
202.6667	984.1125
206.9587	1163.5125
211.24758	1339.2125
215.53334	1521.0125
219.81599	1718.9125
224.09553	1949.8125
228.37195	2207.4125
232.64527	2491.5125
236.91549	2764.2125
241.18261	3036.7125
245.44663	3282.7125
249.70755	3461.3125
253.96539	3623.1125
258.22014	3717.7125
262.4718	3747.3125
266.72039	3776.1125
270.96589	3763.8125
275.20832	3723.0125
279.44768	3665.8125
283.68397	3592.1125
287.91719	3541.5125
292.14735	3541.6125
296.37445	3576.5125
300.59849	3674.5125
304.81948	3802.2125
309.03742	3880.2125
313.25231	3863.7125
317.46415	3706.1125
321.67296	3493.0125
325.87872	3298.3125
330.08145	3218.4125
334.28114	3250.2125
338.47781	3296.6125
342.67145	3363.9125
346.86207	3477.2125
351.04966	3683.6125
355.23424	3894.2125
359.4158	4043.8125
363.59435	4124.6125
367.76989	4132.1125
371.94243	4109.7125
376.11196	4077.9125
380.27849	4050.0125
384.44203	4004.4125
388.60257	3952.8125
392.76012	3963.4125
396.91468	4001.9125
401.06626	4104.8125
405.21485	4155.4125
409.36047	4055.7125
413.50311	3867.5125
417.64277	3700.7125
421.77947	3619.4125
425.9132	3588.9125
430.04396	3618.0125
434.17176	3683.0125
438.2966	3781.9125
442.41849	3945.0125
446.53742	4139.4125
450.6534	4297.8125
454.76644	4345.2125
458.87653	4301.0125
462.98368	4203.3125
467.08789	4044.0125
471.18916	3888.7125
475.2875	3766.6125
479.38291	3644.0125
483.4754	3558.1125
487.56496	3477.4125
491.6516	3426.8125
495.73531	3410.7125
499.81612	3404.4125
503.89401	3438.0125
507.96899	3488.1125
512.04106	3538.4125
516.11023	3575.7125
520.1765	3612.1125
524.23987	3624.2125
528.30034	3580.2125
532.35792	3528.9125
536.41261	3439.8125
540.46441	3350.4125
544.51333	3304.4125
548.55936	3307.5125
552.60252	3388.8125
556.64279	3473.6125
560.6802	3515.4125
564.71473	3570.1125
568.7464	3720.5125
572.7752	3765.4125
576.80114	3688.5125
580.82422	3623.2125
584.84444	3646.1125
588.86181	3775.2125
592.87633	3978.5125
596.888	4185.4125
600.89682	4376.4125
604.9028	4773.0125
608.90594	5796.0125
612.90624	6814.6125
616.90371	6068.0125
620.89834	4326.5125
624.89015	3646.5125
628.87913	3496.3125
632.86528	3523.4125
636.84862	3506.4125
640.82913	3402.1125
644.80683	3229.2125
648.78172	3161.2125
652.75379	3218.5125
656.72306	3387.8125
660.68952	3515.8125
664.65319	3414.0125
668.61405	3240.1125
672.57211	3195.0125
676.52738	3185.1125
680.47986	3142.0125
684.42955	3102.7125
688.37646	3092.9125
692.32058	3152.3125
696.26192	3205.3125
700.20048	3270.7125
704.13626	3314.7125
708.06928	3294.5125
711.99952	3221.3125
715.927	3172.2125
719.85171	3180.7125
723.77365	3130.4125
727.69284	3085.6125
731.60928	3058.3125
735.52295	3075.2125
739.43388	3096.4125
743.34206	3110.9125
747.24749	3129.4125
751.15017	3134.1125
755.05012	3223.8125
758.94733	3444.2125
762.8418	3935.4125
766.73354	4582.6125
770.62254	5169.7125
774.50882	5432.8125
778.39237	5168.5125
782.27321	4433.0125
786.15132	3769.0125
790.02671	3378.9125
793.89938	3199.7125
797.76935	3137.2125
801.6366	3083.8125
805.50115	3046.8125
809.36299	3016.6125
813.22213	3005.5125
817.07857	2988.5125
820.93231	2987.2125
824.78336	3008.4125
828.63172	3031.4125
832.47738	3040.8125
836.32036	3021.6125
840.16066	2992.9125
843.99827	2957.6125
847.8332	2934.7125
851.66546	2933.6125
855.49504	2932.1125
859.32195	2906.7125
863.1462	2878.0125
866.96777	2836.5125
870.78668	2838.5125
874.60293	2846.5125
878.41652	2872.9125
882.22745	2891.9125
886.03573	2911.0125
889.84136	2880.7125
893.64433	2874.4125
897.44466	2875.8125
901.24235	2859.3125
905.0374	2843.2125
908.8298	2815.6125
912.61957	2797.5125
916.40671	2826.8125
920.19121	2868.5125
923.97308	2903.2125
927.75233	2956.7125
931.52895	2954.2125
935.30295	2883.7125
939.07433	2772.6125
942.84309	2697.0125
946.60924	2640.9125
950.37278	2631.1125
954.13371	2607.4125
957.89203	2581.2125
961.64774	2565.7125
965.40086	2547.0125
969.15137	2541.3125
972.89929	2544.3125
976.64461	2537.7125
980.38733	2535.3125
984.12747	2540.5125
987.86502	2569.2125
991.59999	2590.7125
995.33237	2644.0125
999.06217	2747.1125
1002.78939	2854.8125
1006.51404	2957.8125
1010.23611	3020.9125
1013.95561	3051.8125
1017.67255	3044.9125
1021.38692	2949.7125
1025.09872	2850.7125
1028.80796	2806.9125
1032.51465	2826.4125
1036.21877	2881.8125
1039.92035	2946.8125
1043.61937	2976.6125
1047.31584	2940.2125
1051.00976	2890.4125
1054.70114	2860.1125
1058.38998	2829.8125
1062.07627	2830.4125
1065.76003	2849.4125
1069.44126	2871.7125
1073.11995	2928.5125
1076.79611	3003.6125
1080.46974	3095.6125
1084.14085	3187.5125
1087.80943	3243.4125
1091.47549	3237.2125
1095.13903	3144.7125
1098.80005	3002.8125
1102.45857	2920.2125
1106.11456	2890.2125
1109.76805	2937.6125
1113.41903	3038.3125
1117.06751	3168.9125
1120.71348	3346.7125
1124.35696	3546.9125
1127.99793	3646.8125
1131.63641	3525.0125
1135.2724	3298.8125
1138.90589	3135.9125
1142.5369	3039.5125
1146.16542	2985.4125
1149.79145	2974.3125
1153.415	3007.7125
1157.03607	3070.5125
1160.65467	3169.0125
1164.27079	3318.3125
1167.88443	3558.4125
1171.49561	3955.6125
1175.10432	4554.8125
1178.71056	5314.3125
1182.31434	5885.3125
1185.91565	6095.0125
1189.51451	6018.2125
1193.11091	5705.3125
1196.70485	5291.7125
1200.29634	4855.8125
1203.88538	4426.1125
1207.47197	4032.6125
1211.05612	3763.5125
1214.63782	3674.1125
1218.21708	3676.8125
1221.79391	3753.3125
1225.36829	3810.5125
1228.94024	3819.4125
1232.50976	3783.7125
1236.07685	3773.6125
1239.6415	3766.6125
1243.20374	3754.4125
1246.76355	3743.8125
1250.32093	3771.5125
1253.8759	3870.9125
1257.42845	3999.4125
1260.97859	4207.1125
1264.52631	4397.8125
1268.07163	4558.9125
1271.61453	4691.2125
1275.15503	4757.6125
1278.69312	4828.5125
1282.22882	4930.2125
1285.76211	5168.8125
1289.29301	5422.0125
1292.82151	5689.7125
1296.34761	6013.7125
1299.87133	6394.2125
1303.39266	6943.2125
1306.9116	7675.7125
1310.42815	8406.8125
1313.94233	8709.8125
1317.45412	8359.3125
1320.96354	7753.3125
1324.47058	7127.3125
1327.97525	6682.9125
1331.47754	6487.7125
1334.97747	6477.1125
1338.47502	6523.4125
1341.97022	6627.6125
1345.46305	6851.7125
1348.95352	7235.1125
1352.44163	7828.6125
1355.92738	8661.1125
1359.41078	9630.6125
1362.89183	10030.6125
1366.37053	9351.0125
1369.84688	8153.2125
1373.32088	7030.8125
1376.79254	6274.9125
1380.26186	5812.2125
1383.72883	5507.4125
1387.19347	5251.8125
1390.65578	5057.8125
1394.11575	4942.6125
1397.57339	4922.9125
1401.0287	4988.6125
1404.48168	5046.7125
1407.93234	5080.5125
1411.38068	5074.7125
1414.82669	4976.3125
1418.27039	4769.6125
1421.71177	4590.8125
1425.15083	4536.0125
1428.58758	4552.3125
1432.02203	4644.6125
1435.45416	4699.2125
1438.88399	4730.0125
1442.31151	4691.0125
1445.73673	4687.0125
1449.15965	4648.3125
1452.58027	4577.4125
1455.9986	4514.9125
1459.41463	4545.5125
1462.82837	4640.3125
1466.23982	4767.3125
1469.64898	4888.3125
1473.05586	4948.3125
1476.46045	5005.8125
1479.86276	5040.8125
1483.26279	5098.0125
1486.66054	5178.2125
1490.05602	5298.4125
1493.44922	5502.2125
1496.84016	5778.2125
1500.22882	6248.5125
1503.61521	6843.5125
1506.99934	7441.3125
1510.38121	7859.7125
1513.76081	7817.0125
1517.13816	7247.5125
1520.51324	6422.4125
1523.88607	5796.7125
1527.25665	5466.4125
1530.62498	5334.7125
1533.99105	5252.0125
1537.35488	5176.4125
1540.71647	5105.4125
1544.07581	5014.7125
1547.4329	4896.1125
1550.78776	4787.6125
1554.14038	4648.6125
1557.49077	4560.1125
1560.83892	4560.7125
1564.18484	4614.2125
1567.52853	4740.3125
1570.86999	4888.2125
1574.20922	4982.6125
1577.54624	4922.7125
1580.88103	4668.6125
1584.2136	4410.3125
1587.54395	4369.8125
1590.87208	4602.5125
1594.19801	5068.0125
1597.52172	5613.8125
1600.84321	5838.4125
1604.16251	5633.1125
1607.47959	5099.7125
1610.79447	4443.1125
1614.10715	3856.6125
1617.41763	3475.3125
1620.7259	3241.6125
1624.03199	3147.5125
1627.33587	3178.0125
1630.63757	3318.6125
1633.93707	3603.0125
1637.23439	4099.0125
1640.52951	4763.1125
1643.82246	5538.8125
1647.11321	6129.5125
1650.40179	6221.9125
1653.68819	5633.7125
1656.97241	4688.0125
1660.25446	3817.7125
1663.53433	3200.1125
1666.81203	2807.4125
1670.08756	2575.0125
1673.36092	2428.5125
1676.63211	2325.4125
1679.90115	2254.5125
1683.16801	2195.6125
1686.43272	2165.0125
1689.69527	2134.7125
1692.95567	2121.5125
1696.2139	2111.1125
1699.46999	2105.2125
1702.72392	2081.7125
1705.97571	2056.1125
1709.22535	2047.0125
1712.47284	2032.8125
1715.71819	2025.2125
1718.96139	2022.8125
1722.20246	2018.7125
1725.44139	2009.0125
1728.67818	1975.7125
1731.91284	1943.1125
1735.14537	1905.9125
1738.37576	1904.7125
1741.60403	1874.8125
1744.83017	1864.2125
1748.05418	1863.3125
1751.27607	1848.6125
1754.49584	1849.2125
1757.71349	1835.1125
1760.92903	1841.5125
1764.14244	1830.3125
1767.35375	1811.7125
1770.56294	1816.6125
1773.77002	1801.5125
1776.97499	1789.9125
1780.17785	1775.6125
1783.37861	1778.1125
1786.57727	1758.1125
1789.77382	1746.8125
1792.96828	1741.3125
1796.16064	1742.9125
1799.3509	1742.2125
1802.53907	1719.9125
1805.72514	1710.2125
1808.90913	1712.4125
1812.09102	1708.8125
1815.27083	1700.4125
1818.44856	1690.1125
1821.6242	1677.4125
1824.79776	1674.2125
1827.96924	1680.8125
1831.13864	1665.7125
1834.30597	1657.8125
1837.47122	1657.0125
1840.6344	1669.0125
1843.7955	1648.0125
1846.95454	1653.2125
1850.11151	1641.5125
1853.26642	1640.2125
1856.41926	1642.3125
1859.57004	1631.4125
1862.71876	1648.5125
1865.86542	1640.3125
1869.01003	1642.4125
1872.15258	1638.7125
1875.29308	1638.3125
1878.43152	1641.1125
1881.56792	1644.9125
1884.70227	1651.7125
1887.83457	1657.0125
1890.96482	1647.2125
1894.09304	1645.4125
1897.21921	1643.5125
1900.34335	1642.7125
1903.46544	1629.0125
1906.58551	1647.8125
1909.70353	1634.1125
1912.81953	1636.3125
1915.93349	1636.4125
1919.04543	1630.7125
1922.15534	1633.6125
1925.26322	1613.5125
1928.36908	1614.3125
1931.47292	1593.9125
1934.57473	1582.1125
1937.67453	1567.6125
1940.77232	1562.8125
1943.86808	1549.8125
1946.96184	1541.4125
1950.05358	1531.3125
1953.14331	1530.0125
1956.23103	1515.9125
1959.31675	1516.1125
1962.40046	1507.1125
1965.48217	1503.1125
1968.56188	1491.7125
1971.63959	1494.4125
1974.7153	1483.2125
1977.78901	1482.3125
1980.86073	1456.8125
1983.93046	1466.2125
1986.99819	1459.1125
1990.06394	1449.0125
1993.1277	1439.0125
1996.18947	1432.0125
1999.24925	1425.5125
2002.30706	1421.9125
2005.36288	1412.6125
2008.41672	1410.8125
2011.46859	1402.7125
2014.51848	1406.2125
2017.56639	1394.7125
2020.61233	1395.9125
2023.6563	1381.3125
2026.6983	1373.4125
2029.73833	1380.1125
2032.7764	1377.0125
2035.8125	1371.8125
2038.84664	1356.3125
2041.87881	1362.6125
2044.90903	1357.8125
2047.93729	1358.1125
2050.96359	1364.8125
2053.98794	1353.2125
2057.01034	1348.5125
2060.03078	1341.2125
2063.04927	1331.4125
2066.06582	1336.2125
2069.08042	1334.5125
2072.09307	1339.2125
2075.10378	1330.7125
2078.11255	1328.8125
2081.11938	1323.7125
2084.12426	1325.3125
2087.12722	1320.9125
2090.12824	1319.4125
2093.12732	1316.0125
2096.12447	1318.2125
2099.11969	1313.2125
2102.11299	1316.4125
2105.10435	1306.8125
2108.09379	1307.1125
2111.08131	1309.8125
2114.0669	1317.7125
2117.05057	1317.8125
2120.03233	1305.7125
2123.01216	1315.0125
2125.99008	1316.7125
2128.96609	1310.3125
2131.94018	1303.9125
2134.91236	1316.9125
2137.88263	1304.6125
2140.851	1300.3125
2143.81746	1303.3125
2146.78201	1301.4125
2149.74466	1295.4125
2152.7054	1299.3125
2155.66425	1289.4125
2158.6212	1288.0125
2161.57625	1293.4125
2164.52941	1277.3125
2167.48067	1282.7125
2170.43004	1277.3125
2173.37752	1277.3125
2176.32311	1267.9125
2179.26681	1276.6125
2182.20863	1269.1125
2185.14856	1279.0125
2188.08661	1269.9125
2191.02278	1272.1125
2193.95707	1270.1125
2196.88948	1268.8125
2199.82001	1267.3125
2202.74867	1246.9125
2205.67545	1250.6125
2208.60037	1251.4125
2211.52341	1246.4125
2214.44458	1236.8125
2217.36388	1229.9125
2220.28132	1234.3125
2223.1969	1225.9125
2226.11061	1232.9125
2229.02246	1228.3125
2231.93245	1223.2125
2234.84058	1206.2125
2237.74686	1215.4125
2240.65128	1219.1125
2243.55385	1218.4125
2246.45456	1209.1125
2249.35343	1199.4125
2252.25044	1203.4125
2255.14561	1207.6125
2258.03893	1201.2125
2260.93041	1189.2125
2263.82004	1201.4125
2266.70783	1188.3125
2269.59378	1179.6125
2272.4779	1186.3125
2275.36017	1178.7125
2278.24061	1175.8125
2281.11922	1173.3125
2283.996	1170.8125
2286.87094	1161.6125
2289.74405	1154.4125
2292.61534	1157.2125
2295.4848	1155.6125
2298.35243	1151.1125
2301.21824	1149.6125
2304.08223	1156.3125
2306.94439	1153.6125
2309.80474	1141.4125
2312.66327	1156.8125
2315.51999	1148.7125
2318.37489	1144.1125
2321.22797	1140.5125
2324.07925	1134.3125
2326.92871	1141.2125
2329.77637	1129.6125
2332.62222	1124.5125
2335.46626	1123.9125
2338.3085	1135.5125
2341.14893	1129.3125
2343.98756	1121.6125
2346.8244	1113.9125
2349.65943	1129.4125
2352.49267	1128.8125
2355.32411	1126.9125
2358.15376	1126.9125
2360.98161	1130.8125
2363.80768	1136.9125
2366.63195	1141.9125
2369.45444	1136.7125
2372.27514	1134.5125
2375.09405	1125.0125
2377.91118	1129.0125
2380.72652	1124.8125
2383.54009	1112.2125
2386.35187	1114.2125
2389.16188	1101.5125
2391.97011	1103.8125
2394.77657	1092.7125
2397.58125	1082.8125
2400.38416	1091.9125
2403.18529	1085.3125
2405.98466	1085.3125
2408.78226	1081.2125
2411.57809	1090.1125
2414.37216	1080.4125
2417.16446	1084.9125
2419.955	1065.9125
2422.74378	1075.0125
2425.5308	1068.3125
2428.31606	1068.5125
2431.09956	1068.4125
2433.88131	1073.3125
2436.6613	1075.1125
2439.43954	1070.5125
2442.21603	1070.6125
2444.99077	1067.0125
2447.76377	1076.6125
2450.53501	1069.6125
2453.30451	1075.0125
2456.07226	1067.5125
2458.83827	1067.7125
2461.60254	1062.3125
2464.36507	1076.1125
2467.12586	1071.9125
2469.88492	1068.5125
2472.64224	1077.2125
2475.39782	1080.8125
2478.15167	1072.9125
2480.90379	1077.3125
2483.65417	1079.8125
2486.40283	1084.9125
2489.14976	1084.4125
2491.89497	1080.0125
2494.63845	1088.2125
2497.3802	1086.9125
2500.12024	1087.8125
2502.85855	1090.5125
2505.59514	1078.0125
2508.33002	1070.3125
2511.06318	1072.4125
2513.79462	1059.4125
2516.52435	1057.0125
2519.25237	1065.1125
2521.97867	1053.4125
2524.70327	1049.8125
2527.42616	1055.8125
2530.14734	1056.6125
2532.86681	1051.5125
2535.58458	1043.9125
2538.30065	1050.1125
2541.01501	1047.4125
2543.72768	1049.5125
2546.43864	1046.5125
2549.14791	1050.6125
2551.85548	1049.5125
2554.56136	1055.5125
2557.26554	1055.0125
2559.96803	1051.8125
2562.66883	1048.8125
2565.36794	1047.3125
2568.06536	1043.6125
2570.7611	1043.6125
2573.45514	1043.3125
2576.14751	1037.3125
2578.83819	1049.8125
2581.52719	1042.2125
2584.21451	1038.5125
2586.90015	1038.8125
2589.58411	1036.6125
2592.2664	1045.7125
2594.94701	1038.7125
2597.62594	1039.9125
2600.30321	1038.7125
2602.9788	1037.7125
2605.65273	1036.8125
2608.32498	1038.0125
2610.99557	1045.1125
2613.66449	1046.5125
2616.33175	1043.6125
2618.99734	1043.0125
2621.66128	1043.4125
2624.32355	1039.2125
2626.98416	1036.4125
2629.64311	1046.7125
2632.30041	1038.2125
2634.95605	1034.2125
2637.61004	1026.9125
2640.26238	1038.5125
2642.91306	1025.6125
2645.56209	1038.1125
2648.20948	1035.0125
2650.85521	1023.2125
2653.4993	1033.9125
2656.14175	1037.6125
2658.78255	1045.2125
2661.42171	1037.7125
2664.05923	1031.4125
2666.6951	1039.3125
2669.32934	1045.8125
2671.96194	1040.8125
2674.59291	1053.7125
2677.22224	1056.3125
2679.84993	1047.3125
2682.476	1054.5125
2685.10043	1056.3125
2687.72324	1051.4125
2690.34441	1047.5125
2692.96396	1055.1125
2695.58188	1058.1125
2698.19818	1056.1125
2700.81285	1063.8125
2703.4259	1069.0125
2706.03733	1071.5125
2708.64714	1072.2125
2711.25533	1080.0125
2713.86191	1083.5125
2716.46687	1083.5125
2719.07021	1087.3125
2721.67194	1094.8125
2724.27206	1090.0125
2726.87057	1091.4125
2729.46747	1091.1125
2732.06276	1091.6125
2734.65644	1080.4125
2737.24852	1086.6125
2739.83899	1080.7125
2742.42786	1089.0125
2745.01513	1076.3125
2747.60079	1086.0125
2750.18486	1087.1125
2752.76733	1071.1125
2755.3482	1070.5125
2757.92747	1082.5125
2760.50515	1067.2125
2763.08123	1069.4125
2765.65573	1070.0125
2768.22863	1071.0125
2770.79994	1069.5125
2773.36967	1087.4125
2775.9378	1085.8125
2778.50435	1091.2125
2781.06932	1091.3125
2783.6327	1093.7125
2786.1945	1109.7125
2788.75471	1110.4125
2791.31335	1104.0125
2793.87041	1111.6125
2796.42589	1129.7125
2798.97979	1132.5125
2801.53212	1138.0125
2804.08288	1136.6125
2806.63206	1151.2125
2809.17967	1159.8125
2811.72571	1162.7125
2814.27018	1169.3125
2816.81308	1168.0125
2819.35442	1179.9125
2821.89419	1182.4125
2824.43239	1187.7125
2826.96904	1187.6125
2829.50412	1186.2125
2832.03763	1190.0125
2834.56959	1199.4125
2837.1	1207.3125
2839.62884	1222.9125
2842.15613	1247.2125
2844.68186	1272.1125
2847.20604	1318.6125
2849.72867	1347.8125
2852.24974	1357.5125
2854.76927	1366.9125
2857.28724	1361.3125
2859.80367	1361.3125
2862.31855	1346.1125
2864.83189	1343.9125
2867.34368	1340.5125
2869.85393	1330.5125
2872.36264	1325.7125
2874.8698	1313.5125
2877.37543	1309.6125
2879.87952	1304.7125
2882.38207	1301.9125
2884.88308	1304.9125
2887.38256	1295.3125
2889.88051	1299.8125
2892.37692	1302.7125
2894.8718	1311.0125
2897.36515	1312.2125
2899.85698	1320.4125
2902.34727	1324.7125
2904.83604	1325.0125
2907.32328	1329.6125
2909.809	1331.5125
2912.29319	1314.6125
2914.77587	1317.7125
2917.25702	1312.2125
2919.73665	1309.4125
2922.21476	1311.0125
2924.69136	1288.8125
2927.16644	1288.2125
2929.64	1279.4125
2932.11205	1274.6125
2934.58258	1267.6125
2937.05161	1261.3125
2939.51912	1241.2125
2941.98513	1217.9125
2944.44962	1197.8125
2946.91261	1174.2125
2949.37409	1151.2125
2951.83407	1138.8125
2954.29254	1126.8125
2956.74951	1109.1125
2959.20498	1108.4125
2961.65895	1102.7125
2964.11142	1093.5125
2966.56239	1085.6125
2969.01186	1095.7125
2971.45984	1074.7125
2973.90632	1062.9125
2976.35131	1064.6125
2978.7948	1057.0125
2981.23681	1053.6125
2983.67732	1037.8125
2986.11635	1032.1125
2988.55388	1032.9125
2990.98993	1019.1125
2993.4245	1017.8125
2995.85758	1012.6125
2998.28917	1009.3125
3000.71928	1004.7125
3003.14791	1000.6125
3005.57506	1003.4125
3008.00073	994.8125
3010.42493	994.0125
3012.84764	995.1125
3015.26888	987.9125
3017.68865	986.7125
3020.10694	993.1125
3022.52376	978.3125
3024.9391	983.7125
3027.35298	981.4125
3029.76539	985.5125
3032.17632	980.1125
3034.5858	989.4125
3036.9938	987.0125
3039.40034	994.9125
3041.80542	986.3125
3044.20903	983.6125
3046.61118	980.1125
3049.01187	993.0125
3051.4111	984.2125
3053.80888	984.8125
3056.20519	985.6125
3058.60005	998.2125
3060.99345	991.1125
3063.3854	984.3125
3065.7759	992.0125
3068.16494	985.7125
3070.55254	985.4125
3072.93868	984.5125
3075.32338	977.1125
3077.70662	978.8125
3080.08842	983.4125
3082.46878	979.7125
3084.84769	966.9125
3087.22515	971.3125
3089.60118	974.9125
3091.97576	975.2125
3094.3489	972.0125
3096.72061	973.9125
3099.09087	975.0125
3101.4597	974.5125
3103.82709	977.0125
3106.19305	972.0125
3108.55757	977.9125
3110.92066	982.3125
3113.28232	980.2125
3115.64255	988.3125
3118.00134	987.1125
3120.35871	1000.1125
3122.71466	995.1125
3125.06917	1004.1125
3127.42226	1000.9125
3129.77393	1001.2125
3132.12417	996.6125
3134.47299	1012.6125
