Data from AgNPs_UA_100uM_CRN_0uM_R6G_10uM_Q_RamanShift__11__13-25-15-321.txt Node

Date: Tue Jul 26 13:25:15 BST 2022
User: TCL
Spectrometer: QEP01345
Trigger mode: 4
Integration Time (sec): 7.000000E0
Scans to average: 10
Electric dark correction enabled: true
Nonlinearity correction enabled: false
Boxcar width: 0
XAxis mode: Raman Shifts
Number of Pixels in Spectrum: 1044
>>>>>Begin Spectral Data<<<<<
46.04893	-1.325
50.45542	1.275
54.85868	-1.925
59.25871	-0.125
63.6555	66.675
68.04907	68.975
72.43941	77.475
76.82654	77.675
81.21044	85.675
85.59113	86.275
89.96862	93.775
94.34289	94.775
98.71396	98.375
103.08183	100.375
107.4465	96.475
111.80798	100.275
116.16626	103.275
120.52136	106.075
124.87327	109.975
129.222	111.275
133.56755	115.075
137.90993	120.275
142.24913	123.875
146.58517	136.275
150.91804	145.375
155.24774	164.675
159.57429	199.375
163.89768	244.275
168.21792	313.775
172.53501	413.175
176.84895	566.075
181.15975	786.875
185.46741	1089.175
189.77193	1498.075
194.07331	1997.875
198.37157	2555.175
202.6667	3148.575
206.9587	3752.575
211.24758	4316.975
215.53334	4901.375
219.81599	5497.575
224.09553	6152.575
228.37195	6908.775
232.64527	7702.175
236.91549	8584.275
241.18261	9436.875
245.44663	10284.275
249.70755	11003.275
253.96539	11625.275
258.22014	12182.475
262.4718	12608.675
266.72039	12894.175
270.96589	13018.575
275.20832	13040.475
279.44768	12908.175
283.68397	12774.475
287.91719	12617.675
292.14735	12565.075
296.37445	12569.875
300.59849	12616.775
304.81948	12720.875
309.03742	12778.875
313.25231	12794.575
317.46415	12657.775
321.67296	12425.575
325.87872	12224.975
330.08145	12163.775
334.28114	12228.675
338.47781	12301.275
342.67145	12488.375
346.86207	12675.375
351.04966	12948.175
355.23424	13185.975
359.4158	13389.575
363.59435	13561.375
367.76989	13718.075
371.94243	13797.075
376.11196	13894.075
380.27849	13983.675
384.44203	14035.975
388.60257	14102.375
392.76012	14220.075
396.91468	14364.675
401.06626	14546.575
405.21485	14687.375
409.36047	14661.275
413.50311	14521.575
417.64277	14364.875
421.77947	14333.375
425.9132	14383.575
430.04396	14492.475
434.17176	14603.275
438.2966	14717.875
442.41849	14840.275
446.53742	15038.675
450.6534	15193.175
454.76644	15328.475
458.87653	15379.875
462.98368	15439.475
467.08789	15422.975
471.18916	15369.675
475.2875	15290.875
479.38291	15193.275
483.4754	15109.275
487.56496	15072.475
491.6516	15042.575
495.73531	15104.975
499.81612	15141.375
503.89401	15212.575
507.96899	15277.775
512.04106	15326.475
516.11023	15357.975
520.1765	15387.275
524.23987	15416.275
528.30034	15418.175
532.35792	15390.175
536.41261	15354.475
540.46441	15296.575
544.51333	15310.975
548.55936	15368.375
552.60252	15527.075
556.64279	15689.175
560.6802	15705.975
564.71473	15781.575
568.7464	15857.375
572.7752	15962.875
576.80114	16010.075
580.82422	16152.675
584.84444	16281.175
588.86181	16336.975
592.87633	16318.775
596.888	16422.375
600.89682	16648.375
604.9028	17361.575
608.90594	18781.075
612.90624	20163.875
616.90371	19351.775
620.89834	17103.075
624.89015	16180.075
628.87913	16081.275
632.86528	16278.975
636.84862	16428.975
640.82913	16402.375
644.80683	16155.475
648.78172	15986.075
652.75379	15956.575
656.72306	16139.975
660.68952	16318.475
664.65319	16254.975
668.61405	16132.075
672.57211	16072.575
676.52738	16117.975
680.47986	16100.575
684.42955	16045.175
688.37646	16005.875
692.32058	16083.675
696.26192	16142.975
700.20048	16330.475
704.13626	16381.775
708.06928	16447.475
711.99952	16365.275
715.927	16316.475
719.85171	16369.475
723.77365	16391.375
727.69284	16364.075
731.60928	16324.075
735.52295	16307.675
739.43388	16319.375
743.34206	16377.675
747.24749	16399.075
751.15017	16460.675
755.05012	16578.875
758.94733	16858.575
762.8418	17444.975
766.73354	18442.575
770.62254	19365.675
774.50882	19627.375
778.39237	19063.975
782.27321	18101.375
786.15132	17347.675
790.02671	16871.875
793.89938	16601.275
797.76935	16479.075
801.6366	16469.175
805.50115	16401.875
809.36299	16439.675
813.22213	16384.875
817.07857	16376.875
820.93231	16388.075
824.78336	16393.675
828.63172	16401.375
832.47738	16399.175
836.32036	16374.875
840.16066	16369.175
843.99827	16376.375
847.8332	16364.975
851.66546	16374.775
855.49504	16441.875
859.32195	16448.075
863.1462	16469.775
866.96777	16468.175
870.78668	16492.275
874.60293	16530.775
878.41652	16579.275
882.22745	16645.675
886.03573	16688.975
889.84136	16721.775
893.64433	16687.275
897.44466	16647.775
901.24235	16656.275
905.0374	16617.075
908.8298	16572.175
912.61957	16572.175
916.40671	16575.075
920.19121	16651.675
923.97308	16694.275
927.75233	16684.575
931.52895	16708.675
935.30295	16628.475
939.07433	16491.575
942.84309	16369.675
946.60924	16308.775
950.37278	16285.975
954.13371	16281.875
957.89203	16242.675
961.64774	16249.375
965.40086	16257.475
969.15137	16244.475
972.89929	16207.075
976.64461	16177.675
980.38733	16220.775
984.12747	16221.775
987.86502	16269.975
991.59999	16324.675
995.33237	16406.375
999.06217	16526.775
1002.78939	16621.575
1006.51404	16753.075
1010.23611	16969.675
1013.95561	17046.875
1017.67255	17065.575
1021.38692	17038.475
1025.09872	16925.375
1028.80796	16810.375
1032.51465	16793.375
1036.21877	16756.975
1039.92035	16798.475
1043.61937	16859.575
1047.31584	16901.375
1051.00976	16944.675
1054.70114	16981.775
1058.38998	17019.975
1062.07627	17114.375
1065.76003	17208.575
1069.44126	17333.175
1073.11995	17513.775
1076.79611	17687.975
1080.46974	17832.175
1084.14085	17888.875
1087.80943	17967.375
1091.47549	18013.775
1095.13903	17974.475
1098.80005	17839.175
1102.45857	17726.175
1106.11456	17554.075
1109.76805	17504.475
1113.41903	17512.575
1117.06751	17605.075
1120.71348	17799.775
1124.35696	18005.575
1127.99793	18185.475
1131.63641	18170.975
1135.2724	18026.775
1138.90589	17901.575
1142.5369	17810.575
1146.16542	17704.375
1149.79145	17607.375
1153.415	17546.375
1157.03607	17541.075
1160.65467	17645.075
1164.27079	17882.375
1167.88443	18256.475
1171.49561	18716.575
1175.10432	19452.075
1178.71056	20439.275
1182.31434	21330.375
1185.91565	21754.375
1189.51451	21892.975
1193.11091	21757.775
1196.70485	21341.875
1200.29634	20869.575
1203.88538	20353.875
1207.47197	19800.575
1211.05612	19326.375
1214.63782	18937.675
1218.21708	18691.175
1221.79391	18554.675
1225.36829	18466.275
1228.94024	18468.575
1232.50976	18478.975
1236.07685	18463.875
1239.6415	18513.975
1243.20374	18507.875
1246.76355	18585.375
1250.32093	18673.775
1253.8759	18794.075
1257.42845	19073.475
1260.97859	19386.075
1264.52631	19613.875
1268.07163	19864.975
1271.61453	20034.475
1275.15503	20130.375
1278.69312	20278.575
1282.22882	20344.375
1285.76211	20451.575
1289.29301	20662.475
1292.82151	20949.275
1296.34761	21249.675
1299.87133	21691.275
1303.39266	22295.075
1306.9116	23123.075
1310.42815	23959.375
1313.94233	24343.275
1317.45412	24084.575
1320.96354	23646.475
1324.47058	23170.575
1327.97525	22768.475
1331.47754	22490.075
1334.97747	22419.275
1338.47502	22567.775
1341.97022	22964.575
1345.46305	23466.475
1348.95352	24165.375
1352.44163	24859.475
1355.92738	25597.875
1359.41078	26478.275
1362.89183	27229.275
1366.37053	26684.775
1369.84688	24856.875
1373.32088	22806.675
1376.79254	21419.775
1380.26186	20653.275
1383.72883	20181.075
1387.19347	19804.075
1390.65578	19456.375
1394.11575	19101.075
1397.57339	18827.075
1401.0287	18675.775
1404.48168	18587.675
1407.93234	18569.275
1411.38068	18606.775
1414.82669	18617.775
1418.27039	18482.275
1421.71177	18356.675
1425.15083	18193.275
1428.58758	18117.575
1432.02203	18095.875
1435.45416	18141.675
1438.88399	18198.175
1442.31151	18219.575
1445.73673	18286.975
1449.15965	18378.475
1452.58027	18407.775
1455.9986	18398.575
1459.41463	18506.575
1462.82837	18676.175
1466.23982	18942.975
1469.64898	19229.375
1473.05586	19480.575
1476.46045	19643.275
1479.86276	19840.775
1483.26279	19965.175
1486.66054	20187.775
1490.05602	20439.975
1493.44922	20844.675
1496.84016	21492.775
1500.22882	22550.975
1503.61521	23850.275
1506.99934	25131.575
1510.38121	25833.275
1513.76081	25578.275
1517.13816	24536.375
1520.51324	23181.275
1523.88607	22072.675
1527.25665	21378.775
1530.62498	21026.275
1533.99105	20837.575
1537.35488	20653.975
1540.71647	20532.075
1544.07581	20399.575
1547.4329	20207.275
1550.78776	20062.175
1554.14038	19954.475
1557.49077	19946.275
1560.83892	19954.175
1564.18484	20093.775
1567.52853	20319.075
1570.86999	20502.575
1574.20922	20609.275
1577.54624	20532.875
1580.88103	20199.975
1584.2136	19699.575
1587.54395	19408.975
1590.87208	19462.275
1594.19801	19782.875
1597.52172	20239.975
1600.84321	20515.475
1604.16251	20338.875
1607.47959	20059.975
1610.79447	19640.975
1614.10715	19064.075
1617.41763	18529.075
1620.7259	18039.675
1624.03199	17688.975
1627.33587	17586.875
1630.63757	17586.075
1633.93707	17820.575
1637.23439	18339.075
1640.52951	19120.175
1643.82246	20132.075
1647.11321	21241.075
1650.40179	21838.875
1653.68819	21496.975
1656.97241	20314.475
1660.25446	18928.375
1663.53433	17835.775
1666.81203	17144.075
1670.08756	16672.975
1673.36092	16388.975
1676.63211	16196.575
1679.90115	16054.575
1683.16801	15899.175
1686.43272	15785.275
1689.69527	15713.375
1692.95567	15647.075
1696.2139	15606.275
1699.46999	15555.075
1702.72392	15538.775
1705.97571	15475.975
1709.22535	15489.875
1712.47284	15428.075
1715.71819	15431.775
1718.96139	15417.375
1722.20246	15386.075
1725.44139	15331.875
1728.67818	15276.275
1731.91284	15222.375
1735.14537	15209.575
1738.37576	15166.275
1741.60403	15118.275
1744.83017	15067.275
1748.05418	15026.175
1751.27607	15056.675
1754.49584	14973.675
1757.71349	14986.275
1760.92903	14956.675
1764.14244	14961.875
1767.35375	14974.175
1770.56294	14933.375
1773.77002	14906.575
1776.97499	14887.075
1780.17785	14860.575
1783.37861	14873.675
1786.57727	14831.275
1789.77382	14832.275
1792.96828	14835.875
1796.16064	14810.575
1799.3509	14804.975
1802.53907	14773.475
1805.72514	14716.775
1808.90913	14670.675
1812.09102	14657.775
1815.27083	14629.275
1818.44856	14627.875
1821.6242	14610.975
1824.79776	14576.275
1827.96924	14540.475
1831.13864	14513.175
1834.30597	14520.675
1837.47122	14510.375
1840.6344	14505.975
1843.7955	14497.775
1846.95454	14470.375
1850.11151	14451.175
1853.26642	14438.775
1856.41926	14478.575
1859.57004	14459.375
1862.71876	14424.075
1865.86542	14434.875
1869.01003	14425.675
1872.15258	14416.575
1875.29308	14386.675
1878.43152	14351.975
1881.56792	14362.975
1884.70227	14312.875
1887.83457	14292.575
1890.96482	14261.375
1894.09304	14259.575
1897.21921	14244.375
1900.34335	14255.175
1903.46544	14216.375
1906.58551	14218.775
1909.70353	14181.675
1912.81953	14173.175
1915.93349	14151.275
1919.04543	14156.975
1922.15534	14154.975
1925.26322	14131.175
1928.36908	14099.275
1931.47292	14062.575
1934.57473	14029.175
1937.67453	13987.575
1940.77232	13963.875
1943.86808	13925.875
1946.96184	13888.075
1950.05358	13837.275
1953.14331	13813.575
1956.23103	13790.075
1959.31675	13739.675
1962.40046	13730.375
1965.48217	13655.475
1968.56188	13627.275
1971.63959	13606.575
1974.7153	13542.375
1977.78901	13525.375
1980.86073	13451.375
1983.93046	13446.975
1986.99819	13406.675
1990.06394	13373.875
1993.1277	13346.875
1996.18947	13251.175
1999.24925	13257.775
2002.30706	13217.275
2005.36288	13173.075
2008.41672	13158.975
2011.46859	13082.575
2014.51848	13043.175
2017.56639	13027.875
2020.61233	13007.275
2023.6563	12977.375
2026.6983	12943.575
2029.73833	12902.775
2032.7764	12856.875
2035.8125	12822.075
2038.84664	12800.575
2041.87881	12790.175
2044.90903	12780.775
2047.93729	12772.175
2050.96359	12755.675
2053.98794	12732.075
2057.01034	12726.375
2060.03078	12701.775
2063.04927	12680.075
2066.06582	12658.575
2069.08042	12668.675
2072.09307	12656.975
2075.10378	12658.675
2078.11255	12660.875
2081.11938	12669.975
2084.12426	12662.975
2087.12722	12650.775
2090.12824	12615.875
2093.12732	12650.475
2096.12447	12644.475
2099.11969	12620.075
2102.11299	12628.875
2105.10435	12646.475
2108.09379	12668.375
2111.08131	12652.775
2114.0669	12655.975
2117.05057	12687.275
2120.03233	12698.075
2123.01216	12690.575
2125.99008	12725.275
2128.96609	12717.175
2131.94018	12729.075
2134.91236	12760.275
2137.88263	12778.075
2140.851	12757.375
2143.81746	12770.275
2146.78201	12766.675
2149.74466	12767.075
2152.7054	12794.975
2155.66425	12765.975
2158.6212	12741.475
2161.57625	12749.975
2164.52941	12761.675
2167.48067	12774.775
2170.43004	12727.075
2173.37752	12726.875
2176.32311	12725.375
2179.26681	12726.775
2182.20863	12740.675
2185.14856	12703.975
2188.08661	12726.875
2191.02278	12712.975
2193.95707	12706.875
2196.88948	12691.775
2199.82001	12712.475
2202.74867	12683.275
2205.67545	12657.575
2208.60037	12652.875
2211.52341	12628.575
2214.44458	12628.075
2217.36388	12608.875
2220.28132	12555.975
2223.1969	12516.675
2226.11061	12495.975
2229.02246	12480.975
2231.93245	12466.675
2234.84058	12456.075
2237.74686	12407.875
2240.65128	12413.075
2243.55385	12383.875
2246.45456	12379.875
2249.35343	12384.675
2252.25044	12365.375
2255.14561	12341.875
2258.03893	12312.075
2260.93041	12301.275
2263.82004	12248.275
2266.70783	12266.875
2269.59378	12238.775
2272.4779	12227.375
2275.36017	12217.175
2278.24061	12161.475
2281.11922	12129.475
2283.996	12129.275
2286.87094	12074.475
2289.74405	12058.075
2292.61534	12079.075
2295.4848	12040.075
2298.35243	12035.875
2301.21824	12026.575
2304.08223	12032.675
2306.94439	11983.175
2309.80474	11998.775
2312.66327	11985.175
2315.51999	11999.875
2318.37489	11950.675
2321.22797	11952.175
2324.07925	11907.175
2326.92871	11899.875
2329.77637	11886.775
2332.62222	11888.975
2335.46626	11860.675
2338.3085	11823.575
2341.14893	11789.675
2343.98756	11783.475
2346.8244	11804.075
2349.65943	11757.275
2352.49267	11768.075
2355.32411	11751.175
2358.15376	11756.375
2360.98161	11727.675
2363.80768	11724.675
2366.63195	11715.775
2369.45444	11729.575
2372.27514	11704.275
2375.09405	11725.575
2377.91118	11685.575
2380.72652	11667.975
2383.54009	11635.175
2386.35187	11626.275
2389.16188	11586.775
2391.97011	11582.675
2394.77657	11543.875
2397.58125	11515.075
2400.38416	11492.975
2403.18529	11473.575
2405.98466	11478.975
2408.78226	11443.875
2411.57809	11443.275
2414.37216	11438.875
2417.16446	11420.075
2419.955	11376.175
2422.74378	11386.475
2425.5308	11397.575
2428.31606	11384.675
2431.09956	11397.775
2433.88131	11360.475
2436.6613	11350.075
2439.43954	11318.175
2442.21603	11334.375
2444.99077	11331.175
2447.76377	11345.075
2450.53501	11308.475
2453.30451	11286.775
2456.07226	11273.275
2458.83827	11248.275
2461.60254	11231.975
2464.36507	11219.275
2467.12586	11202.575
2469.88492	11215.075
2472.64224	11214.875
2475.39782	11212.375
2478.15167	11230.075
2480.90379	11182.375
2483.65417	11180.375
2486.40283	11165.575
2489.14976	11170.275
2491.89497	11173.375
2494.63845	11158.875
2497.3802	11128.775
2500.12024	11146.475
2502.85855	11135.075
2505.59514	11123.075
2508.33002	11096.675
2511.06318	11057.975
2513.79462	11046.475
2516.52435	11041.575
2519.25237	11034.875
2521.97867	11012.175
2524.70327	10992.775
2527.42616	10971.675
2530.14734	10989.575
2532.86681	10969.275
2535.58458	10939.775
2538.30065	10900.075
2541.01501	10939.375
2543.72768	10875.275
2546.43864	10886.275
2549.14791	10856.175
2551.85548	10849.175
2554.56136	10821.875
2557.26554	10799.375
2559.96803	10787.375
2562.66883	10759.475
2565.36794	10746.275
2568.06536	10711.775
2570.7611	10708.075
2573.45514	10668.375
2576.14751	10678.575
2578.83819	10668.575
2581.52719	10664.975
2584.21451	10627.375
2586.90015	10624.975
2589.58411	10584.575
2592.2664	10565.675
2594.94701	10558.175
2597.62594	10558.775
2600.30321	10525.175
2602.9788	10520.575
2605.65273	10501.475
2608.32498	10478.475
2610.99557	10445.975
2613.66449	10446.075
2616.33175	10469.175
2618.99734	10424.975
2621.66128	10399.675
2624.32355	10400.475
2626.98416	10358.075
2629.64311	10365.075
2632.30041	10336.375
2634.95605	10333.075
2637.61004	10301.875
2640.26238	10272.875
2642.91306	10304.975
2645.56209	10295.575
2648.20948	10281.075
2650.85521	10257.075
2653.4993	10265.775
2656.14175	10240.375
2658.78255	10243.775
2661.42171	10254.075
2664.05923	10247.875
2666.6951	10256.475
2669.32934	10267.775
2671.96194	10251.675
2674.59291	10267.775
2677.22224	10221.175
2679.84993	10226.475
2682.476	10244.375
2685.10043	10219.275
2687.72324	10202.675
2690.34441	10246.775
2692.96396	10233.775
2695.58188	10240.775
2698.19818	10202.775
2700.81285	10181.675
2703.4259	10218.075
2706.03733	10199.375
2708.64714	10205.275
2711.25533	10211.475
2713.86191	10197.575
2716.46687	10206.975
2719.07021	10219.175
2721.67194	10216.275
2724.27206	10192.375
2726.87057	10221.275
2729.46747	10188.175
2732.06276	10208.275
2734.65644	10167.375
2737.24852	10199.275
2739.83899	10154.775
2742.42786	10160.375
2745.01513	10132.775
2747.60079	10125.675
2750.18486	10111.675
2752.76733	10091.375
2755.3482	10093.575
2757.92747	10080.075
2760.50515	10075.675
2763.08123	10046.975
2765.65573	10051.375
2768.22863	10042.875
2770.79994	10038.975
2773.36967	9984.275
2775.9378	9970.275
2778.50435	9955.875
2781.06932	9962.675
2783.6327	9954.475
2786.1945	9937.975
2788.75471	9929.275
2791.31335	9882.575
2793.87041	9889.275
2796.42589	9843.775
2798.97979	9847.775
2801.53212	9836.475
2804.08288	9808.175
2806.63206	9769.175
2809.17967	9763.175
2811.72571	9733.975
2814.27018	9717.775
2816.81308	9699.375
2819.35442	9690.775
2821.89419	9650.075
2824.43239	9682.975
2826.96904	9638.475
2829.50412	9633.075
2832.03763	9610.475
2834.56959	9600.675
2837.1	9579.275
2839.62884	9596.775
2842.15613	9561.275
2844.68186	9567.975
2847.20604	9568.975
2849.72867	9522.275
2852.24974	9515.175
2854.76927	9504.675
2857.28724	9501.975
2859.80367	9495.175
2862.31855	9477.375
2864.83189	9470.375
2867.34368	9450.875
2869.85393	9444.875
2872.36264	9391.475
2874.8698	9404.275
2877.37543	9399.675
2879.87952	9414.375
2882.38207	9408.275
2884.88308	9381.375
2887.38256	9395.075
2889.88051	9382.575
2892.37692	9402.575
2894.8718	9395.875
2897.36515	9399.675
2899.85698	9382.375
2902.34727	9426.775
2904.83604	9398.175
2907.32328	9435.675
2909.809	9413.075
2912.29319	9414.075
2914.77587	9417.775
2917.25702	9393.375
2919.73665	9395.375
2922.21476	9389.975
2924.69136	9383.875
2927.16644	9378.475
2929.64	9361.175
2932.11205	9358.375
2934.58258	9332.375
2937.05161	9333.375
2939.51912	9348.675
2941.98513	9339.275
2944.44962	9326.175
2946.91261	9302.675
2949.37409	9303.475
2951.83407	9299.175
2954.29254	9289.875
2956.74951	9300.675
2959.20498	9289.175
2961.65895	9285.875
2964.11142	9307.875
2966.56239	9283.675
2969.01186	9272.475
2971.45984	9269.675
2973.90632	9277.775
2976.35131	9248.575
2978.7948	9245.275
2981.23681	9232.675
2983.67732	9233.175
2986.11635	9191.475
2988.55388	9201.875
2990.98993	9176.275
2993.4245	9164.675
2995.85758	9130.775
2998.28917	9117.875
3000.71928	9114.375
3003.14791	9074.975
3005.57506	9077.675
3008.00073	9027.875
3010.42493	9058.375
3012.84764	9017.675
3015.26888	9026.775
3017.68865	9001.775
3020.10694	9000.875
3022.52376	8980.975
3024.9391	8945.875
3027.35298	8935.175
3029.76539	8944.775
3032.17632	8925.375
3034.5858	8936.375
3036.9938	8912.275
3039.40034	8897.075
3041.80542	8900.475
3044.20903	8900.875
3046.61118	8893.775
3049.01187	8868.975
3051.4111	8851.275
3053.80888	8812.375
3056.20519	8804.275
3058.60005	8792.175
3060.99345	8793.375
3063.3854	8790.875
3065.7759	8767.575
3068.16494	8738.875
3070.55254	8721.775
3072.93868	8723.275
3075.32338	8671.175
3077.70662	8675.575
3080.08842	8652.175
3082.46878	8670.875
3084.84769	8641.375
3087.22515	8647.575
3089.60118	8651.275
3091.97576	8647.875
3094.3489	8641.475
3096.72061	8633.575
3099.09087	8630.275
3101.4597	8650.075
3103.82709	8652.675
3106.19305	8654.475
3108.55757	8658.575
3110.92066	8633.075
3113.28232	8636.775
3115.64255	8630.475
3118.00134	8599.775
3120.35871	8617.075
3122.71466	8586.175
3125.06917	8570.975
3127.42226	8551.075
3129.77393	8550.475
3132.12417	8536.075
3134.47299	8531.775
3136.82039	8510.575
3139.16636	8521.475
3141.51092	8532.175
3143.85406	8517.575
3146.19579	8526.175
3148.53609	8548.275
