Data from AgNPs_UA_5uM_CRN_0uM_R6G_10uM_Q_RamanShift__15__11-06-45-307.txt Node

Date: Mon Jul 18 11:06:45 BST 2022
User: TCL
Spectrometer: QEP01345
Trigger mode: 4
Integration Time (sec): 7.000000E0
Scans to average: 10
Electric dark correction enabled: true
Nonlinearity correction enabled: false
Boxcar width: 0
XAxis mode: Raman Shifts
Number of Pixels in Spectrum: 1044
>>>>>Begin Spectral Data<<<<<
46.04893	-0.425
50.45542	-3.325
54.85868	-2.325
59.25871	-2.625
63.6555	179.775
68.04907	186.475
72.43941	197.075
76.82654	199.575
81.21044	207.575
85.59113	212.975
89.96862	219.575
94.34289	224.175
98.71396	237.275
103.08183	242.675
107.4465	245.175
111.80798	253.275
116.16626	265.475
120.52136	278.375
124.87327	291.175
129.222	310.375
133.56755	331.675
137.90993	362.875
142.24913	401.275
146.58517	459.975
150.91804	534.675
155.24774	643.175
159.57429	803.175
163.89768	1043.375
168.21792	1390.575
172.53501	1929.875
176.84895	2691.275
181.15975	3809.175
185.46741	5374.175
189.77193	7442.975
194.07331	9971.875
198.37157	12878.275
202.6667	15958.275
206.9587	18982.975
211.24758	21897.075
215.53334	24912.475
219.81599	28008.475
224.09553	31407.975
228.37195	35272.975
232.64527	39345.475
236.91549	43706.575
241.18261	48027.875
245.44663	52050.575
249.70755	55895.175
253.96539	59208.675
258.22014	61967.375
262.4718	64253.875
266.72039	65709.775
270.96589	66323.775
275.20832	66326.775
279.44768	65787.575
283.68397	65025.275
287.91719	64339.375
292.14735	63886.975
296.37445	63637.975
300.59849	63841.175
304.81948	64189.175
309.03742	64544.575
313.25231	64563.875
317.46415	63922.075
321.67296	62884.075
325.87872	62067.775
330.08145	61815.475
334.28114	62195.575
338.47781	62918.275
342.67145	63824.375
346.86207	64969.875
351.04966	66288.075
355.23424	67740.275
359.4158	69054.575
363.59435	70183.775
367.76989	70833.775
371.94243	71345.575
376.11196	71723.175
380.27849	72148.375
384.44203	72723.475
388.60257	73278.375
392.76012	73997.675
396.91468	74839.275
401.06626	75731.075
405.21485	76271.075
409.36047	76153.475
413.50311	75453.475
417.64277	74785.475
421.77947	74576.275
425.9132	74653.275
430.04396	74861.875
434.17176	75189.275
438.2966	75819.175
442.41849	76522.775
446.53742	77546.875
450.6534	78744.775
454.76644	79830.075
458.87653	80529.575
462.98368	80765.375
467.08789	80746.475
471.18916	80473.775
475.2875	79757.775
479.38291	79198.975
483.4754	78752.575
487.56496	78406.275
491.6516	78099.075
495.73531	78002.575
499.81612	78119.275
503.89401	78602.175
507.96899	78994.575
512.04106	79199.975
516.11023	79453.875
520.1765	79629.675
524.23987	79523.175
528.30034	79489.675
532.35792	79526.975
536.41261	79328.475
540.46441	78857.075
544.51333	78928.175
548.55936	79312.375
552.60252	80216.075
556.64279	81167.475
560.6802	81979.875
564.71473	82523.775
568.7464	82950.175
572.7752	83165.875
576.80114	83087.375
580.82422	83235.075
584.84444	83739.075
588.86181	83994.075
592.87633	84152.075
596.888	84580.575
600.89682	85945.075
604.9028	89668.075
608.90594	97575.075
612.90624	104625.375
616.90371	99638.175
620.89834	88515.075
624.89015	83899.675
628.87913	83661.875
632.86528	84488.975
636.84862	85185.775
640.82913	84680.075
644.80683	83429.075
648.78172	82473.475
652.75379	82532.975
656.72306	83497.375
660.68952	84737.175
664.65319	84732.575
668.61405	84430.475
672.57211	84953.175
676.52738	85103.575
680.47986	84423.275
684.42955	83691.075
688.37646	83603.975
692.32058	84043.375
696.26192	85020.775
700.20048	85854.075
704.13626	86110.375
708.06928	85978.375
711.99952	85555.375
715.927	85294.275
719.85171	85410.775
723.77365	85489.575
727.69284	85223.875
731.60928	84881.775
735.52295	84830.775
739.43388	84871.375
743.34206	85042.875
747.24749	85246.375
751.15017	85450.375
755.05012	85985.775
758.94733	87271.475
762.8418	89991.075
766.73354	94100.275
770.62254	97981.875
774.50882	99233.775
778.39237	98163.475
782.27321	95412.875
786.15132	91832.575
790.02671	89008.675
793.89938	87414.575
797.76935	86655.975
801.6366	86168.175
805.50115	86014.775
809.36299	85818.775
813.22213	85778.775
817.07857	85682.975
820.93231	85735.875
824.78336	85927.775
828.63172	86105.675
832.47738	86016.175
836.32036	85919.175
840.16066	85890.275
843.99827	85910.775
847.8332	85888.975
851.66546	86109.175
855.49504	86316.475
859.32195	86505.375
863.1462	86649.675
866.96777	86727.675
870.78668	86842.375
874.60293	87003.275
878.41652	87246.075
882.22745	87520.675
886.03573	87792.575
889.84136	87790.775
893.64433	87740.175
897.44466	87535.575
901.24235	87550.475
905.0374	87456.575
908.8298	87422.775
912.61957	87346.475
916.40671	87422.475
920.19121	87542.175
923.97308	87861.875
927.75233	88207.275
931.52895	88374.875
935.30295	88208.875
939.07433	87581.475
942.84309	86998.475
946.60924	86686.975
950.37278	86519.075
954.13371	86527.075
957.89203	86579.375
961.64774	86666.575
965.40086	86506.975
969.15137	86403.575
972.89929	86285.075
976.64461	86320.475
980.38733	86528.675
984.12747	86722.675
987.86502	87064.775
991.59999	87212.275
995.33237	87563.375
999.06217	88137.375
1002.78939	88925.775
1006.51404	89785.475
1010.23611	90847.475
1013.95561	91368.375
1017.67255	91659.575
1021.38692	91544.675
1025.09872	91021.475
1028.80796	90291.875
1032.51465	89945.775
1036.21877	90144.075
1039.92035	90460.775
1043.61937	90821.375
1047.31584	90834.675
1051.00976	90978.675
1054.70114	91054.875
1058.38998	91427.275
1062.07627	92017.575
1065.76003	92668.375
1069.44126	93488.875
1073.11995	94881.175
1076.79611	96276.575
1080.46974	97011.975
1084.14085	97050.875
1087.80943	97407.075
1091.47549	97839.475
1095.13903	98167.375
1098.80005	98235.875
1102.45857	98468.375
1106.11456	98134.175
1109.76805	96979.875
1113.41903	96280.675
1117.06751	96211.775
1120.71348	96722.075
1124.35696	97139.375
1127.99793	97632.075
1131.63641	97430.475
1135.2724	96484.275
1138.90589	95728.375
1142.5369	95256.075
1146.16542	95140.875
1149.79145	94908.975
1153.415	94616.475
1157.03607	94365.675
1160.65467	94869.075
1164.27079	96106.975
1167.88443	97793.275
1171.49561	100369.475
1175.10432	103637.775
1178.71056	107737.975
1182.31434	111584.875
1185.91565	113640.875
1189.51451	114351.975
1193.11091	114205.675
1196.70485	113009.775
1200.29634	111255.475
1203.88538	109330.975
1207.47197	107257.275
1211.05612	105422.975
1214.63782	103781.875
1218.21708	102505.675
1221.79391	101192.975
1225.36829	100380.275
1228.94024	100012.275
1232.50976	100011.475
1236.07685	100029.775
1239.6415	100231.675
1243.20374	100585.775
1246.76355	101011.375
1250.32093	101604.575
1253.8759	102626.475
1257.42845	104273.675
1260.97859	105934.875
1264.52631	107562.075
1268.07163	108857.775
1271.61453	109784.775
1275.15503	110553.975
1278.69312	110844.775
1282.22882	110898.475
1285.76211	111231.175
1289.29301	112003.675
1292.82151	112891.575
1296.34761	114311.775
1299.87133	116146.075
1303.39266	119095.775
1306.9116	123176.275
1310.42815	127666.375
1313.94233	130335.675
1317.45412	130008.175
1320.96354	128191.275
1324.47058	126125.675
1327.97525	123916.775
1331.47754	122247.675
1334.97747	121617.175
1338.47502	122332.475
1341.97022	124798.675
1345.46305	128160.975
1348.95352	131679.275
1352.44163	134135.275
1355.92738	136000.575
1359.41078	138297.075
1362.89183	139872.975
1366.37053	136400.775
1369.84688	127715.975
1373.32088	119172.375
1376.79254	113581.775
1380.26186	110280.775
1383.72883	108395.275
1387.19347	106713.275
1390.65578	105119.375
1394.11575	103716.175
1397.57339	102559.175
1401.0287	102041.975
1404.48168	102025.975
1407.93234	102428.775
1411.38068	102874.275
1414.82669	102943.375
1418.27039	102307.975
1421.71177	101578.875
1425.15083	101051.475
1428.58758	100738.475
1432.02203	100858.275
1435.45416	101282.675
1438.88399	101548.775
1442.31151	101753.175
1445.73673	101941.775
1449.15965	102185.575
1452.58027	102219.075
1455.9986	102204.775
1459.41463	102579.775
1462.82837	103594.975
1466.23982	104842.675
1469.64898	106116.875
1473.05586	106836.075
1476.46045	107504.475
1479.86276	107875.075
1483.26279	108232.075
1486.66054	108759.875
1490.05602	109782.075
1493.44922	111581.475
1496.84016	114538.575
1500.22882	118903.175
1503.61521	124256.575
1506.99934	129362.275
1510.38121	132314.775
1513.76081	131498.775
1517.13816	127335.775
1520.51324	121578.075
1523.88607	116427.875
1527.25665	113052.175
1530.62498	111112.775
1533.99105	109985.975
1537.35488	109099.375
1540.71647	108328.575
1544.07581	107849.675
1547.4329	107441.775
1550.78776	106884.375
1554.14038	106365.875
1557.49077	106213.675
1560.83892	106558.575
1564.18484	107326.375
1567.52853	108306.575
1570.86999	108914.275
1574.20922	109553.975
1577.54624	109337.475
1580.88103	107791.175
1584.2136	106048.775
1587.54395	105174.975
1590.87208	105870.375
1594.19801	108061.575
1597.52172	110836.175
1600.84321	112211.575
1604.16251	111482.075
1607.47959	109633.575
1610.79447	106704.675
1614.10715	103037.475
1617.41763	99591.475
1620.7259	96750.375
1624.03199	94990.275
1627.33587	94559.575
1630.63757	95064.875
1633.93707	96928.775
1637.23439	99966.475
1640.52951	104716.275
1643.82246	110789.975
1647.11321	116295.375
1650.40179	118588.575
1653.68819	115678.775
1656.97241	108534.175
1660.25446	101102.375
1663.53433	95506.275
1666.81203	91767.575
1670.08756	89447.275
1673.36092	88013.875
1676.63211	86922.175
1679.90115	86098.075
1683.16801	85400.075
1686.43272	84864.075
1689.69527	84433.275
1692.95567	84127.775
1696.2139	84007.375
1699.46999	83812.275
1702.72392	83706.475
1705.97571	83717.775
1709.22535	83708.975
1712.47284	83768.575
1715.71819	83879.675
1718.96139	83770.875
1722.20246	83540.875
1725.44139	83259.175
1728.67818	82972.675
1731.91284	82699.375
1735.14537	82453.675
1738.37576	82277.975
1741.60403	82184.875
1744.83017	81955.475
1748.05418	81821.175
1751.27607	81732.275
1754.49584	81558.175
1757.71349	81492.475
1760.92903	81449.075
1764.14244	81338.775
1767.35375	81243.075
1770.56294	81053.475
1773.77002	81036.875
1776.97499	81004.475
1780.17785	80893.475
1783.37861	80674.875
1786.57727	80610.875
1789.77382	80578.675
1792.96828	80405.775
1796.16064	80293.775
1799.3509	80369.275
1802.53907	80080.275
1805.72514	79986.575
1808.90913	79888.575
1812.09102	79776.375
1815.27083	79538.175
1818.44856	79518.375
1821.6242	79411.775
1824.79776	79301.475
1827.96924	79158.375
1831.13864	78883.475
1834.30597	78940.375
1837.47122	78827.275
1840.6344	78784.275
1843.7955	78869.475
1846.95454	78895.075
1850.11151	78703.975
1853.26642	78525.375
1856.41926	78453.175
1859.57004	78520.575
1862.71876	78538.075
1865.86542	78507.875
1869.01003	78439.475
1872.15258	78405.975
1875.29308	78289.175
1878.43152	78054.775
1881.56792	78028.375
1884.70227	77875.275
1887.83457	77721.675
1890.96482	77658.375
1894.09304	77696.475
1897.21921	77613.875
1900.34335	77509.175
1903.46544	77430.675
1906.58551	77298.475
1909.70353	77096.075
1912.81953	76990.775
1915.93349	76832.575
1919.04543	76730.475
1922.15534	76681.275
1925.26322	76468.875
1928.36908	76421.475
1931.47292	76268.275
1934.57473	76069.075
1937.67453	75895.775
1940.77232	75720.775
1943.86808	75445.575
1946.96184	75234.275
1950.05358	74990.875
1953.14331	74840.975
1956.23103	74730.775
1959.31675	74383.475
1962.40046	74298.675
1965.48217	74053.275
1968.56188	73884.275
1971.63959	73734.475
1974.7153	73465.175
1977.78901	73246.275
1980.86073	73021.875
1983.93046	72842.775
1986.99819	72482.875
1990.06394	72344.075
1993.1277	72147.075
1996.18947	71944.575
1999.24925	71847.075
2002.30706	71676.175
2005.36288	71598.775
2008.41672	71453.675
2011.46859	71211.675
2014.51848	70985.275
2017.56639	70920.875
2020.61233	70773.975
2023.6563	70538.175
2026.6983	70277.175
2029.73833	69977.375
2032.7764	69762.675
2035.8125	69618.175
2038.84664	69495.875
2041.87881	69354.675
2044.90903	69193.075
2047.93729	69026.575
2050.96359	69097.975
2053.98794	68915.875
2057.01034	68848.275
2060.03078	68869.275
2063.04927	68712.075
2066.06582	68590.575
2069.08042	68558.375
2072.09307	68591.875
2075.10378	68542.375
2078.11255	68470.375
2081.11938	68475.675
2084.12426	68355.675
2087.12722	68268.175
2090.12824	68224.375
2093.12732	68294.375
2096.12447	68374.975
2099.11969	68388.775
2102.11299	68455.875
2105.10435	68472.975
2108.09379	68487.975
2111.08131	68547.775
2114.0669	68529.175
2117.05057	68538.775
2120.03233	68583.575
2123.01216	68688.075
2125.99008	68665.475
2128.96609	68799.675
2131.94018	68906.275
2134.91236	68866.375
2137.88263	68912.775
2140.851	68975.975
2143.81746	69024.975
2146.78201	69058.875
2149.74466	69062.175
2152.7054	69082.475
2155.66425	68993.375
2158.6212	69123.475
2161.57625	69000.175
2164.52941	68893.375
2167.48067	68964.975
2170.43004	68983.275
2173.37752	68877.875
2176.32311	68827.075
2179.26681	68771.775
2182.20863	68896.975
2185.14856	68909.175
2188.08661	68853.875
2191.02278	68880.475
2193.95707	68848.775
2196.88948	68785.775
2199.82001	68792.375
2202.74867	68690.575
2205.67545	68514.575
2208.60037	68461.875
2211.52341	68250.175
2214.44458	68123.875
2217.36388	67902.475
2220.28132	67848.675
2223.1969	67647.975
2226.11061	67460.575
2229.02246	67385.275
2231.93245	67385.175
2234.84058	67293.575
2237.74686	67078.075
2240.65128	66945.475
2243.55385	66876.375
2246.45456	66900.075
2249.35343	66813.275
2252.25044	66813.475
2255.14561	66675.775
2258.03893	66589.275
2260.93041	66424.575
2263.82004	66243.075
2266.70783	66139.275
2269.59378	66025.775
2272.4779	66059.075
2275.36017	65818.475
2278.24061	65657.275
2281.11922	65500.975
2283.996	65378.075
2286.87094	65291.775
2289.74405	65153.975
2292.61534	65089.275
2295.4848	64965.975
2298.35243	64965.275
2301.21824	64794.475
2304.08223	64748.675
2306.94439	64676.875
2309.80474	64679.175
2312.66327	64677.375
2315.51999	64598.275
2318.37489	64603.775
2321.22797	64427.575
2324.07925	64274.275
2326.92871	64171.075
2329.77637	64118.175
2332.62222	64070.175
2335.46626	63888.175
2338.3085	63814.575
2341.14893	63790.675
2343.98756	63670.875
2346.8244	63597.475
2349.65943	63664.575
2352.49267	63607.475
2355.32411	63568.575
2358.15376	63434.675
2360.98161	63415.975
2363.80768	63421.075
2366.63195	63453.075
2369.45444	63291.075
2372.27514	63171.575
2375.09405	63201.875
2377.91118	63174.775
2380.72652	62944.575
2383.54009	62785.775
2386.35187	62753.975
2389.16188	62625.575
2391.97011	62533.575
2394.77657	62399.875
2397.58125	62306.475
2400.38416	62071.075
2403.18529	61892.075
2405.98466	61990.875
2408.78226	61906.475
2411.57809	61923.575
2414.37216	61728.375
2417.16446	61718.875
2419.955	61561.475
2422.74378	61580.075
2425.5308	61513.175
2428.31606	61415.675
2431.09956	61433.975
2433.88131	61307.575
2436.6613	61321.475
2439.43954	61274.975
2442.21603	61276.975
2444.99077	61193.275
2447.76377	61099.275
2450.53501	60958.975
2453.30451	61050.675
2456.07226	60911.475
2458.83827	60784.975
2461.60254	60707.975
2464.36507	60699.975
2467.12586	60729.175
2469.88492	60539.775
2472.64224	60398.675
2475.39782	60318.675
2478.15167	60350.775
2480.90379	60436.775
2483.65417	60522.575
2486.40283	60485.275
2489.14976	60440.675
2491.89497	60410.875
2494.63845	60320.575
2497.3802	60165.375
2500.12024	60111.575
2502.85855	60057.975
2505.59514	59960.175
2508.33002	59868.775
2511.06318	59870.875
2513.79462	59783.375
2516.52435	59683.475
2519.25237	59697.075
2521.97867	59528.875
2524.70327	59590.175
2527.42616	59453.075
2530.14734	59420.075
2532.86681	59225.975
2535.58458	59158.975
2538.30065	59138.175
2541.01501	59142.475
2543.72768	59076.075
2546.43864	58986.475
2549.14791	58830.475
2551.85548	58792.175
2554.56136	58712.075
2557.26554	58557.875
2559.96803	58444.575
2562.66883	58323.475
2565.36794	58224.275
2568.06536	57984.975
2570.7611	57895.475
2573.45514	57780.575
2576.14751	57681.275
2578.83819	57568.275
2581.52719	57508.875
2584.21451	57409.575
2586.90015	57310.475
2589.58411	57220.675
2592.2664	57193.275
2594.94701	57029.275
2597.62594	56977.575
2600.30321	56917.175
2602.9788	56811.275
2605.65273	56646.175
2608.32498	56576.475
2610.99557	56563.575
2613.66449	56578.375
2616.33175	56485.175
2618.99734	56364.775
2621.66128	56204.375
2624.32355	56145.675
2626.98416	56139.475
2629.64311	56101.775
2632.30041	55996.075
2634.95605	55865.675
2637.61004	55747.475
2640.26238	55722.975
2642.91306	55627.475
2645.56209	55584.275
2648.20948	55469.875
2650.85521	55437.475
2653.4993	55462.075
2656.14175	55414.575
2658.78255	55473.375
2661.42171	55476.575
2664.05923	55635.375
2666.6951	55573.175
2669.32934	55525.775
2671.96194	55478.375
2674.59291	55537.575
2677.22224	55400.075
2679.84993	55385.875
2682.476	55274.175
2685.10043	55307.675
2687.72324	55243.475
2690.34441	55239.375
2692.96396	55175.275
2695.58188	55179.075
2698.19818	55096.975
2700.81285	55220.775
2703.4259	55137.075
2706.03733	55187.675
2708.64714	55173.175
2711.25533	55101.575
2713.86191	55145.575
2716.46687	55246.975
2719.07021	55194.875
2721.67194	55120.075
2724.27206	55129.175
2726.87057	55148.475
2729.46747	55001.975
2732.06276	55093.075
2734.65644	55026.175
2737.24852	55058.375
2739.83899	54953.175
2742.42786	54908.875
2745.01513	54689.375
2747.60079	54585.475
2750.18486	54675.275
2752.76733	54641.375
2755.3482	54638.575
2757.92747	54609.275
2760.50515	54544.675
2763.08123	54386.175
2765.65573	54200.575
2768.22863	54203.175
2770.79994	54142.275
2773.36967	54144.775
2775.9378	54066.475
2778.50435	53896.775
2781.06932	53879.975
2783.6327	53881.675
2786.1945	53751.775
2788.75471	53711.375
2791.31335	53438.875
2793.87041	53304.375
2796.42589	53114.575
2798.97979	53171.575
2801.53212	53016.175
2804.08288	52977.775
2806.63206	52884.275
2809.17967	52772.175
2811.72571	52615.475
2814.27018	52498.675
2816.81308	52313.175
2819.35442	52094.875
2821.89419	51969.175
2824.43239	51945.175
2826.96904	51807.975
2829.50412	51763.275
2832.03763	51717.275
2834.56959	51841.475
2837.1	51719.375
2839.62884	51718.775
2842.15613	51600.475
2844.68186	51445.375
2847.20604	51335.175
2849.72867	51282.475
2852.24974	51115.475
2854.76927	51137.775
2857.28724	50973.675
2859.80367	51022.575
2862.31855	51013.875
2864.83189	51041.275
2867.34368	50886.975
2869.85393	50817.075
2872.36264	50621.775
2874.8698	50593.675
2877.37543	50628.375
2879.87952	50493.475
2882.38207	50421.475
2884.88308	50436.075
2887.38256	50408.575
2889.88051	50368.675
2892.37692	50339.175
2894.8718	50356.675
2897.36515	50467.675
2899.85698	50397.975
2902.34727	50458.875
2904.83604	50402.175
2907.32328	50568.175
2909.809	50631.475
2912.29319	50694.675
2914.77587	50695.975
2917.25702	50594.075
2919.73665	50471.875
2922.21476	50547.675
2924.69136	50467.875
2927.16644	50382.875
2929.64	50282.275
2932.11205	50285.075
2934.58258	49999.175
2937.05161	50053.775
2939.51912	50037.075
2941.98513	49967.575
2944.44962	49946.975
2946.91261	49866.775
2949.37409	49913.975
2951.83407	49838.775
2954.29254	49876.575
2956.74951	49853.775
2959.20498	49852.775
2961.65895	49786.175
2964.11142	49829.375
2966.56239	49756.575
2969.01186	49862.875
2971.45984	49712.375
2973.90632	49656.175
2976.35131	49623.975
2978.7948	49532.875
2981.23681	49411.575
2983.67732	49267.175
2986.11635	49236.775
2988.55388	49175.775
2990.98993	49126.975
2993.4245	48923.575
2995.85758	48812.375
2998.28917	48707.075
3000.71928	48720.375
3003.14791	48576.575
3005.57506	48466.575
3008.00073	48204.275
3010.42493	48201.075
3012.84764	48032.775
3015.26888	48060.275
3017.68865	47955.575
3020.10694	47912.175
3022.52376	47809.675
3024.9391	47764.675
3027.35298	47686.275
3029.76539	47672.575
3032.17632	47604.075
3034.5858	47534.175
3036.9938	47545.375
3039.40034	47461.975
3041.80542	47387.175
3044.20903	47238.775
3046.61118	47264.575
3049.01187	47062.775
3051.4111	47085.375
3053.80888	46960.475
3056.20519	46861.875
3058.60005	46708.875
3060.99345	46562.175
3063.3854	46447.975
3065.7759	46379.675
3068.16494	46249.075
3070.55254	46034.875
3072.93868	45957.575
3075.32338	45875.775
3077.70662	45855.275
3080.08842	45680.275
3082.46878	45671.775
3084.84769	45618.675
3087.22515	45681.875
3089.60118	45624.775
3091.97576	45582.075
3094.3489	45527.175
3096.72061	45487.175
3099.09087	45551.175
3101.4597	45444.875
3103.82709	45377.475
3106.19305	45326.475
3108.55757	45311.875
3110.92066	45207.775
3113.28232	45198.975
