Data from AgNPs_UA_200uM_CRN_0uM_R6G_10uM_Q_RamanShift__10__14-11-34-146.txt Node

Date: Tue Jul 26 14:11:34 BST 2022
User: TCL
Spectrometer: QEP01345
Trigger mode: 4
Integration Time (sec): 7.000000E0
Scans to average: 10
Electric dark correction enabled: true
Nonlinearity correction enabled: false
Boxcar width: 0
XAxis mode: Raman Shifts
Number of Pixels in Spectrum: 1044
>>>>>Begin Spectral Data<<<<<
46.04893	-0.7625
50.45542	1.0375
54.85868	-1.9625
59.25871	0.0375
63.6555	44.6375
68.04907	48.3375
72.43941	50.1375
76.82654	49.2375
81.21044	56.3375
85.59113	60.9375
89.96862	58.0375
94.34289	62.2375
98.71396	64.5375
103.08183	66.7375
107.4465	69.4375
111.80798	67.6375
116.16626	71.8375
120.52136	69.8375
124.87327	70.3375
129.222	68.9375
133.56755	67.9375
137.90993	71.8375
142.24913	73.3375
146.58517	75.2375
150.91804	77.9375
155.24774	82.3375
159.57429	97.9375
163.89768	108.5375
168.21792	135.1375
172.53501	174.5375
176.84895	224.0375
181.15975	301.6375
185.46741	411.6375
189.77193	556.3375
194.07331	735.0375
198.37157	937.2375
202.6667	1151.9375
206.9587	1356.2375
211.24758	1561.5375
215.53334	1763.2375
219.81599	1987.1375
224.09553	2213.6375
228.37195	2483.2375
232.64527	2757.5375
236.91549	3076.7375
241.18261	3380.1375
245.44663	3682.5375
249.70755	3933.0375
253.96539	4177.9375
258.22014	4378.3375
262.4718	4530.0375
266.72039	4615.1375
270.96589	4652.2375
275.20832	4625.2375
279.44768	4607.9375
283.68397	4532.8375
287.91719	4465.0375
292.14735	4425.3375
296.37445	4403.3375
300.59849	4367.7375
304.81948	4402.2375
309.03742	4417.8375
313.25231	4343.3375
317.46415	4298.7375
321.67296	4267.5375
325.87872	4240.3375
330.08145	4249.9375
334.28114	4281.3375
338.47781	4310.9375
342.67145	4362.2375
346.86207	4436.0375
351.04966	4496.2375
355.23424	4562.9375
359.4158	4623.1375
363.59435	4698.9375
367.76989	4756.0375
371.94243	4822.8375
376.11196	4859.2375
380.27849	4899.6375
384.44203	4930.3375
388.60257	4991.6375
392.76012	5032.3375
396.91468	5072.1375
401.06626	5108.6375
405.21485	5156.4375
409.36047	5194.9375
413.50311	5159.6375
417.64277	5152.9375
421.77947	5142.7375
425.9132	5150.3375
430.04396	5184.2375
434.17176	5241.6375
438.2966	5269.1375
442.41849	5309.7375
446.53742	5350.8375
450.6534	5419.5375
454.76644	5463.4375
458.87653	5475.0375
462.98368	5523.9375
467.08789	5530.1375
471.18916	5519.4375
475.2875	5538.7375
479.38291	5527.4375
483.4754	5534.1375
487.56496	5567.0375
491.6516	5577.4375
495.73531	5594.4375
499.81612	5614.9375
503.89401	5630.1375
507.96899	5637.9375
512.04106	5644.9375
516.11023	5669.6375
520.1765	5678.4375
524.23987	5689.2375
528.30034	5684.5375
532.35792	5705.7375
536.41261	5727.7375
540.46441	5706.8375
544.51333	5710.2375
548.55936	5701.1375
552.60252	5715.7375
556.64279	5737.9375
560.6802	5760.3375
564.71473	5753.9375
568.7464	5771.3375
572.7752	5775.8375
576.80114	5809.9375
580.82422	5809.7375
584.84444	5841.9375
588.86181	5872.7375
592.87633	5902.0375
596.888	5921.4375
600.89682	5980.2375
604.9028	6114.8375
608.90594	6407.4375
612.90624	6706.4375
616.90371	6582.5375
620.89834	6224.1375
624.89015	6088.8375
628.87913	6137.6375
632.86528	6241.2375
636.84862	6359.5375
640.82913	6374.2375
644.80683	6305.1375
648.78172	6208.1375
652.75379	6143.6375
656.72306	6118.6375
660.68952	6126.0375
664.65319	6103.7375
668.61405	6044.4375
672.57211	6048.8375
676.52738	6039.1375
680.47986	6056.9375
684.42955	6061.7375
688.37646	6072.1375
692.32058	6082.8375
696.26192	6077.2375
700.20048	6113.7375
704.13626	6121.1375
708.06928	6124.6375
711.99952	6118.9375
715.927	6133.8375
719.85171	6151.0375
723.77365	6176.6375
727.69284	6192.3375
731.60928	6218.9375
735.52295	6203.9375
739.43388	6209.0375
743.34206	6201.3375
747.24749	6188.9375
751.15017	6204.1375
755.05012	6194.6375
758.94733	6238.5375
762.8418	6345.6375
766.73354	6516.7375
770.62254	6687.9375
774.50882	6772.6375
778.39237	6690.4375
782.27321	6513.0375
786.15132	6376.8375
790.02671	6287.4375
793.89938	6229.5375
797.76935	6207.9375
801.6366	6209.2375
805.50115	6237.2375
809.36299	6281.8375
813.22213	6300.5375
817.07857	6328.9375
820.93231	6300.9375
824.78336	6263.0375
828.63172	6236.5375
832.47738	6213.8375
836.32036	6214.6375
840.16066	6193.7375
843.99827	6205.6375
847.8332	6204.6375
851.66546	6229.2375
855.49504	6221.0375
859.32195	6231.3375
863.1462	6243.4375
866.96777	6254.1375
870.78668	6273.2375
874.60293	6289.4375
878.41652	6333.7375
882.22745	6368.4375
886.03573	6406.4375
889.84136	6417.6375
893.64433	6411.6375
897.44466	6385.8375
901.24235	6361.6375
905.0374	6329.9375
908.8298	6293.2375
912.61957	6265.2375
916.40671	6269.3375
920.19121	6251.7375
923.97308	6259.7375
927.75233	6260.2375
931.52895	6241.5375
935.30295	6240.5375
939.07433	6215.1375
942.84309	6192.7375
946.60924	6208.6375
950.37278	6187.9375
954.13371	6190.5375
957.89203	6154.9375
961.64774	6149.7375
965.40086	6159.2375
969.15137	6179.5375
972.89929	6137.6375
976.64461	6146.9375
980.38733	6134.2375
984.12747	6147.5375
987.86502	6163.7375
991.59999	6183.5375
995.33237	6211.5375
999.06217	6231.6375
1002.78939	6249.1375
1006.51404	6289.7375
1010.23611	6338.3375
1013.95561	6370.6375
1017.67255	6369.9375
1021.38692	6381.2375
1025.09872	6357.1375
1028.80796	6332.9375
1032.51465	6325.9375
1036.21877	6316.7375
1039.92035	6269.7375
1043.61937	6301.6375
1047.31584	6289.5375
1051.00976	6312.0375
1054.70114	6314.9375
1058.38998	6326.8375
1062.07627	6328.0375
1065.76003	6353.1375
1069.44126	6372.7375
1073.11995	6433.7375
1076.79611	6471.1375
1080.46974	6500.8375
1084.14085	6485.7375
1087.80943	6506.2375
1091.47549	6518.1375
1095.13903	6464.8375
1098.80005	6477.0375
1102.45857	6434.0375
1106.11456	6429.7375
1109.76805	6423.0375
1113.41903	6444.5375
1117.06751	6488.0375
1120.71348	6563.5375
1124.35696	6673.3375
1127.99793	6793.1375
1131.63641	6845.3375
1135.2724	6868.0375
1138.90589	6829.6375
1142.5369	6765.9375
1146.16542	6681.9375
1149.79145	6581.6375
1153.415	6468.7375
1157.03607	6419.6375
1160.65467	6391.1375
1164.27079	6380.3375
1167.88443	6456.0375
1171.49561	6531.1375
1175.10432	6664.4375
1178.71056	6830.4375
1182.31434	6994.9375
1185.91565	7084.5375
1189.51451	7145.9375
1193.11091	7140.2375
1196.70485	7085.4375
1200.29634	7051.8375
1203.88538	6975.8375
1207.47197	6932.2375
1211.05612	6832.8375
1214.63782	6770.8375
1218.21708	6710.7375
1221.79391	6643.4375
1225.36829	6603.1375
1228.94024	6558.7375
1232.50976	6558.2375
1236.07685	6580.5375
1239.6415	6561.1375
1243.20374	6577.6375
1246.76355	6607.9375
1250.32093	6626.0375
1253.8759	6646.6375
1257.42845	6699.3375
1260.97859	6752.1375
1264.52631	6809.8375
1268.07163	6849.9375
1271.61453	6861.9375
1275.15503	6883.5375
1278.69312	6881.5375
1282.22882	6860.3375
1285.76211	6850.8375
1289.29301	6858.0375
1292.82151	6917.3375
1296.34761	6961.4375
1299.87133	7051.1375
1303.39266	7180.7375
1306.9116	7319.8375
1310.42815	7465.1375
1313.94233	7552.5375
1317.45412	7519.6375
1320.96354	7437.4375
1324.47058	7370.7375
1327.97525	7224.4375
1331.47754	7146.8375
1334.97747	7116.5375
1338.47502	7122.7375
1341.97022	7228.8375
1345.46305	7337.9375
1348.95352	7464.7375
1352.44163	7629.9375
1355.92738	7782.5375
1359.41078	7996.3375
1362.89183	8212.5375
1366.37053	8140.8375
1369.84688	7786.2375
1373.32088	7390.0375
1376.79254	7101.1375
1380.26186	6899.2375
1383.72883	6778.7375
1387.19347	6664.6375
1390.65578	6569.5375
1394.11575	6479.8375
1397.57339	6404.0375
1401.0287	6343.2375
1404.48168	6334.3375
1407.93234	6321.0375
1411.38068	6310.4375
1414.82669	6285.8375
1418.27039	6281.2375
1421.71177	6243.2375
1425.15083	6211.5375
1428.58758	6195.7375
1432.02203	6167.1375
1435.45416	6160.8375
1438.88399	6170.6375
1442.31151	6152.6375
1445.73673	6156.5375
1449.15965	6178.8375
1452.58027	6154.1375
1455.9986	6153.9375
1459.41463	6182.7375
1462.82837	6190.2375
1466.23982	6252.2375
1469.64898	6290.9375
1473.05586	6339.2375
1476.46045	6381.8375
1479.86276	6420.1375
1483.26279	6443.6375
1486.66054	6474.2375
1490.05602	6520.0375
1493.44922	6602.7375
1496.84016	6768.6375
1500.22882	6942.2375
1503.61521	7238.7375
1506.99934	7462.5375
1510.38121	7619.0375
1513.76081	7618.7375
1517.13816	7427.8375
1520.51324	7163.1375
1523.88607	6939.8375
1527.25665	6826.5375
1530.62498	6744.4375
1533.99105	6708.9375
1537.35488	6702.8375
1540.71647	6697.5375
1544.07581	6674.4375
1547.4329	6673.6375
1550.78776	6675.8375
1554.14038	6650.9375
1557.49077	6627.6375
1560.83892	6651.0375
1564.18484	6640.7375
1567.52853	6708.5375
1570.86999	6730.7375
1574.20922	6773.7375
1577.54624	6762.2375
1580.88103	6689.1375
1584.2136	6601.5375
1587.54395	6533.6375
1590.87208	6528.6375
1594.19801	6563.1375
1597.52172	6629.0375
1600.84321	6680.2375
1604.16251	6664.7375
1607.47959	6628.3375
1610.79447	6546.3375
1614.10715	6471.9375
1617.41763	6367.4375
1620.7259	6269.5375
1624.03199	6212.9375
1627.33587	6175.3375
1630.63757	6174.5375
1633.93707	6193.5375
1637.23439	6241.0375
1640.52951	6352.4375
1643.82246	6499.9375
1647.11321	6698.8375
1650.40179	6816.0375
1653.68819	6794.3375
1656.97241	6617.5375
1660.25446	6407.7375
1663.53433	6232.9375
1666.81203	6097.7375
1670.08756	6035.1375
1673.36092	6008.4375
1676.63211	5980.8375
1679.90115	5937.5375
1683.16801	5917.4375
1686.43272	5897.7375
1689.69527	5882.0375
1692.95567	5860.2375
1696.2139	5877.6375
1699.46999	5849.5375
1702.72392	5817.9375
1705.97571	5782.6375
1709.22535	5758.4375
1712.47284	5748.5375
1715.71819	5704.3375
1718.96139	5662.4375
1722.20246	5639.3375
1725.44139	5601.9375
1728.67818	5576.9375
1731.91284	5540.5375
1735.14537	5517.7375
1738.37576	5510.1375
1741.60403	5486.4375
1744.83017	5467.4375
1748.05418	5463.8375
1751.27607	5455.6375
1754.49584	5445.8375
1757.71349	5436.1375
1760.92903	5448.2375
1764.14244	5436.6375
1767.35375	5418.1375
1770.56294	5407.5375
1773.77002	5406.7375
1776.97499	5402.0375
1780.17785	5415.2375
1783.37861	5394.0375
1786.57727	5380.3375
1789.77382	5367.0375
1792.96828	5369.3375
1796.16064	5363.9375
1799.3509	5351.7375
1802.53907	5355.6375
1805.72514	5333.9375
1808.90913	5320.5375
1812.09102	5313.4375
1815.27083	5305.9375
1818.44856	5295.9375
1821.6242	5278.7375
1824.79776	5282.1375
1827.96924	5281.7375
1831.13864	5259.1375
1834.30597	5257.6375
1837.47122	5266.9375
1840.6344	5239.3375
1843.7955	5244.1375
1846.95454	5243.5375
1850.11151	5250.9375
1853.26642	5247.0375
1856.41926	5217.7375
1859.57004	5223.4375
1862.71876	5217.0375
1865.86542	5216.8375
1869.01003	5196.9375
1872.15258	5205.2375
1875.29308	5190.7375
1878.43152	5172.8375
1881.56792	5179.9375
1884.70227	5161.8375
1887.83457	5152.0375
1890.96482	5160.5375
1894.09304	5133.6375
1897.21921	5146.3375
1900.34335	5135.2375
1903.46544	5146.6375
1906.58551	5125.1375
1909.70353	5136.8375
1912.81953	5119.6375
1915.93349	5104.5375
1919.04543	5108.7375
1922.15534	5101.7375
1925.26322	5101.5375
1928.36908	5064.1375
1931.47292	5067.2375
1934.57473	5061.1375
1937.67453	5037.0375
1940.77232	5031.3375
1943.86808	5017.2375
1946.96184	5010.7375
1950.05358	4999.4375
1953.14331	4977.9375
1956.23103	4958.4375
1959.31675	4958.0375
1962.40046	4938.7375
1965.48217	4929.8375
1968.56188	4915.0375
1971.63959	4896.3375
1974.7153	4882.0375
1977.78901	4872.9375
1980.86073	4846.5375
1983.93046	4841.0375
1986.99819	4822.0375
1990.06394	4799.2375
1993.1277	4799.0375
1996.18947	4787.8375
1999.24925	4771.4375
2002.30706	4761.1375
2005.36288	4731.5375
2008.41672	4726.9375
2011.46859	4715.3375
2014.51848	4693.3375
2017.56639	4704.3375
2020.61233	4674.5375
2023.6563	4665.6375
2026.6983	4664.3375
2029.73833	4653.1375
2032.7764	4634.0375
2035.8125	4613.9375
2038.84664	4615.0375
2041.87881	4613.8375
2044.90903	4596.3375
2047.93729	4603.9375
2050.96359	4594.1375
2053.98794	4574.0375
2057.01034	4585.3375
2060.03078	4568.5375
2063.04927	4567.5375
2066.06582	4566.7375
2069.08042	4555.0375
2072.09307	4557.5375
2075.10378	4550.2375
2078.11255	4541.1375
2081.11938	4540.4375
2084.12426	4554.6375
2087.12722	4543.8375
2090.12824	4541.1375
2093.12732	4524.6375
2096.12447	4534.2375
2099.11969	4532.0375
2102.11299	4548.8375
2105.10435	4545.0375
2108.09379	4531.8375
2111.08131	4542.6375
2114.0669	4531.8375
2117.05057	4546.0375
2120.03233	4549.6375
2123.01216	4549.5375
2125.99008	4546.5375
2128.96609	4554.5375
2131.94018	4554.4375
2134.91236	4561.6375
2137.88263	4569.1375
2140.851	4564.0375
2143.81746	4568.2375
2146.78201	4566.7375
2149.74466	4572.3375
2152.7054	4577.1375
2155.66425	4576.2375
2158.6212	4565.4375
2161.57625	4561.1375
2164.52941	4549.7375
2167.48067	4571.9375
2170.43004	4562.5375
2173.37752	4555.7375
2176.32311	4551.9375
2179.26681	4555.1375
2182.20863	4563.7375
2185.14856	4568.5375
2188.08661	4550.7375
2191.02278	4549.6375
2193.95707	4544.8375
2196.88948	4543.4375
2199.82001	4542.3375
2202.74867	4526.9375
2205.67545	4538.3375
2208.60037	4523.4375
2211.52341	4503.9375
2214.44458	4491.3375
2217.36388	4492.6375
2220.28132	4463.3375
2223.1969	4470.3375
2226.11061	4454.2375
2229.02246	4458.9375
2231.93245	4448.7375
2234.84058	4439.5375
2237.74686	4434.6375
2240.65128	4440.4375
2243.55385	4417.4375
2246.45456	4408.8375
2249.35343	4405.7375
2252.25044	4416.5375
2255.14561	4395.7375
2258.03893	4405.0375
2260.93041	4388.1375
2263.82004	4382.5375
2266.70783	4373.5375
2269.59378	4366.2375
2272.4779	4354.4375
2275.36017	4336.5375
2278.24061	4320.9375
2281.11922	4327.9375
2283.996	4315.4375
2286.87094	4296.5375
2289.74405	4307.5375
2292.61534	4279.5375
2295.4848	4281.2375
2298.35243	4269.1375
2301.21824	4267.8375
2304.08223	4294.8375
2306.94439	4260.5375
2309.80474	4265.8375
2312.66327	4251.2375
2315.51999	4243.1375
2318.37489	4243.5375
2321.22797	4244.1375
2324.07925	4232.3375
2326.92871	4218.7375
2329.77637	4223.0375
2332.62222	4212.1375
2335.46626	4200.7375
2338.3085	4180.0375
2341.14893	4176.2375
2343.98756	4175.4375
2346.8244	4181.8375
2349.65943	4165.3375
2352.49267	4163.5375
2355.32411	4167.6375
2358.15376	4149.4375
2360.98161	4162.4375
2363.80768	4142.5375
2366.63195	4148.9375
2369.45444	4140.1375
2372.27514	4124.0375
2375.09405	4137.4375
2377.91118	4128.4375
2380.72652	4123.8375
2383.54009	4109.3375
2386.35187	4109.3375
2389.16188	4085.4375
2391.97011	4089.2375
2394.77657	4068.1375
2397.58125	4074.7375
2400.38416	4062.0375
2403.18529	4052.8375
2405.98466	4063.4375
2408.78226	4041.1375
2411.57809	4030.2375
2414.37216	4045.9375
2417.16446	4033.9375
2419.955	4026.8375
2422.74378	4035.0375
2425.5308	4018.4375
2428.31606	3998.0375
2431.09956	4011.7375
2433.88131	3986.6375
2436.6613	4008.2375
2439.43954	3996.0375
2442.21603	3978.6375
2444.99077	3986.3375
2447.76377	3972.2375
2450.53501	3956.9375
2453.30451	3961.4375
2456.07226	3967.6375
2458.83827	3964.0375
2461.60254	3952.5375
2464.36507	3950.3375
2467.12586	3938.8375
2469.88492	3943.8375
2472.64224	3941.6375
2475.39782	3942.5375
2478.15167	3938.6375
2480.90379	3927.2375
2483.65417	3935.0375
2486.40283	3909.3375
2489.14976	3921.2375
2491.89497	3926.3375
2494.63845	3910.6375
2497.3802	3907.8375
2500.12024	3902.2375
2502.85855	3907.2375
2505.59514	3884.6375
2508.33002	3892.0375
2511.06318	3888.6375
2513.79462	3861.0375
2516.52435	3872.2375
2519.25237	3849.3375
2521.97867	3848.1375
2524.70327	3853.1375
2527.42616	3849.2375
2530.14734	3838.8375
2532.86681	3837.5375
2535.58458	3846.8375
2538.30065	3817.3375
2541.01501	3823.5375
2543.72768	3805.8375
2546.43864	3819.8375
2549.14791	3788.1375
2551.85548	3787.6375
2554.56136	3780.1375
2557.26554	3770.5375
2559.96803	3776.3375
2562.66883	3747.4375
2565.36794	3756.5375
2568.06536	3740.5375
2570.7611	3742.3375
2573.45514	3721.2375
2576.14751	3735.6375
2578.83819	3712.7375
2581.52719	3702.0375
2584.21451	3699.2375
2586.90015	3703.9375
2589.58411	3696.7375
2592.2664	3683.2375
2594.94701	3676.9375
2597.62594	3664.8375
2600.30321	3659.6375
2602.9788	3649.8375
2605.65273	3640.6375
2608.32498	3654.0375
2610.99557	3638.4375
2613.66449	3637.3375
2616.33175	3623.9375
2618.99734	3619.0375
2621.66128	3612.0375
2624.32355	3600.1375
2626.98416	3589.9375
2629.64311	3589.7375
2632.30041	3588.6375
2634.95605	3577.2375
2637.61004	3576.1375
2640.26238	3571.1375
2642.91306	3577.4375
2645.56209	3571.1375
2648.20948	3558.4375
2650.85521	3565.5375
2653.4993	3566.9375
2656.14175	3547.8375
2658.78255	3555.0375
2661.42171	3553.7375
2664.05923	3563.2375
2666.6951	3569.7375
2669.32934	3556.1375
2671.96194	3544.6375
2674.59291	3551.1375
2677.22224	3564.0375
2679.84993	3553.6375
2682.476	3548.3375
2685.10043	3553.2375
2687.72324	3520.7375
2690.34441	3528.2375
2692.96396	3528.4375
2695.58188	3542.7375
2698.19818	3539.8375
2700.81285	3532.7375
2703.4259	3522.9375
2706.03733	3526.5375
2708.64714	3533.2375
2711.25533	3528.2375
2713.86191	3532.3375
2716.46687	3517.2375
2719.07021	3530.1375
2721.67194	3528.2375
2724.27206	3520.4375
2726.87057	3523.9375
2729.46747	3524.0375
2732.06276	3535.3375
2734.65644	3529.6375
2737.24852	3519.6375
2739.83899	3513.0375
2742.42786	3537.7375
2745.01513	3504.3375
2747.60079	3505.6375
2750.18486	3486.6375
2752.76733	3476.8375
2755.3482	3475.3375
2757.92747	3478.8375
2760.50515	3469.9375
2763.08123	3470.4375
2765.65573	3459.4375
2768.22863	3469.9375
2770.79994	3451.7375
2773.36967	3446.2375
2775.9378	3447.2375
2778.50435	3434.4375
2781.06932	3425.2375
2783.6327	3419.8375
2786.1945	3414.5375
2788.75471	3415.0375
2791.31335	3392.9375
2793.87041	3406.6375
2796.42589	3400.8375
2798.97979	3393.4375
2801.53212	3386.2375
2804.08288	3379.1375
2806.63206	3358.8375
2809.17967	3348.4375
2811.72571	3355.6375
2814.27018	3347.2375
2816.81308	3328.5375
2819.35442	3336.2375
2821.89419	3320.9375
2824.43239	3324.3375
2826.96904	3317.5375
2829.50412	3307.9375
2832.03763	3308.3375
2834.56959	3299.4375
2837.1	3294.1375
2839.62884	3296.6375
2842.15613	3278.6375
2844.68186	3293.8375
2847.20604	3276.4375
2849.72867	3280.1375
2852.24974	3285.2375
2854.76927	3265.6375
2857.28724	3266.2375
2859.80367	3260.1375
2862.31855	3268.4375
2864.83189	3270.1375
2867.34368	3236.8375
2869.85393	3246.5375
2872.36264	3232.6375
2874.8698	3225.7375
2877.37543	3238.9375
2879.87952	3250.0375
2882.38207	3241.4375
2884.88308	3230.1375
2887.38256	3247.1375
2889.88051	3226.3375
2892.37692	3227.0375
2894.8718	3233.9375
2897.36515	3222.5375
2899.85698	3221.5375
2902.34727	3235.5375
2904.83604	3246.6375
2907.32328	3241.5375
2909.809	3242.3375
2912.29319	3235.2375
2914.77587	3230.9375
2917.25702	3234.1375
2919.73665	3232.0375
2922.21476	3234.0375
2924.69136	3237.8375
2927.16644	3232.7375
2929.64	3231.9375
2932.11205	3222.0375
2934.58258	3220.8375
2937.05161	3230.5375
2939.51912	3223.3375
2941.98513	3214.0375
2944.44962	3208.7375
2946.91261	3206.0375
2949.37409	3220.2375
2951.83407	3207.5375
2954.29254	3207.4375
2956.74951	3215.5375
2959.20498	3208.0375
2961.65895	3215.7375
2964.11142	3212.7375
2966.56239	3201.9375
2969.01186	3214.2375
2971.45984	3204.0375
2973.90632	3208.8375
2976.35131	3208.5375
2978.7948	3191.4375
2981.23681	3200.7375
2983.67732	3193.0375
2986.11635	3188.1375
2988.55388	3182.3375
2990.98993	3170.9375
2993.4245	3168.7375
2995.85758	3160.0375
2998.28917	3157.3375
3000.71928	3154.9375
3003.14791	3145.9375
3005.57506	3149.1375
3008.00073	3133.8375
3010.42493	3138.2375
3012.84764	3136.4375
3015.26888	3131.9375
3017.68865	3129.5375
3020.10694	3135.2375
3022.52376	3117.9375
3024.9391	3132.2375
3027.35298	3118.1375
3029.76539	3105.3375
3032.17632	3110.9375
3034.5858	3105.3375
3036.9938	3104.5375
3039.40034	3096.3375
3041.80542	3110.2375
3044.20903	3108.6375
3046.61118	3110.8375
3049.01187	3112.1375
3051.4111	3098.6375
3053.80888	3094.1375
3056.20519	3095.6375
3058.60005	3083.8375
3060.99345	3094.3375
3063.3854	3089.4375
3065.7759	3073.0375
3068.16494	3084.3375
3070.55254	3066.2375
3072.93868	3077.8375
3075.32338	3070.2375
3077.70662	3065.0375
3080.08842	3063.3375
3082.46878	3063.8375
3084.84769	3056.3375
3087.22515	3074.0375
3089.60118	3064.0375
3091.97576	3080.9375
3094.3489	3078.6375
3096.72061	3090.3375
3099.09087	3100.2375
3101.4597	3092.6375
3103.82709	3095.2375
3106.19305	3083.6375
3108.55757	3098.9375
3110.92066	3095.6375
3113.28232	3104.7375
3115.64255	3097.7375
3118.00134	3100.3375
3120.35871	3101.5375
3122.71466	3102.3375
3125.06917	3093.2375
3127.42226	3099.5375
