Data from AgNPs_UA_50uM_CRN_0uM_R6G_10uM_Q_RamanShift__2__12-13-31-752.txt Node

Date: Tue Jul 26 12:13:31 BST 2022
User: TCL
Spectrometer: QEP01345
Trigger mode: 4
Integration Time (sec): 7.000000E0
Scans to average: 10
Electric dark correction enabled: true
Nonlinearity correction enabled: false
Boxcar width: 0
XAxis mode: Raman Shifts
Number of Pixels in Spectrum: 1044
>>>>>Begin Spectral Data<<<<<
46.04893	0.15
50.45542	-2.15
54.85868	0.15
59.25871	-0.75
63.6555	129.55
68.04907	136.05
72.43941	143.45
76.82654	148.05
81.21044	152.65
85.59113	158.55
89.96862	166.55
94.34289	173.65
98.71396	178.35
103.08183	188.05
107.4465	185.25
111.80798	191.15
116.16626	196.25
120.52136	203.65
124.87327	210.05
129.222	223.45
133.56755	241.35
137.90993	254.05
142.24913	281.85
146.58517	307.55
150.91804	361.75
155.24774	422.15
159.57429	519.25
163.89768	667.15
168.21792	881.85
172.53501	1197.05
176.84895	1667.15
181.15975	2348.15
185.46741	3298.05
189.77193	4560.25
194.07331	6106.35
198.37157	7907.95
202.6667	9774.35
206.9587	11665.85
211.24758	13507.75
215.53334	15391.05
219.81599	17354.35
224.09553	19467.55
228.37195	21804.95
232.64527	24407.95
236.91549	27124.85
241.18261	29795.65
245.44663	32389.75
249.70755	34801.35
253.96539	36923.75
258.22014	38624.45
262.4718	39982.65
266.72039	40856.65
270.96589	41299.95
275.20832	41260.95
279.44768	40993.05
283.68397	40526.85
287.91719	40034.15
292.14735	39553.95
296.37445	39347.45
300.59849	39317.25
304.81948	39413.95
309.03742	39553.45
313.25231	39387.65
317.46415	39044.35
321.67296	38531.95
325.87872	38142.25
330.08145	38043.65
334.28114	38244.45
338.47781	38659.85
342.67145	39112.15
346.86207	39760.65
351.04966	40572.95
355.23424	41384.65
359.4158	42142.65
363.59435	42745.65
367.76989	43316.25
371.94243	43717.95
376.11196	44057.45
380.27849	44393.25
384.44203	44773.95
388.60257	45208.15
392.76012	45612.15
396.91468	46070.25
401.06626	46632.85
405.21485	47097.45
409.36047	47110.45
413.50311	46781.25
417.64277	46417.15
421.77947	46247.95
425.9132	46025.75
430.04396	46003.35
434.17176	46188.85
438.2966	46434.85
442.41849	46839.65
446.53742	47372.85
450.6534	48020.55
454.76644	48674.45
458.87653	49117.65
462.98368	49492.75
467.08789	49622.95
471.18916	49503.25
475.2875	49073.65
479.38291	48608.95
483.4754	48426.55
487.56496	48381.85
491.6516	48281.65
495.73531	48191.75
499.81612	48323.85
503.89401	48686.05
507.96899	48905.15
512.04106	49009.35
516.11023	49050.85
520.1765	48987.95
524.23987	48957.95
528.30034	48814.45
532.35792	48866.55
536.41261	48729.75
540.46441	48566.85
544.51333	48542.95
548.55936	48752.85
552.60252	49214.35
556.64279	49653.45
560.6802	50126.75
564.71473	50437.35
568.7464	50557.35
572.7752	50473.35
576.80114	50388.15
580.82422	50430.35
584.84444	50634.15
588.86181	50853.95
592.87633	50816.75
596.888	51132.65
600.89682	52042.65
604.9028	54389.75
608.90594	58902.65
612.90624	63236.15
616.90371	61031.85
620.89834	54627.35
624.89015	51679.05
628.87913	51500.05
632.86528	51970.15
636.84862	52497.85
640.82913	52144.35
644.80683	51419.35
648.78172	50801.65
652.75379	50838.15
656.72306	51502.25
660.68952	52312.05
664.65319	52512.15
668.61405	52478.75
672.57211	52996.25
676.52738	53204.05
680.47986	52692.85
684.42955	52085.15
688.37646	51918.55
692.32058	52210.75
696.26192	52801.05
700.20048	53506.85
704.13626	53763.85
708.06928	53594.85
711.99952	53296.05
715.927	53083.15
719.85171	53085.85
723.77365	53121.15
727.69284	52932.75
731.60928	52675.75
735.52295	52617.15
739.43388	52592.05
743.34206	52723.25
747.24749	52870.65
751.15017	52967.15
755.05012	53188.75
758.94733	53810.75
762.8418	55294.85
766.73354	57523.85
770.62254	59729.45
774.50882	60891.65
778.39237	60735.85
782.27321	59491.45
786.15132	57554.45
790.02671	55746.65
793.89938	54523.65
797.76935	53884.45
801.6366	53489.25
805.50115	53343.95
809.36299	53227.35
813.22213	53154.95
817.07857	53176.25
820.93231	53293.55
824.78336	53388.65
828.63172	53452.65
832.47738	53491.05
836.32036	53520.85
840.16066	53446.95
843.99827	53534.65
847.8332	53592.25
851.66546	53589.35
855.49504	53747.85
859.32195	53935.85
863.1462	53954.75
866.96777	53965.45
870.78668	53991.15
874.60293	54165.15
878.41652	54277.55
882.22745	54426.15
886.03573	54477.25
889.84136	54548.95
893.64433	54394.25
897.44466	54369.35
901.24235	54291.65
905.0374	54255.95
908.8298	54344.85
912.61957	54386.75
916.40671	54297.75
920.19121	54366.15
923.97308	54404.05
927.75233	54502.25
931.52895	54561.15
935.30295	54420.75
939.07433	54260.95
942.84309	53902.35
946.60924	53673.05
950.37278	53592.45
954.13371	53538.55
957.89203	53582.45
961.64774	53516.65
965.40086	53492.85
969.15137	53440.55
972.89929	53419.85
976.64461	53451.45
980.38733	53389.15
984.12747	53416.05
987.86502	53521.95
991.59999	53734.55
995.33237	53835.55
999.06217	54115.25
1002.78939	54352.15
1006.51404	54774.95
1010.23611	55291.45
1013.95561	55536.75
1017.67255	55782.05
1021.38692	55728.35
1025.09872	55563.55
1028.80796	55253.95
1032.51465	55067.15
1036.21877	55120.85
1039.92035	55199.75
1043.61937	55360.05
1047.31584	55506.05
1051.00976	55701.75
1054.70114	55887.35
1058.38998	56132.35
1062.07627	56448.05
1065.76003	56712.25
1069.44126	57159.85
1073.11995	57954.15
1076.79611	58854.75
1080.46974	59430.45
1084.14085	59437.05
1087.80943	59397.35
1091.47549	59486.55
1095.13903	59831.15
1098.80005	60467.15
1102.45857	61174.65
1106.11456	61261.75
1109.76805	60409.05
1113.41903	59511.65
1117.06751	59239.45
1120.71348	59301.35
1124.35696	59274.45
1127.99793	59274.45
1131.63641	59011.35
1135.2724	58518.35
1138.90589	58117.75
1142.5369	57971.25
1146.16542	57671.75
1149.79145	57429.45
1153.415	57083.25
1157.03607	56938.65
1160.65467	57167.85
1164.27079	57649.25
1167.88443	58460.55
1171.49561	59676.55
1175.10432	61488.85
1178.71056	63690.25
1182.31434	65794.75
1185.91565	66961.95
1189.51451	67365.05
1193.11091	67333.55
1196.70485	66799.95
1200.29634	65883.75
1203.88538	64662.25
1207.47197	63392.15
1211.05612	62203.85
1214.63782	61157.15
1218.21708	60234.15
1221.79391	59404.25
1225.36829	58978.55
1228.94024	58780.65
1232.50976	58869.25
1236.07685	58991.25
1239.6415	59138.95
1243.20374	59448.15
1246.76355	59669.05
1250.32093	59921.85
1253.8759	60251.45
1257.42845	60907.55
1260.97859	61931.55
1264.52631	62966.25
1268.07163	63673.45
1271.61453	64110.55
1275.15503	64297.25
1278.69312	64303.65
1282.22882	64210.55
1285.76211	64266.15
1289.29301	64484.35
1292.82151	64876.25
1296.34761	65436.35
1299.87133	66487.05
1303.39266	67855.05
1306.9116	69823.25
1310.42815	71997.75
1313.94233	73254.25
1317.45412	73035.25
1320.96354	72276.95
1324.47058	71459.85
1327.97525	70275.45
1331.47754	69156.65
1334.97747	68704.35
1338.47502	69025.05
1341.97022	70117.75
1345.46305	72160.75
1348.95352	74456.85
1352.44163	76494.05
1355.92738	77760.65
1359.41078	78787.55
1362.89183	79232.95
1366.37053	77431.15
1369.84688	73185.55
1373.32088	68631.05
1376.79254	65553.85
1380.26186	63584.95
1383.72883	62278.95
1387.19347	61334.45
1390.65578	60379.45
1394.11575	59400.55
1397.57339	58558.95
1401.0287	58018.05
1404.48168	57934.35
1407.93234	58157.45
1411.38068	58597.15
1414.82669	58892.25
1418.27039	58845.85
1421.71177	58671.55
1425.15083	58423.85
1428.58758	57954.35
1432.02203	57563.55
1435.45416	57357.15
1438.88399	57218.55
1442.31151	57071.75
1445.73673	57047.45
1449.15965	57119.85
1452.58027	57195.35
1455.9986	57180.95
1459.41463	57295.55
1462.82837	57757.85
1466.23982	58379.55
1469.64898	59042.75
1473.05586	59601.25
1476.46045	59999.65
1479.86276	60476.25
1483.26279	60962.65
1486.66054	61632.15
1490.05602	62522.95
1493.44922	63881.45
1496.84016	65948.15
1500.22882	68621.85
1503.61521	71728.35
1506.99934	74332.55
1510.38121	75367.35
1513.76081	74680.95
1517.13816	72447.85
1520.51324	69340.05
1523.88607	66626.45
1527.25665	64478.35
1530.62498	63176.75
1533.99105	62340.25
1537.35488	61635.65
1540.71647	61100.55
1544.07581	60756.55
1547.4329	60418.15
1550.78776	60158.65
1554.14038	60038.05
1557.49077	60100.95
1560.83892	60470.25
1564.18484	61133.95
1567.52853	61899.95
1570.86999	62258.35
1574.20922	62481.85
1577.54624	62444.65
1580.88103	61501.15
1584.2136	60398.65
1587.54395	59628.95
1590.87208	59521.15
1594.19801	60146.15
1597.52172	61166.65
1600.84321	61686.85
1604.16251	61356.45
1607.47959	60669.75
1610.79447	59694.85
1614.10715	58228.25
1617.41763	56561.15
1620.7259	55409.75
1624.03199	54651.25
1627.33587	54357.85
1630.63757	54442.75
1633.93707	55058.75
1637.23439	56310.15
1640.52951	58286.65
1643.82246	61191.65
1647.11321	64252.85
1650.40179	65868.65
1653.68819	64845.65
1656.97241	61613.75
1660.25446	58055.25
1663.53433	55369.05
1666.81203	53550.25
1670.08756	52417.85
1673.36092	51710.65
1676.63211	51219.25
1679.90115	50804.25
1683.16801	50488.05
1686.43272	50203.85
1689.69527	49989.05
1692.95567	49903.45
1696.2139	49714.45
1699.46999	49627.65
1702.72392	49595.25
1705.97571	49575.05
1709.22535	49551.55
1712.47284	49550.65
1715.71819	49547.75
1718.96139	49363.25
1722.20246	49351.05
1725.44139	49323.45
1728.67818	49207.85
1731.91284	49010.65
1735.14537	48816.15
1738.37576	48733.65
1741.60403	48637.45
1744.83017	48453.15
1748.05418	48312.75
1751.27607	48253.05
1754.49584	48095.45
1757.71349	48072.15
1760.92903	48001.35
1764.14244	47976.15
1767.35375	47958.35
1770.56294	47884.05
1773.77002	47856.75
1776.97499	47855.55
1780.17785	47778.55
1783.37861	47735.25
1786.57727	47695.95
1789.77382	47630.35
1792.96828	47599.95
1796.16064	47535.85
1799.3509	47472.45
1802.53907	47410.35
1805.72514	47301.25
1808.90913	47133.75
1812.09102	46982.65
1815.27083	46874.05
1818.44856	46784.85
1821.6242	46703.05
1824.79776	46618.85
1827.96924	46525.35
1831.13864	46492.95
1834.30597	46400.45
1837.47122	46356.75
1840.6344	46293.05
1843.7955	46316.85
1846.95454	46290.85
1850.11151	46205.85
1853.26642	46139.55
1856.41926	46116.75
1859.57004	46079.05
1862.71876	45997.25
1865.86542	45984.25
1869.01003	46005.85
1872.15258	45887.45
1875.29308	45805.55
1878.43152	45695.45
1881.56792	45600.25
1884.70227	45583.45
1887.83457	45568.45
1890.96482	45406.85
1894.09304	45296.35
1897.21921	45270.55
1900.34335	45214.95
1903.46544	45166.65
1906.58551	45073.35
1909.70353	45076.25
1912.81953	45053.85
1915.93349	44948.85
1919.04543	44824.85
1922.15534	44755.85
1925.26322	44654.65
1928.36908	44555.65
1931.47292	44413.95
1934.57473	44345.35
1937.67453	44240.05
1940.77232	44259.65
1943.86808	44133.95
1946.96184	43959.85
1950.05358	43829.15
1953.14331	43687.45
1956.23103	43520.45
1959.31675	43433.85
1962.40046	43269.65
1965.48217	43122.15
1968.56188	42946.15
1971.63959	42851.85
1974.7153	42736.85
1977.78901	42621.65
1980.86073	42527.15
1983.93046	42384.15
1986.99819	42219.65
1990.06394	42114.55
1993.1277	42001.05
1996.18947	41852.95
1999.24925	41781.45
2002.30706	41615.25
2005.36288	41488.85
2008.41672	41378.85
2011.46859	41264.75
2014.51848	41112.75
2017.56639	40930.65
2020.61233	40834.25
2023.6563	40752.05
2026.6983	40589.65
2029.73833	40503.05
2032.7764	40413.25
2035.8125	40295.65
2038.84664	40179.35
2041.87881	40153.95
2044.90903	40109.05
2047.93729	39938.45
2050.96359	39858.25
2053.98794	39877.35
2057.01034	39840.95
2060.03078	39816.05
2063.04927	39744.35
2066.06582	39774.85
2069.08042	39632.25
2072.09307	39615.45
2075.10378	39604.55
2078.11255	39489.35
2081.11938	39444.75
2084.12426	39466.35
2087.12722	39478.45
2090.12824	39447.75
2093.12732	39499.25
2096.12447	39427.15
2099.11969	39390.85
2102.11299	39424.45
2105.10435	39358.85
2108.09379	39430.15
2111.08131	39416.05
2114.0669	39382.25
2117.05057	39383.95
2120.03233	39478.55
2123.01216	39557.15
2125.99008	39495.15
2128.96609	39524.05
2131.94018	39535.75
2134.91236	39528.95
2137.88263	39638.85
2140.851	39555.85
2143.81746	39599.25
2146.78201	39577.95
2149.74466	39636.65
2152.7054	39669.75
2155.66425	39580.25
2158.6212	39569.85
2161.57625	39526.85
2164.52941	39527.25
2167.48067	39505.85
2170.43004	39466.75
2173.37752	39418.95
2176.32311	39373.55
2179.26681	39326.35
2182.20863	39349.15
2185.14856	39371.25
2188.08661	39289.85
2191.02278	39273.85
2193.95707	39194.55
2196.88948	39182.75
2199.82001	39184.05
2202.74867	39127.05
2205.67545	39175.45
2208.60037	39047.95
2211.52341	38954.35
2214.44458	38907.95
2217.36388	38767.15
2220.28132	38661.55
2223.1969	38593.05
2226.11061	38563.95
2229.02246	38527.45
2231.93245	38413.65
2234.84058	38307.75
2237.74686	38227.05
2240.65128	38192.25
2243.55385	38121.05
2246.45456	38058.35
2249.35343	37973.95
2252.25044	38011.55
2255.14561	37991.25
2258.03893	37873.25
2260.93041	37843.25
2263.82004	37768.65
2266.70783	37623.35
2269.59378	37492.65
2272.4779	37518.75
2275.36017	37381.75
2278.24061	37255.65
2281.11922	37139.35
2283.996	37079.55
2286.87094	37029.15
2289.74405	36915.05
2292.61534	36835.35
2295.4848	36801.95
2298.35243	36750.85
2301.21824	36752.15
2304.08223	36694.05
2306.94439	36697.55
2309.80474	36648.45
2312.66327	36546.35
2315.51999	36535.95
2318.37489	36558.55
2321.22797	36533.15
2324.07925	36310.05
2326.92871	36204.05
2329.77637	36186.45
2332.62222	36121.45
2335.46626	36046.95
2338.3085	35978.15
2341.14893	35903.55
2343.98756	35897.65
2346.8244	35918.75
2349.65943	35902.75
2352.49267	35793.45
2355.32411	35753.45
2358.15376	35681.45
2360.98161	35686.85
2363.80768	35662.95
2366.63195	35670.55
2369.45444	35578.65
2372.27514	35504.35
2375.09405	35506.45
2377.91118	35475.55
2380.72652	35389.65
2383.54009	35319.35
2386.35187	35240.15
2389.16188	35175.55
2391.97011	35068.55
2394.77657	35000.55
2397.58125	34907.95
2400.38416	34848.65
2403.18529	34759.45
2405.98466	34703.85
2408.78226	34544.75
2411.57809	34504.25
2414.37216	34480.05
2417.16446	34582.05
2419.955	34485.45
2422.74378	34481.05
2425.5308	34450.55
2428.31606	34321.35
2431.09956	34293.45
2433.88131	34295.75
2436.6613	34274.65
2439.43954	34224.95
2442.21603	34149.65
2444.99077	34076.45
2447.76377	34053.95
2450.53501	34015.35
2453.30451	33975.65
2456.07226	33858.15
2458.83827	33786.45
2461.60254	33725.15
2464.36507	33652.45
2467.12586	33599.45
2469.88492	33586.55
2472.64224	33579.85
2475.39782	33598.85
2478.15167	33487.25
2480.90379	33438.35
2483.65417	33453.65
2486.40283	33447.95
2489.14976	33426.05
2491.89497	33403.05
2494.63845	33359.65
2497.3802	33256.15
2500.12024	33268.95
2502.85855	33158.45
2505.59514	33135.55
2508.33002	33134.35
2511.06318	33033.25
2513.79462	32991.75
2516.52435	33008.65
2519.25237	32924.35
2521.97867	32817.55
2524.70327	32742.85
2527.42616	32700.15
2530.14734	32705.25
2532.86681	32665.05
2535.58458	32609.85
2538.30065	32466.05
2541.01501	32494.15
2543.72768	32366.75
2546.43864	32366.15
2549.14791	32262.75
2551.85548	32185.15
2554.56136	32149.35
2557.26554	32065.65
2559.96803	31999.35
2562.66883	31952.05
2565.36794	31861.55
2568.06536	31780.45
2570.7611	31697.15
2573.45514	31644.85
2576.14751	31593.45
2578.83819	31538.15
2581.52719	31482.55
2584.21451	31400.85
2586.90015	31384.75
2589.58411	31270.35
2592.2664	31260.55
2594.94701	31206.75
2597.62594	31076.95
2600.30321	30972.45
2602.9788	30917.95
2605.65273	30854.55
2608.32498	30850.65
2610.99557	30831.85
2613.66449	30830.15
2616.33175	30737.65
2618.99734	30717.55
2621.66128	30703.85
2624.32355	30626.05
2626.98416	30509.15
2629.64311	30428.15
2632.30041	30361.85
2634.95605	30406.45
2637.61004	30381.35
2640.26238	30291.35
2642.91306	30277.05
2645.56209	30267.85
2648.20948	30175.55
2650.85521	30134.45
2653.4993	30045.55
2656.14175	29981.45
2658.78255	29964.65
2661.42171	29912.35
2664.05923	30024.45
2666.6951	30030.25
2669.32934	30078.85
2671.96194	30033.75
2674.59291	29980.75
2677.22224	29951.95
2679.84993	29954.75
2682.476	29912.85
2685.10043	29898.05
2687.72324	29856.05
2690.34441	29845.05
2692.96396	29772.35
2695.58188	29768.45
2698.19818	29754.45
2700.81285	29769.75
2703.4259	29787.05
2706.03733	29769.85
2708.64714	29706.55
2711.25533	29691.55
2713.86191	29644.65
2716.46687	29682.15
2719.07021	29664.55
2721.67194	29676.95
2724.27206	29623.95
2726.87057	29621.25
2729.46747	29590.45
2732.06276	29605.85
2734.65644	29569.05
2737.24852	29519.85
2739.83899	29445.35
2742.42786	29564.45
2745.01513	29480.65
2747.60079	29389.65
2750.18486	29256.15
2752.76733	29224.75
2755.3482	29189.55
2757.92747	29205.15
2760.50515	29133.45
2763.08123	29020.25
2765.65573	28981.05
2768.22863	29002.85
2770.79994	28903.85
2773.36967	28868.65
2775.9378	28816.85
2778.50435	28747.15
2781.06932	28751.05
2783.6327	28754.75
2786.1945	28652.95
2788.75471	28664.15
2791.31335	28561.85
2793.87041	28477.95
2796.42589	28344.95
2798.97979	28298.75
2801.53212	28227.75
2804.08288	28216.75
2806.63206	28103.85
2809.17967	28049.25
2811.72571	27958.15
2814.27018	27932.25
2816.81308	27827.75
2819.35442	27784.05
2821.89419	27731.15
2824.43239	27693.95
2826.96904	27615.85
2829.50412	27622.15
2832.03763	27476.15
2834.56959	27452.45
2837.1	27422.85
2839.62884	27410.75
2842.15613	27332.55
2844.68186	27325.05
2847.20604	27268.45
2849.72867	27185.35
2852.24974	27197.05
2854.76927	27123.25
2857.28724	27091.15
2859.80367	27099.85
2862.31855	27065.75
2864.83189	26948.45
2867.34368	26914.85
2869.85393	26932.75
2872.36264	26868.55
2874.8698	26824.65
2877.37543	26744.35
2879.87952	26707.45
2882.38207	26689.35
2884.88308	26687.65
2887.38256	26654.25
2889.88051	26663.75
2892.37692	26656.45
2894.8718	26590.15
2897.36515	26578.95
2899.85698	26539.85
2902.34727	26598.55
2904.83604	26626.25
2907.32328	26698.55
2909.809	26660.85
2912.29319	26638.95
2914.77587	26598.05
2917.25702	26631.65
2919.73665	26571.45
2922.21476	26536.55
2924.69136	26504.95
2927.16644	26452.05
2929.64	26476.65
2932.11205	26430.55
2934.58258	26311.95
2937.05161	26361.35
2939.51912	26343.65
2941.98513	26284.05
2944.44962	26259.25
2946.91261	26180.55
2949.37409	26222.95
2951.83407	26165.65
2954.29254	26197.55
2956.74951	26180.35
2959.20498	26166.85
2961.65895	26157.95
2964.11142	26108.25
2966.56239	26091.65
2969.01186	26072.15
2971.45984	26061.45
2973.90632	26094.75
2976.35131	25997.75
2978.7948	25929.95
2981.23681	25888.45
2983.67732	25820.25
2986.11635	25791.55
2988.55388	25695.15
2990.98993	25684.95
2993.4245	25632.85
2995.85758	25597.75
2998.28917	25602.55
3000.71928	25591.15
3003.14791	25479.35
3005.57506	25434.55
3008.00073	25351.35
3010.42493	25316.75
3012.84764	25225.15
3015.26888	25249.25
3017.68865	25164.55
3020.10694	25130.65
3022.52376	24993.15
3024.9391	24992.45
3027.35298	24916.75
3029.76539	24902.85
3032.17632	24905.55
3034.5858	24786.15
3036.9938	24826.15
3039.40034	24791.25
3041.80542	24731.85
3044.20903	24702.85
3046.61118	24652.55
3049.01187	24612.75
3051.4111	24564.85
3053.80888	24543.15
3056.20519	24495.15
3058.60005	24363.35
3060.99345	24371.85
3063.3854	24299.85
3065.7759	24194.45
3068.16494	24184.45
3070.55254	24135.25
3072.93868	24054.05
3075.32338	23955.05
3077.70662	23935.45
3080.08842	23915.25
3082.46878	23865.65
3084.84769	23807.15
3087.22515	23835.55
3089.60118	23801.15
3091.97576	23785.95
3094.3489	23781.75
3096.72061	23758.35
3099.09087	23737.45
3101.4597	23693.75
3103.82709	23716.15
3106.19305	23631.25
3108.55757	23651.85
3110.92066	23581.55
3113.28232	23574.45
3115.64255	23548.75
3118.00134	23526.45
3120.35871	23490.95
3122.71466	23373.35
3125.06917	23282.25
3127.42226	23243.25
3129.77393	23245.75
3132.12417	23191.95
3134.47299	23171.95
3136.82039	23171.55
3139.16636	23151.85
3141.51092	23112.65
3143.85406	23063.75
3146.19579	23062.05
3148.53609	23086.45
3150.87499	23108.85
3153.21246	23138.15
3155.54853	23153.95
3157.88318	23090.65
3160.21642	23124.25
3162.54826	23056.85
3164.87868	23074.05
3167.2077	23083.55
3169.5353	23060.15
3171.86151	23028.35
3174.18631	22997.75
3176.5097	23010.55
3178.83169	22934.95
3181.15228	22883.15
3183.47147	22806.25
3185.78926	22768.75
3188.10565	22676.05
3190.42065	22704.75
3192.73424	22699.05
3195.04645	22635.55
3197.35725	22642.95
3199.66667	22585.25
3201.97469	22613.45
3204.28132	22577.65
3206.58656	22619.75
3208.8904	22606.45
3211.19287	22632.25
3213.49394	22607.35
3215.79363	22569.55
3218.09193	22560.45
3220.38884	22561.65
3222.68438	22594.15
3224.97853	22508.35
3227.2713	22523.25
3229.56269	22479.95
3231.8527	22525.65
3234.14133	22416.25
3236.42858	22356.85
3238.71446	22309.45
3240.99896	22215.15
