Data from AgNPs_UA_20uM_CRN_0uM_R6G_10uM_Q_RamanShift__0__12-36-22-012.txt Node

Date: Mon Jul 18 12:36:22 BST 2022
User: TCL
Spectrometer: QEP01345
Trigger mode: 4
Integration Time (sec): 7.000000E0
Scans to average: 10
Electric dark correction enabled: true
Nonlinearity correction enabled: false
Boxcar width: 0
XAxis mode: Raman Shifts
Number of Pixels in Spectrum: 1044
>>>>>Begin Spectral Data<<<<<
46.04893	-1.5875
50.45542	-0.6875
54.85868	-1.7875
59.25871	-2.3875
63.6555	156.8125
68.04907	164.0125
72.43941	174.6125
76.82654	176.2125
81.21044	187.3125
85.59113	188.3125
89.96862	199.1125
94.34289	204.8125
98.71396	208.5125
103.08183	220.0125
107.4465	218.5125
111.80798	225.5125
116.16626	232.2125
120.52136	250.4125
124.87327	263.0125
129.222	269.6125
133.56755	293.7125
137.90993	316.4125
142.24913	344.7125
146.58517	403.0125
150.91804	466.3125
155.24774	557.3125
159.57429	700.3125
163.89768	895.7125
168.21792	1190.1125
172.53501	1643.9125
176.84895	2289.4125
181.15975	3242.9125
185.46741	4574.2125
189.77193	6338.0125
194.07331	8484.1125
198.37157	10922.2125
202.6667	13509.6125
206.9587	16065.9125
211.24758	18612.2125
215.53334	21179.3125
219.81599	23995.7125
224.09553	27130.9125
228.37195	30508.7125
232.64527	34156.3125
236.91549	37905.0125
241.18261	41485.0125
245.44663	44601.4125
249.70755	47325.4125
253.96539	49701.4125
258.22014	51675.2125
262.4718	53280.1125
266.72039	54493.1125
270.96589	54942.2125
275.20832	54888.9125
279.44768	54355.4125
283.68397	53711.0125
287.91719	53212.5125
292.14735	53137.8125
296.37445	53538.3125
300.59849	54429.7125
304.81948	55630.9125
309.03742	56681.4125
313.25231	56914.1125
317.46415	55956.7125
321.67296	54092.9125
325.87872	52471.0125
330.08145	51835.1125
334.28114	51946.1125
338.47781	52514.9125
342.67145	53391.3125
346.86207	54613.6125
351.04966	56281.3125
355.23424	57919.1125
359.4158	59266.1125
363.59435	60091.4125
367.76989	60413.7125
371.94243	60372.7125
376.11196	60281.0125
380.27849	60233.5125
384.44203	60259.6125
388.60257	60442.0125
392.76012	60820.2125
396.91468	61506.4125
401.06626	62399.3125
405.21485	62923.2125
409.36047	62277.5125
413.50311	60851.6125
417.64277	59659.6125
421.77947	59130.1125
425.9132	58929.0125
430.04396	59118.4125
434.17176	59476.2125
438.2966	59989.7125
442.41849	60761.1125
446.53742	61956.2125
450.6534	63176.0125
454.76644	63951.7125
458.87653	64186.6125
462.98368	64092.0125
467.08789	63774.6125
471.18916	63167.9125
475.2875	62411.9125
479.38291	61761.1125
483.4754	61173.5125
487.56496	60843.5125
491.6516	60669.7125
495.73531	60648.2125
499.81612	60971.6125
503.89401	61374.6125
507.96899	61565.5125
512.04106	61838.3125
516.11023	62114.8125
520.1765	62245.6125
524.23987	62205.5125
528.30034	62024.0125
532.35792	61718.4125
536.41261	61262.2125
540.46441	60720.3125
544.51333	60625.7125
548.55936	61033.0125
552.60252	61939.6125
556.64279	62847.1125
560.6802	63390.1125
564.71473	63960.6125
568.7464	64747.3125
572.7752	65239.6125
576.80114	65089.8125
580.82422	65078.4125
584.84444	65513.8125
588.86181	66008.3125
592.87633	66574.9125
596.888	67143.3125
600.89682	68454.1125
604.9028	72882.4125
608.90594	83119.4125
612.90624	93115.9125
616.90371	86391.7125
620.89834	70833.6125
624.89015	64644.2125
628.87913	63938.1125
632.86528	64582.4125
636.84862	65111.2125
640.82913	64331.1125
644.80683	62835.3125
648.78172	61922.5125
652.75379	62183.7125
656.72306	63610.3125
660.68952	65093.2125
664.65319	64531.7125
668.61405	63385.8125
672.57211	63305.1125
676.52738	63561.4125
680.47986	63234.6125
684.42955	62702.0125
688.37646	62638.6125
692.32058	63033.2125
696.26192	63812.8125
700.20048	64563.7125
704.13626	64873.6125
708.06928	64647.2125
711.99952	64201.7125
715.927	64159.8125
719.85171	64398.4125
723.77365	64201.9125
727.69284	63702.2125
731.60928	63216.3125
735.52295	63096.2125
739.43388	63232.8125
743.34206	63420.1125
747.24749	63530.9125
751.15017	63753.4125
755.05012	64430.0125
758.94733	66345.0125
762.8418	70569.1125
766.73354	76791.2125
770.62254	81970.0125
774.50882	82889.2125
778.39237	79778.5125
782.27321	74595.2125
786.15132	69664.0125
790.02671	66415.6125
793.89938	64891.7125
797.76935	64234.6125
801.6366	63869.4125
805.50115	63708.1125
809.36299	63525.7125
813.22213	63259.3125
817.07857	63157.1125
820.93231	63257.3125
824.78336	63360.6125
828.63172	63489.4125
832.47738	63499.6125
836.32036	63526.9125
840.16066	63465.9125
843.99827	63480.2125
847.8332	63422.4125
851.66546	63605.2125
855.49504	63742.9125
859.32195	63714.4125
863.1462	63720.0125
866.96777	63822.7125
870.78668	63766.7125
874.60293	63971.7125
878.41652	64199.0125
882.22745	64517.5125
886.03573	64759.3125
889.84136	64722.3125
893.64433	64429.4125
897.44466	64276.2125
901.24235	64143.2125
905.0374	63955.2125
908.8298	63784.5125
912.61957	63735.0125
916.40671	63874.3125
920.19121	64126.7125
923.97308	64638.4125
927.75233	65129.6125
931.52895	65453.0125
935.30295	64937.4125
939.07433	64058.4125
942.84309	63366.2125
946.60924	63044.0125
950.37278	62884.2125
954.13371	62890.1125
957.89203	62826.8125
961.64774	62810.2125
965.40086	62747.4125
969.15137	62803.5125
972.89929	62803.7125
976.64461	62886.1125
980.38733	63099.6125
984.12747	63233.1125
987.86502	63560.6125
991.59999	63795.6125
995.33237	64148.9125
999.06217	64783.6125
1002.78939	65632.1125
1006.51404	66541.1125
1010.23611	67251.1125
1013.95561	67593.0125
1017.67255	67633.1125
1021.38692	67209.0125
1025.09872	66703.8125
1028.80796	66314.0125
1032.51465	66344.3125
1036.21877	66827.7125
1039.92035	67090.2125
1043.61937	67141.7125
1047.31584	67073.1125
1051.00976	66960.0125
1054.70114	66856.3125
1058.38998	67025.7125
1062.07627	67419.6125
1065.76003	67980.0125
1069.44126	68720.6125
1073.11995	69781.8125
1076.79611	70929.8125
1080.46974	71632.5125
1084.14085	72252.5125
1087.80943	73152.1125
1091.47549	73382.8125
1095.13903	73011.8125
1098.80005	71989.4125
1102.45857	71003.3125
1106.11456	70187.9125
1109.76805	69826.6125
1113.41903	70065.3125
1117.06751	70655.5125
1120.71348	71789.4125
1124.35696	73048.2125
1127.99793	73926.0125
1131.63641	73503.3125
1135.2724	72091.8125
1138.90589	71092.1125
1142.5369	70398.4125
1146.16542	70066.4125
1149.79145	69932.2125
1153.415	69719.7125
1157.03607	69687.0125
1160.65467	70266.3125
1164.27079	71748.7125
1167.88443	73698.7125
1171.49561	76659.5125
1175.10432	81077.0125
1178.71056	86622.5125
1182.31434	91131.1125
1185.91565	92811.6125
1189.51451	92119.4125
1193.11091	90040.2125
1196.70485	87663.4125
1200.29634	85512.1125
1203.88538	83232.5125
1207.47197	80810.5125
1211.05612	78540.4125
1214.63782	76977.0125
1218.21708	75888.9125
1221.79391	74909.4125
1225.36829	74389.7125
1228.94024	74157.1125
1232.50976	73892.8125
1236.07685	73804.0125
1239.6415	73865.0125
1243.20374	74001.6125
1246.76355	74530.5125
1250.32093	75286.5125
1253.8759	76230.1125
1257.42845	77708.9125
1260.97859	79361.8125
1264.52631	81115.9125
1268.07163	82683.8125
1271.61453	83911.3125
1275.15503	84998.0125
1278.69312	85630.9125
1282.22882	86217.0125
1285.76211	87325.6125
1289.29301	88929.5125
1292.82151	90630.5125
1296.34761	92476.4125
1299.87133	95301.6125
1303.39266	99561.8125
1306.9116	105501.3125
1310.42815	111415.8125
1313.94233	113951.9125
1317.45412	111486.6125
1320.96354	107027.1125
1324.47058	102841.0125
1327.97525	99229.5125
1331.47754	97145.2125
1334.97747	96596.4125
1338.47502	97166.1125
1341.97022	98833.5125
1345.46305	101521.9125
1348.95352	105260.8125
1352.44163	109176.3125
1355.92738	113937.3125
1359.41078	120758.2125
1362.89183	126862.8125
1366.37053	123266.2125
1369.84688	110679.2125
1373.32088	98456.7125
1376.79254	90853.8125
1380.26186	87264.4125
1383.72883	85286.7125
1387.19347	83664.3125
1390.65578	81873.6125
1394.11575	80354.6125
1397.57339	79021.6125
1401.0287	78293.5125
1404.48168	78007.8125
1407.93234	77978.3125
1411.38068	78175.2125
1414.82669	78304.9125
1418.27039	77993.9125
1421.71177	77429.9125
1425.15083	76741.5125
1428.58758	76357.0125
1432.02203	76718.1125
1435.45416	77619.3125
1438.88399	78192.5125
1442.31151	78358.5125
1445.73673	78625.9125
1449.15965	78768.9125
1452.58027	78578.5125
1455.9986	78284.9125
1459.41463	78334.9125
1462.82837	79031.8125
1466.23982	80277.5125
1469.64898	81557.4125
1473.05586	82781.4125
1476.46045	83543.0125
1479.86276	84053.3125
1483.26279	84929.5125
1486.66054	86221.0125
1490.05602	88026.9125
1493.44922	90666.5125
1496.84016	94618.3125
1500.22882	100592.2125
1503.61521	108367.0125
1506.99934	116262.2125
1510.38121	121419.1125
1513.76081	120993.0125
1517.13816	114124.4125
1520.51324	104489.6125
1523.88607	96405.8125
1527.25665	91525.8125
1530.62498	89051.6125
1533.99105	87469.6125
1537.35488	86119.4125
1540.71647	85183.2125
1544.07581	84415.5125
1547.4329	83542.7125
1550.78776	82981.7125
1554.14038	82789.5125
1557.49077	82933.5125
1560.83892	83555.0125
1564.18484	84838.9125
1567.52853	86429.5125
1570.86999	87714.0125
1574.20922	88509.4125
1577.54624	88089.9125
1580.88103	85839.4125
1584.2136	83312.2125
1587.54395	82005.0125
1590.87208	82738.8125
1594.19801	85234.6125
1597.52172	88200.9125
1600.84321	89410.3125
1604.16251	88097.8125
1607.47959	85571.6125
1610.79447	82335.3125
1614.10715	78573.2125
1617.41763	75476.0125
1620.7259	73187.9125
1624.03199	71932.9125
1627.33587	71860.0125
1630.63757	72670.4125
1633.93707	74664.6125
1637.23439	78210.8125
1640.52951	83887.9125
1643.82246	91341.9125
1647.11321	98876.8125
1650.40179	102538.3125
1653.68819	98860.6125
1656.97241	89732.0125
1660.25446	80478.3125
1663.53433	73848.9125
1666.81203	69799.4125
1670.08756	67309.7125
1673.36092	65790.6125
1676.63211	64858.5125
1679.90115	64193.6125
1683.16801	63620.1125
1686.43272	63090.1125
1689.69527	62715.8125
1692.95567	62388.1125
1696.2139	62195.2125
1699.46999	62055.1125
1702.72392	62052.6125
1705.97571	62094.6125
1709.22535	62088.3125
1712.47284	62160.8125
1715.71819	62167.9125
1718.96139	62095.3125
1722.20246	62031.4125
1725.44139	61861.7125
1728.67818	61600.5125
1731.91284	61391.7125
1735.14537	61106.2125
1738.37576	60988.5125
1741.60403	60816.5125
1744.83017	60637.2125
1748.05418	60608.2125
1751.27607	60484.1125
1754.49584	60415.1125
1757.71349	60428.9125
1760.92903	60353.3125
1764.14244	60239.3125
1767.35375	60248.1125
1770.56294	60257.7125
1773.77002	60220.0125
1776.97499	60160.3125
1780.17785	60071.7125
1783.37861	59964.9125
1786.57727	59866.2125
1789.77382	59739.0125
1792.96828	59639.4125
1796.16064	59602.3125
1799.3509	59527.5125
1802.53907	59456.5125
1805.72514	59264.1125
1808.90913	59234.8125
1812.09102	59185.5125
1815.27083	59031.7125
1818.44856	59011.2125
1821.6242	58970.3125
1824.79776	58908.9125
1827.96924	58789.9125
1831.13864	58694.0125
1834.30597	58694.0125
1837.47122	58676.3125
1840.6344	58574.6125
1843.7955	58515.1125
1846.95454	58443.6125
1850.11151	58613.0125
1853.26642	58584.6125
1856.41926	58509.6125
1859.57004	58492.5125
1862.71876	58459.0125
1865.86542	58605.1125
1869.01003	58506.3125
1872.15258	58376.3125
1875.29308	58360.1125
1878.43152	58233.9125
1881.56792	58208.3125
1884.70227	58161.1125
1887.83457	58165.9125
1890.96482	58087.3125
1894.09304	58042.1125
1897.21921	58046.4125
1900.34335	57978.2125
1903.46544	57782.5125
1906.58551	57791.6125
1909.70353	57752.6125
1912.81953	57731.9125
1915.93349	57662.0125
1919.04543	57510.2125
1922.15534	57444.2125
1925.26322	57370.3125
1928.36908	57376.0125
1931.47292	57329.0125
1934.57473	57160.2125
1937.67453	57097.7125
1940.77232	56974.7125
1943.86808	56692.5125
1946.96184	56641.2125
1950.05358	56377.1125
1953.14331	56201.5125
1956.23103	56026.9125
1959.31675	55984.8125
1962.40046	55888.0125
1965.48217	55716.1125
1968.56188	55574.0125
1971.63959	55410.8125
1974.7153	55225.7125
1977.78901	55155.9125
1980.86073	54957.5125
1983.93046	54885.7125
1986.99819	54704.9125
1990.06394	54608.1125
1993.1277	54481.6125
1996.18947	54313.9125
1999.24925	54232.3125
2002.30706	54084.5125
2005.36288	54011.0125
2008.41672	53895.9125
2011.46859	53783.4125
2014.51848	53568.1125
2017.56639	53504.0125
2020.61233	53379.8125
2023.6563	53275.7125
2026.6983	53127.0125
2029.73833	52974.2125
2032.7764	52883.7125
2035.8125	52769.2125
2038.84664	52701.6125
2041.87881	52641.7125
2044.90903	52491.1125
2047.93729	52400.2125
2050.96359	52405.3125
2053.98794	52283.1125
2057.01034	52260.7125
2060.03078	52236.7125
2063.04927	52297.9125
2066.06582	52246.0125
2069.08042	52199.8125
2072.09307	52241.9125
2075.10378	52257.1125
2078.11255	52214.8125
2081.11938	52175.1125
2084.12426	52111.8125
2087.12722	52101.7125
2090.12824	52134.3125
2093.12732	52141.4125
2096.12447	52210.9125
2099.11969	52176.5125
2102.11299	52241.9125
2105.10435	52223.4125
2108.09379	52288.3125
2111.08131	52340.7125
2114.0669	52318.6125
2117.05057	52286.3125
2120.03233	52354.0125
2123.01216	52369.8125
2125.99008	52480.1125
2128.96609	52687.6125
2131.94018	52848.3125
2134.91236	52909.4125
2137.88263	52905.1125
2140.851	52913.3125
2143.81746	52992.0125
2146.78201	52975.1125
2149.74466	53062.1125
2152.7054	53008.7125
2155.66425	52959.9125
2158.6212	52874.7125
2161.57625	52855.7125
2164.52941	52943.0125
2167.48067	52963.1125
2170.43004	52995.0125
2173.37752	52893.4125
2176.32311	52888.8125
2179.26681	52887.5125
2182.20863	52895.5125
2185.14856	52862.2125
2188.08661	52901.6125
2191.02278	52929.8125
2193.95707	52847.0125
2196.88948	52854.9125
2199.82001	52865.5125
2202.74867	52806.4125
2205.67545	52680.2125
2208.60037	52640.5125
2211.52341	52616.7125
2214.44458	52595.8125
2217.36388	52500.5125
2220.28132	52465.0125
2223.1969	52238.5125
2226.11061	52185.9125
2229.02246	52053.7125
2231.93245	51999.1125
2234.84058	51933.6125
2237.74686	51924.0125
2240.65128	51877.3125
2243.55385	51784.9125
2246.45456	51757.3125
2249.35343	51655.1125
2252.25044	51636.2125
2255.14561	51546.9125
2258.03893	51579.9125
2260.93041	51438.1125
2263.82004	51370.8125
2266.70783	51322.5125
2269.59378	51272.3125
2272.4779	51263.4125
2275.36017	51175.7125
2278.24061	51139.8125
2281.11922	51059.4125
2283.996	50974.2125
2286.87094	50819.4125
2289.74405	50754.3125
2292.61534	50752.0125
2295.4848	50774.1125
2298.35243	50770.2125
2301.21824	50799.1125
2304.08223	50730.8125
2306.94439	50640.6125
2309.80474	50543.9125
2312.66327	50598.2125
2315.51999	50509.6125
2318.37489	50534.3125
2321.22797	50560.4125
2324.07925	50440.5125
2326.92871	50334.0125
2329.77637	50326.6125
2332.62222	50263.0125
2335.46626	50121.4125
2338.3085	49989.9125
2341.14893	49971.3125
2343.98756	49931.3125
2346.8244	50099.3125
2349.65943	50209.7125
2352.49267	50114.8125
2355.32411	50100.2125
2358.15376	50022.9125
2360.98161	50031.8125
2363.80768	50045.8125
2366.63195	50087.3125
2369.45444	50064.0125
2372.27514	50008.5125
2375.09405	49877.2125
2377.91118	49745.4125
2380.72652	49598.7125
2383.54009	49529.1125
2386.35187	49478.7125
2389.16188	49365.1125
2391.97011	49347.2125
2394.77657	49234.4125
2397.58125	49180.0125
2400.38416	49128.0125
2403.18529	49086.6125
2405.98466	49076.5125
2408.78226	48981.2125
2411.57809	48898.1125
2414.37216	48786.4125
2417.16446	48767.5125
2419.955	48621.8125
2422.74378	48676.6125
2425.5308	48620.4125
2428.31606	48665.0125
2431.09956	48614.2125
2433.88131	48499.4125
2436.6613	48524.4125
2439.43954	48507.0125
2442.21603	48537.9125
2444.99077	48459.2125
2447.76377	48405.7125
2450.53501	48419.8125
2453.30451	48409.6125
2456.07226	48398.2125
2458.83827	48345.5125
2461.60254	48369.1125
2464.36507	48351.5125
2467.12586	48224.9125
2469.88492	48239.8125
2472.64224	48227.2125
2475.39782	48172.8125
2478.15167	48224.3125
2480.90379	48204.1125
2483.65417	48324.6125
2486.40283	48263.7125
2489.14976	48334.1125
2491.89497	48254.6125
2494.63845	48246.8125
2497.3802	48259.6125
2500.12024	48286.1125
2502.85855	48206.0125
2505.59514	48137.5125
2508.33002	47958.3125
2511.06318	47921.2125
2513.79462	47779.2125
2516.52435	47732.3125
2519.25237	47802.6125
2521.97867	47756.0125
2524.70327	47693.9125
2527.42616	47635.0125
2530.14734	47606.7125
2532.86681	47412.1125
2535.58458	47488.1125
2538.30065	47458.7125
2541.01501	47532.1125
2543.72768	47493.8125
2546.43864	47430.8125
2549.14791	47280.6125
2551.85548	47279.8125
2554.56136	47233.6125
2557.26554	47081.2125
2559.96803	47055.0125
2562.66883	46894.9125
2565.36794	46870.3125
2568.06536	46873.5125
2570.7611	46726.7125
2573.45514	46627.4125
2576.14751	46634.4125
2578.83819	46538.1125
2581.52719	46514.0125
2584.21451	46478.2125
2586.90015	46368.6125
2589.58411	46332.6125
2592.2664	46266.7125
2594.94701	46207.6125
2597.62594	46282.0125
2600.30321	46189.8125
2602.9788	46092.2125
2605.65273	45977.1125
2608.32498	45965.8125
2610.99557	45871.1125
2613.66449	45891.2125
2616.33175	45854.4125
2618.99734	45847.5125
2621.66128	45777.3125
2624.32355	45692.2125
2626.98416	45606.5125
2629.64311	45467.0125
2632.30041	45445.4125
2634.95605	45422.5125
2637.61004	45335.8125
2640.26238	45313.5125
2642.91306	45302.9125
2645.56209	45239.0125
2648.20948	45267.8125
2650.85521	45202.1125
2653.4993	45200.8125
2656.14175	45213.4125
2658.78255	45312.2125
2661.42171	45243.9125
2664.05923	45359.0125
2666.6951	45404.0125
2669.32934	45406.6125
2671.96194	45290.2125
2674.59291	45286.7125
2677.22224	45202.1125
2679.84993	45285.2125
2682.476	45302.0125
2685.10043	45321.2125
2687.72324	45243.1125
2690.34441	45213.1125
2692.96396	45216.2125
2695.58188	45333.6125
2698.19818	45223.9125
2700.81285	45221.7125
2703.4259	45180.4125
2706.03733	45141.0125
2708.64714	45251.7125
2711.25533	45239.8125
2713.86191	45247.2125
2716.46687	45322.3125
2719.07021	45343.2125
2721.67194	45407.1125
2724.27206	45375.8125
2726.87057	45390.5125
2729.46747	45356.7125
2732.06276	45432.3125
2734.65644	45378.5125
2737.24852	45326.9125
2739.83899	45213.6125
2742.42786	45230.3125
2745.01513	45083.9125
2747.60079	45099.2125
2750.18486	45122.8125
2752.76733	45078.1125
2755.3482	44957.3125
2757.92747	44939.5125
2760.50515	44910.9125
2763.08123	44838.4125
2765.65573	44750.8125
2768.22863	44824.2125
2770.79994	44735.6125
2773.36967	44725.1125
2775.9378	44595.2125
2778.50435	44482.7125
2781.06932	44461.9125
2783.6327	44366.2125
2786.1945	44342.4125
2788.75471	44335.9125
2791.31335	44246.2125
2793.87041	44235.4125
2796.42589	44126.6125
2798.97979	44101.2125
2801.53212	44095.3125
2804.08288	44026.9125
2806.63206	43982.2125
2809.17967	43874.7125
2811.72571	43688.3125
2814.27018	43643.9125
2816.81308	43531.9125
2819.35442	43541.3125
2821.89419	43434.8125
2824.43239	43423.1125
2826.96904	43399.6125
2829.50412	43431.4125
2832.03763	43315.3125
2834.56959	43287.2125
2837.1	43170.9125
2839.62884	43107.4125
2842.15613	43029.5125
2844.68186	42999.8125
2847.20604	42926.7125
2849.72867	43015.1125
2852.24974	42966.2125
2854.76927	42978.7125
2857.28724	42890.1125
2859.80367	42874.3125
2862.31855	42761.2125
2864.83189	42721.3125
2867.34368	42588.0125
2869.85393	42639.6125
2872.36264	42542.9125
2874.8698	42461.5125
2877.37543	42458.5125
2879.87952	42424.8125
2882.38207	42417.4125
2884.88308	42361.4125
2887.38256	42493.7125
2889.88051	42428.4125
2892.37692	42450.4125
2894.8718	42395.0125
2897.36515	42463.3125
2899.85698	42501.5125
2902.34727	42560.8125
2904.83604	42571.3125
2907.32328	42671.5125
2909.809	42710.5125
2912.29319	42729.4125
2914.77587	42635.0125
2917.25702	42698.4125
2919.73665	42666.6125
2922.21476	42690.6125
2924.69136	42581.3125
2927.16644	42524.0125
2929.64	42471.3125
2932.11205	42388.6125
2934.58258	42219.9125
2937.05161	42220.4125
2939.51912	42257.5125
2941.98513	42250.9125
2944.44962	42176.1125
2946.91261	42102.5125
2949.37409	42250.7125
2951.83407	42263.9125
2954.29254	42254.8125
2956.74951	42269.1125
2959.20498	42208.1125
2961.65895	42202.8125
2964.11142	42271.0125
2966.56239	42232.4125
2969.01186	42138.0125
2971.45984	42094.5125
2973.90632	42107.5125
2976.35131	42077.8125
2978.7948	42061.1125
2981.23681	41987.9125
2983.67732	41927.4125
2986.11635	41923.3125
2988.55388	41772.9125
2990.98993	41689.6125
2993.4245	41613.7125
2995.85758	41574.3125
2998.28917	41310.8125
3000.71928	41278.1125
3003.14791	41195.3125
3005.57506	41126.5125
3008.00073	40948.3125
3010.42493	40972.5125
3012.84764	40874.4125
3015.26888	40878.5125
3017.68865	40809.3125
3020.10694	40732.8125
3022.52376	40683.9125
