Data from AgNPs_UA_50uM_CRN_0uM_R6G_10uM_Q_RamanShift__30__12-46-11-792.txt Node

Date: Tue Jul 26 12:46:11 BST 2022
User: TCL
Spectrometer: QEP01345
Trigger mode: 4
Integration Time (sec): 7.000000E0
Scans to average: 10
Electric dark correction enabled: true
Nonlinearity correction enabled: false
Boxcar width: 0
XAxis mode: Raman Shifts
Number of Pixels in Spectrum: 1044
>>>>>Begin Spectral Data<<<<<
46.04893	0.525
50.45542	-0.975
54.85868	0.225
59.25871	-0.275
63.6555	71.525
68.04907	78.825
72.43941	83.825
76.82654	88.325
81.21044	92.525
85.59113	92.325
89.96862	103.325
94.34289	103.025
98.71396	111.725
103.08183	112.325
107.4465	111.025
111.80798	112.325
116.16626	116.325
120.52136	124.025
124.87327	122.225
129.222	127.925
133.56755	134.925
137.90993	140.825
142.24913	146.225
146.58517	162.025
150.91804	185.225
155.24774	211.425
159.57429	254.725
163.89768	317.925
168.21792	407.925
172.53501	551.025
176.84895	760.225
181.15975	1044.625
185.46741	1463.225
189.77193	1994.025
194.07331	2666.325
198.37157	3431.325
202.6667	4248.425
206.9587	5058.425
211.24758	5896.625
215.53334	6784.925
219.81599	7771.225
224.09553	8896.725
228.37195	10153.125
232.64527	11498.525
236.91549	12798.625
241.18261	13929.825
245.44663	14810.125
249.70755	15545.625
253.96539	16121.625
258.22014	16633.625
262.4718	16990.725
266.72039	17271.725
270.96589	17247.325
275.20832	17048.425
279.44768	16696.025
283.68397	16327.525
287.91719	16099.825
292.14735	16199.625
296.37445	16644.225
300.59849	17448.125
304.81948	18416.725
309.03742	19170.625
313.25231	19255.825
317.46415	18403.625
321.67296	17043.925
325.87872	15842.625
330.08145	15333.825
334.28114	15365.325
338.47781	15732.625
342.67145	16236.925
346.86207	17029.825
351.04966	18178.225
355.23424	19451.325
359.4158	20350.625
363.59435	20820.325
367.76989	20908.925
371.94243	20774.925
376.11196	20665.925
380.27849	20490.225
384.44203	20262.025
388.60257	20009.925
392.76012	19886.525
396.91468	20058.425
401.06626	20576.525
405.21485	20922.325
409.36047	20490.725
413.50311	19401.425
417.64277	18334.225
421.77947	17741.625
425.9132	17466.325
430.04396	17394.725
434.17176	17594.125
438.2966	17937.725
442.41849	18474.325
446.53742	19131.325
450.6534	19801.725
454.76644	20233.225
458.87653	20278.525
462.98368	20008.225
467.08789	19596.825
471.18916	19037.125
475.2875	18370.925
479.38291	17873.225
483.4754	17572.925
487.56496	17300.525
491.6516	17130.925
495.73531	17032.425
499.81612	17025.625
503.89401	17214.525
507.96899	17480.925
512.04106	17761.325
516.11023	18157.725
520.1765	18440.025
524.23987	18489.725
528.30034	18310.625
532.35792	18076.925
536.41261	17765.625
540.46441	17382.225
544.51333	17235.125
548.55936	17316.525
552.60252	17705.125
556.64279	18098.225
560.6802	18296.725
564.71473	18676.025
568.7464	19456.025
572.7752	19675.125
576.80114	18876.725
580.82422	18167.825
584.84444	18012.325
588.86181	18239.825
592.87633	18641.725
596.888	19166.825
600.89682	20201.725
604.9028	23368.025
608.90594	30786.425
612.90624	38620.925
616.90371	35649.825
620.89834	24981.225
624.89015	20511.525
628.87913	19901.025
632.86528	19911.625
636.84862	19795.025
640.82913	19096.125
644.80683	18019.525
648.78172	17295.725
652.75379	17378.425
656.72306	18209.325
660.68952	19111.825
664.65319	18825.225
668.61405	17942.625
672.57211	17544.325
676.52738	17486.925
680.47986	17359.125
684.42955	17146.325
688.37646	17162.325
692.32058	17263.125
696.26192	17389.125
700.20048	17660.925
704.13626	17753.625
708.06928	17533.125
711.99952	17341.325
715.927	17368.625
719.85171	17516.125
723.77365	17537.525
727.69284	17356.125
731.60928	17226.025
735.52295	17268.425
739.43388	17378.325
743.34206	17549.725
747.24749	17665.325
751.15017	17750.025
755.05012	18166.525
758.94733	19311.925
762.8418	21906.125
766.73354	25794.525
770.62254	29339.225
774.50882	30861.925
778.39237	29413.625
782.27321	25340.625
786.15132	21444.125
790.02671	19179.025
793.89938	18249.525
797.76935	17893.825
801.6366	17738.025
805.50115	17610.825
809.36299	17558.525
813.22213	17454.225
817.07857	17376.625
820.93231	17387.825
824.78336	17448.625
828.63172	17600.525
832.47738	17640.825
836.32036	17661.825
840.16066	17637.725
843.99827	17680.425
847.8332	17625.225
851.66546	17473.325
855.49504	17428.125
859.32195	17415.925
863.1462	17292.125
866.96777	17187.225
870.78668	17153.825
874.60293	17241.825
878.41652	17366.925
882.22745	17514.525
886.03573	17621.825
889.84136	17605.025
893.64433	17463.325
897.44466	17446.725
901.24235	17438.625
905.0374	17347.425
908.8298	17211.925
912.61957	17174.925
916.40671	17248.425
920.19121	17545.825
923.97308	17866.025
927.75233	18302.625
931.52895	18630.625
935.30295	18431.625
939.07433	17726.925
942.84309	17278.825
946.60924	17079.425
950.37278	16967.425
954.13371	16776.225
957.89203	16613.825
961.64774	16544.725
965.40086	16449.525
969.15137	16371.925
972.89929	16318.725
976.64461	16341.025
980.38733	16403.925
984.12747	16507.125
987.86502	16678.925
991.59999	17013.225
995.33237	17618.525
999.06217	18574.825
1002.78939	19602.925
1006.51404	20099.125
1010.23611	20358.225
1013.95561	20587.425
1017.67255	20766.925
1021.38692	20662.625
1025.09872	20794.125
1028.80796	21395.925
1032.51465	22572.425
1036.21877	23345.125
1039.92035	23280.125
1043.61937	22544.325
1047.31584	21425.225
1051.00976	20355.925
1054.70114	19680.425
1058.38998	19483.225
1062.07627	19393.625
1065.76003	19292.625
1069.44126	19253.225
1073.11995	19401.425
1076.79611	19697.025
1080.46974	20210.325
1084.14085	20786.925
1087.80943	21284.425
1091.47549	21245.125
1095.13903	20694.225
1098.80005	19926.325
1102.45857	19517.025
1106.11456	19515.625
1109.76805	19790.725
1113.41903	20395.525
1117.06751	21266.925
1120.71348	22389.125
1124.35696	23596.125
1127.99793	24171.425
1131.63641	23593.525
1135.2724	22361.325
1138.90589	21331.525
1142.5369	20638.425
1146.16542	20115.725
1149.79145	19803.125
1153.415	19815.225
1157.03607	20006.725
1160.65467	20395.925
1164.27079	21182.725
1167.88443	22403.725
1171.49561	24403.625
1175.10432	27533.525
1178.71056	31688.225
1182.31434	35091.825
1185.91565	36399.325
1189.51451	35408.525
1193.11091	32845.125
1196.70485	30081.625
1200.29634	28038.225
1203.88538	26436.925
1207.47197	24861.225
1211.05612	23537.025
1214.63782	22869.425
1218.21708	22779.425
1221.79391	23064.725
1225.36829	23367.525
1228.94024	23278.925
1232.50976	22909.825
1236.07685	22632.925
1239.6415	22657.725
1243.20374	22815.125
1246.76355	23050.625
1250.32093	23525.925
1253.8759	24205.325
1257.42845	25170.325
1260.97859	26040.025
1264.52631	26924.425
1268.07163	27732.225
1271.61453	28574.625
1275.15503	29339.325
1278.69312	30263.525
1282.22882	31106.325
1285.76211	32002.125
1289.29301	32796.325
1292.82151	33532.825
1296.34761	34740.125
1299.87133	36912.725
1303.39266	40620.825
1306.9116	46075.825
1310.42815	51652.825
1313.94233	53867.525
1317.45412	51378.725
1320.96354	46617.625
1324.47058	41986.625
1327.97525	38503.825
1331.47754	36590.625
1334.97747	36140.425
1338.47502	36715.825
1341.97022	38068.325
1345.46305	39922.925
1348.95352	42226.625
1352.44163	45131.425
1355.92738	49811.125
1359.41078	57166.825
1362.89183	62765.925
1366.37053	58866.025
1369.84688	48684.525
1373.32088	40036.625
1376.79254	34963.625
1380.26186	32284.325
1383.72883	30653.725
1387.19347	29409.825
1390.65578	28246.225
1394.11575	27406.625
1397.57339	27134.825
1401.0287	27360.025
1404.48168	27815.625
1407.93234	28364.825
1411.38068	28941.025
1414.82669	29327.525
1418.27039	29063.225
1421.71177	28497.825
1425.15083	27901.225
1428.58758	27776.225
1432.02203	28203.825
1435.45416	28577.125
1438.88399	28653.825
1442.31151	28503.125
1445.73673	28485.025
1449.15965	28563.725
1452.58027	28348.925
1455.9986	27903.025
1459.41463	27750.725
1462.82837	28013.425
1466.23982	28561.925
1469.64898	29278.325
1473.05586	29793.625
1476.46045	30296.125
1479.86276	30878.825
1483.26279	31585.525
1486.66054	32353.125
1490.05602	33429.325
1493.44922	35083.425
1496.84016	37489.425
1500.22882	41158.725
1503.61521	46181.325
1506.99934	51875.125
1510.38121	55977.025
1513.76081	56099.125
1517.13816	51477.025
1520.51324	44625.925
1523.88607	38882.525
1527.25665	35259.225
1530.62498	33144.925
1533.99105	31940.125
1537.35488	31194.925
1540.71647	30803.025
1544.07581	30678.325
1547.4329	30547.625
1550.78776	30428.925
1554.14038	30353.125
1557.49077	30415.025
1560.83892	30672.025
1564.18484	31308.625
1567.52853	32006.525
1570.86999	32508.425
1574.20922	32751.225
1577.54624	32269.525
1580.88103	30797.025
1584.2136	29180.925
1587.54395	28740.125
1590.87208	29969.825
1594.19801	32658.725
1597.52172	35933.025
1600.84321	37564.425
1604.16251	36449.425
1607.47959	33592.325
1610.79447	30374.225
1614.10715	27487.025
1617.41763	25370.725
1620.7259	24068.925
1624.03199	23580.425
1627.33587	23855.225
1630.63757	24798.525
1633.93707	26517.425
1637.23439	28941.825
1640.52951	31988.825
1643.82246	35810.225
1647.11321	39629.125
1650.40179	41148.825
1653.68819	38602.725
1656.97241	32946.325
1660.25446	27474.825
1663.53433	23754.225
1666.81203	21557.825
1670.08756	20240.125
1673.36092	19413.825
1676.63211	18846.925
1679.90115	18452.025
1683.16801	18115.125
1686.43272	17904.625
1689.69527	17773.025
1692.95567	17665.525
1696.2139	17587.125
1699.46999	17528.025
1702.72392	17501.025
1705.97571	17515.025
1709.22535	17505.725
1712.47284	17453.225
1715.71819	17455.825
1718.96139	17413.425
1722.20246	17335.825
1725.44139	17257.325
1728.67818	17175.025
1731.91284	17026.925
1735.14537	16956.325
1738.37576	16871.125
1741.60403	16813.625
1744.83017	16766.525
1748.05418	16700.425
1751.27607	16661.125
1754.49584	16619.625
1757.71349	16611.525
1760.92903	16561.925
1764.14244	16554.825
1767.35375	16524.325
1770.56294	16534.925
1773.77002	16471.525
1776.97499	16463.125
1780.17785	16451.125
1783.37861	16449.125
1786.57727	16441.425
1789.77382	16394.025
1792.96828	16381.425
1796.16064	16350.525
1799.3509	16362.325
1802.53907	16371.125
1805.72514	16344.925
1808.90913	16264.925
1812.09102	16205.625
1815.27083	16164.325
1818.44856	16135.625
1821.6242	16084.825
1824.79776	16115.425
1827.96924	16062.225
1831.13864	16063.025
1834.30597	16057.625
1837.47122	16034.625
1840.6344	16028.325
1843.7955	16012.625
1846.95454	16004.925
1850.11151	16016.025
1853.26642	16009.625
1856.41926	16034.025
1859.57004	16028.025
1862.71876	16005.525
1865.86542	15996.725
1869.01003	16035.725
1872.15258	16010.025
1875.29308	16031.825
1878.43152	16040.925
1881.56792	16038.025
1884.70227	16043.025
1887.83457	16045.525
1890.96482	16008.325
1894.09304	15951.625
1897.21921	15967.125
1900.34335	15958.725
1903.46544	15941.725
1906.58551	15953.825
1909.70353	15954.825
1912.81953	15973.525
1915.93349	16002.725
1919.04543	15942.025
1922.15534	15904.325
1925.26322	15892.525
1928.36908	15878.625
1931.47292	15847.825
1934.57473	15808.625
1937.67453	15778.825
1940.77232	15753.125
1943.86808	15731.325
1946.96184	15693.825
1950.05358	15624.025
1953.14331	15607.425
1956.23103	15556.325
1959.31675	15515.625
1962.40046	15484.325
1965.48217	15454.825
1968.56188	15434.725
1971.63959	15412.125
1974.7153	15396.125
1977.78901	15324.525
1980.86073	15286.425
1983.93046	15216.325
1986.99819	15174.625
1990.06394	15130.425
1993.1277	15083.325
1996.18947	15036.225
1999.24925	14968.825
2002.30706	14960.125
2005.36288	14911.925
2008.41672	14895.425
2011.46859	14844.025
2014.51848	14792.925
2017.56639	14762.125
2020.61233	14720.025
2023.6563	14706.925
2026.6983	14695.325
2029.73833	14665.525
2032.7764	14656.025
2035.8125	14642.825
2038.84664	14621.225
2041.87881	14604.025
2044.90903	14629.425
2047.93729	14602.325
2050.96359	14578.325
2053.98794	14565.425
2057.01034	14547.925
2060.03078	14570.825
2063.04927	14562.025
2066.06582	14533.925
2069.08042	14481.325
2072.09307	14473.425
2075.10378	14449.325
2078.11255	14417.425
2081.11938	14429.525
2084.12426	14388.625
2087.12722	14407.225
2090.12824	14426.425
2093.12732	14418.625
2096.12447	14383.325
2099.11969	14398.225
2102.11299	14374.825
2105.10435	14381.125
2108.09379	14386.925
2111.08131	14424.325
2114.0669	14412.225
2117.05057	14461.025
2120.03233	14462.325
2123.01216	14492.225
2125.99008	14488.425
2128.96609	14519.925
2131.94018	14502.625
2134.91236	14488.525
2137.88263	14497.125
2140.851	14537.825
2143.81746	14534.125
2146.78201	14511.725
2149.74466	14528.425
2152.7054	14560.225
2155.66425	14551.525
2158.6212	14542.325
2161.57625	14529.525
2164.52941	14526.025
2167.48067	14496.025
2170.43004	14502.025
2173.37752	14505.525
2176.32311	14509.625
2179.26681	14548.725
2182.20863	14534.325
2185.14856	14551.425
2188.08661	14560.125
2191.02278	14527.625
2193.95707	14556.225
2196.88948	14572.225
2199.82001	14563.225
2202.74867	14553.125
2205.67545	14593.525
2208.60037	14624.825
2211.52341	14650.825
2214.44458	14619.525
2217.36388	14618.325
2220.28132	14619.525
2223.1969	14555.825
2226.11061	14556.325
2229.02246	14539.925
2231.93245	14482.225
2234.84058	14460.325
2237.74686	14414.225
2240.65128	14392.625
2243.55385	14375.625
2246.45456	14358.325
2249.35343	14323.525
2252.25044	14390.525
2255.14561	14395.425
2258.03893	14386.425
2260.93041	14367.525
2263.82004	14332.725
2266.70783	14310.325
2269.59378	14240.325
2272.4779	14246.625
2275.36017	14212.325
2278.24061	14161.125
2281.11922	14138.525
2283.996	14129.025
2286.87094	14110.325
2289.74405	14075.725
2292.61534	14103.325
2295.4848	14050.425
2298.35243	14066.725
2301.21824	14107.625
2304.08223	14127.225
2306.94439	14152.625
2309.80474	14193.525
2312.66327	14184.625
2315.51999	14203.025
2318.37489	14222.325
2321.22797	14252.425
2324.07925	14193.725
2326.92871	14200.925
2329.77637	14216.725
2332.62222	14212.925
2335.46626	14228.625
2338.3085	14232.825
2341.14893	14270.825
2343.98756	14312.525
2346.8244	14368.525
2349.65943	14410.425
2352.49267	14382.225
2355.32411	14400.825
2358.15376	14360.825
2360.98161	14385.325
2363.80768	14351.825
2366.63195	14336.625
2369.45444	14264.425
2372.27514	14278.525
2375.09405	14233.625
2377.91118	14170.425
2380.72652	14116.525
2383.54009	14072.525
2386.35187	14048.725
2389.16188	14028.525
2391.97011	13994.025
2394.77657	13954.825
2397.58125	13980.425
2400.38416	13953.425
2403.18529	13935.925
2405.98466	13861.825
2408.78226	13796.325
2411.57809	13773.825
2414.37216	13725.225
2417.16446	13715.325
2419.955	13702.525
2422.74378	13700.825
2425.5308	13674.925
2428.31606	13667.025
2431.09956	13652.925
2433.88131	13662.125
2436.6613	13681.625
2439.43954	13686.925
2442.21603	13668.925
2444.99077	13672.725
2447.76377	13647.625
2450.53501	13648.525
2453.30451	13678.025
2456.07226	13655.425
2458.83827	13654.125
2461.60254	13632.125
2464.36507	13613.425
2467.12586	13586.025
2469.88492	13643.925
2472.64224	13659.625
2475.39782	13667.425
2478.15167	13703.625
2480.90379	13719.125
2483.65417	13746.425
2486.40283	13779.925
2489.14976	13814.325
2491.89497	13845.625
2494.63845	13853.925
2497.3802	13862.725
2500.12024	13856.925
2502.85855	13832.425
2505.59514	13811.625
2508.33002	13757.925
2511.06318	13738.325
2513.79462	13699.825
2516.52435	13680.625
2519.25237	13661.325
2521.97867	13619.525
2524.70327	13606.325
2527.42616	13571.225
2530.14734	13585.325
2532.86681	13592.925
2535.58458	13588.425
2538.30065	13594.325
2541.01501	13636.125
2543.72768	13606.325
2546.43864	13617.725
2549.14791	13610.325
2551.85548	13628.325
2554.56136	13571.725
2557.26554	13582.525
2559.96803	13567.325
2562.66883	13554.325
2565.36794	13552.125
2568.06536	13535.525
2570.7611	13566.025
2573.45514	13546.925
2576.14751	13525.525
2578.83819	13541.225
2581.52719	13524.125
2584.21451	13535.325
2586.90015	13560.025
2589.58411	13524.325
2592.2664	13565.225
2594.94701	13538.725
2597.62594	13555.425
2600.30321	13518.725
2602.9788	13532.325
2605.65273	13529.625
2608.32498	13563.125
2610.99557	13585.025
2613.66449	13562.025
2616.33175	13598.125
2618.99734	13643.525
2621.66128	13671.325
2624.32355	13685.325
2626.98416	13663.825
2629.64311	13678.525
2632.30041	13704.825
2634.95605	13717.525
2637.61004	13694.625
2640.26238	13661.125
2642.91306	13637.325
2645.56209	13609.725
2648.20948	13576.825
2650.85521	13524.425
2653.4993	13516.825
2656.14175	13510.625
2658.78255	13512.125
2661.42171	13499.125
2664.05923	13546.125
2666.6951	13584.825
2669.32934	13633.325
2671.96194	13623.225
2674.59291	13660.625
2677.22224	13663.325
2679.84993	13621.625
2682.476	13607.425
2685.10043	13587.125
2687.72324	13539.425
2690.34441	13538.925
2692.96396	13498.425
2695.58188	13509.925
2698.19818	13472.325
2700.81285	13505.725
2703.4259	13471.425
2706.03733	13509.225
2708.64714	13472.125
2711.25533	13470.125
2713.86191	13472.825
2716.46687	13447.325
2719.07021	13501.025
2721.67194	13527.825
2724.27206	13494.325
2726.87057	13507.425
2729.46747	13491.225
2732.06276	13506.525
2734.65644	13489.725
2737.24852	13492.125
2739.83899	13483.625
2742.42786	13522.125
2745.01513	13483.325
2747.60079	13443.225
2750.18486	13416.325
2752.76733	13416.225
2755.3482	13416.925
2757.92747	13406.425
2760.50515	13415.325
2763.08123	13394.925
2765.65573	13423.725
2768.22863	13431.125
2770.79994	13411.625
2773.36967	13414.425
2775.9378	13413.325
2778.50435	13460.425
2781.06932	13414.725
2783.6327	13452.925
2786.1945	13439.925
2788.75471	13424.425
2791.31335	13396.225
2793.87041	13366.025
2796.42589	13341.225
2798.97979	13376.625
2801.53212	13313.425
2804.08288	13301.225
2806.63206	13281.325
2809.17967	13251.025
2811.72571	13266.225
2814.27018	13259.725
2816.81308	13250.925
2819.35442	13270.525
2821.89419	13262.525
2824.43239	13275.225
2826.96904	13257.825
2829.50412	13290.525
2832.03763	13217.625
2834.56959	13225.125
2837.1	13205.625
2839.62884	13226.825
2842.15613	13193.425
2844.68186	13221.225
2847.20604	13198.525
2849.72867	13189.025
2852.24974	13173.125
2854.76927	13182.925
2857.28724	13167.525
2859.80367	13173.525
2862.31855	13178.825
2864.83189	13181.325
2867.34368	13146.825
2869.85393	13159.225
2872.36264	13165.725
2874.8698	13128.925
2877.37543	13151.025
2879.87952	13167.725
2882.38207	13147.525
2884.88308	13128.225
2887.38256	13144.025
2889.88051	13135.625
2892.37692	13155.425
2894.8718	13161.025
2897.36515	13131.525
2899.85698	13146.325
2902.34727	13215.125
2904.83604	13226.125
2907.32328	13269.725
2909.809	13261.425
2912.29319	13244.425
2914.77587	13227.325
2917.25702	13230.225
2919.73665	13209.825
2922.21476	13176.625
2924.69136	13153.425
2927.16644	13134.825
2929.64	13099.825
2932.11205	13098.325
2934.58258	13037.125
2937.05161	13064.825
2939.51912	13064.225
2941.98513	13051.225
2944.44962	13049.225
2946.91261	13023.125
2949.37409	13027.325
2951.83407	13028.925
2954.29254	13009.925
2956.74951	13030.325
2959.20498	13021.425
2961.65895	12985.225
2964.11142	12974.325
2966.56239	12908.925
2969.01186	12917.525
2971.45984	12896.725
2973.90632	12894.025
2976.35131	12857.125
2978.7948	12834.025
2981.23681	12801.225
2983.67732	12761.325
2986.11635	12728.825
2988.55388	12706.925
2990.98993	12685.325
2993.4245	12661.825
2995.85758	12655.925
2998.28917	12627.425
3000.71928	12629.525
3003.14791	12606.325
3005.57506	12563.425
3008.00073	12520.125
3010.42493	12520.725
3012.84764	12500.025
3015.26888	12506.025
3017.68865	12464.225
3020.10694	12461.025
3022.52376	12396.325
3024.9391	12364.825
3027.35298	12344.125
3029.76539	12315.925
3032.17632	12306.725
3034.5858	12304.725
3036.9938	12278.925
3039.40034	12294.425
3041.80542	12288.825
3044.20903	12260.125
3046.61118	12253.525
3049.01187	12227.025
3051.4111	12209.225
3053.80888	12190.425
3056.20519	12153.725
3058.60005	12123.225
3060.99345	12080.425
3063.3854	12048.525
3065.7759	12014.225
3068.16494	12002.625
3070.55254	11953.625
3072.93868	11910.825
3075.32338	11865.725
3077.70662	11848.825
3080.08842	11835.125
3082.46878	11825.225
3084.84769	11815.625
3087.22515	11803.925
3089.60118	11811.425
3091.97576	11792.125
3094.3489	11783.025
3096.72061	11785.425
3099.09087	11774.825
3101.4597	11768.325
3103.82709	11751.825
3106.19305	11761.025
3108.55757	11755.425
3110.92066	11722.525
3113.28232	11720.025
3115.64255	11693.025
3118.00134	11668.025
3120.35871	11678.625
3122.71466	11654.525
3125.06917	11639.025
3127.42226	11618.125
3129.77393	11630.225
