Data from AgNPs_UA_200uM_CRN_0uM_R6G_10uM_Q_RamanShift__19__14-22-04-159.txt Node

Date: Tue Jul 26 14:22:04 BST 2022
User: TCL
Spectrometer: QEP01345
Trigger mode: 4
Integration Time (sec): 7.000000E0
Scans to average: 10
Electric dark correction enabled: true
Nonlinearity correction enabled: false
Boxcar width: 0
XAxis mode: Raman Shifts
Number of Pixels in Spectrum: 1044
>>>>>Begin Spectral Data<<<<<
46.04893	-0.6875
50.45542	0.4125
54.85868	0.3125
59.25871	0.9125
63.6555	40.9125
68.04907	43.9125
72.43941	48.5125
76.82654	51.1125
81.21044	55.4125
85.59113	53.6125
89.96862	58.3125
94.34289	61.1125
98.71396	60.1125
103.08183	65.4125
107.4465	61.9125
111.80798	66.6125
116.16626	67.7125
120.52136	68.7125
124.87327	66.5125
129.222	68.7125
133.56755	66.8125
137.90993	66.5125
142.24913	72.3125
146.58517	75.0125
150.91804	76.3125
155.24774	88.4125
159.57429	101.1125
163.89768	115.1125
168.21792	144.6125
172.53501	185.6125
176.84895	247.0125
181.15975	336.7125
185.46741	457.8125
189.77193	627.7125
194.07331	828.6125
198.37157	1057.7125
202.6667	1306.0125
206.9587	1544.8125
211.24758	1793.3125
215.53334	2044.8125
219.81599	2304.0125
224.09553	2601.4125
228.37195	2913.1125
232.64527	3260.3125
236.91549	3604.8125
241.18261	3963.0125
245.44663	4265.9125
249.70755	4526.4125
253.96539	4738.9125
258.22014	4928.2125
262.4718	5040.3125
266.72039	5120.0125
270.96589	5133.7125
275.20832	5105.7125
279.44768	5025.1125
283.68397	4935.2125
287.91719	4866.5125
292.14735	4796.4125
296.37445	4810.0125
300.59849	4850.4125
304.81948	4896.5125
309.03742	4926.6125
313.25231	4918.3125
317.46415	4824.5125
321.67296	4680.0125
325.87872	4577.7125
330.08145	4554.1125
334.28114	4573.1125
338.47781	4609.9125
342.67145	4702.6125
346.86207	4794.9125
351.04966	4912.6125
355.23424	5065.6125
359.4158	5192.9125
363.59435	5300.2125
367.76989	5380.4125
371.94243	5410.3125
376.11196	5447.8125
380.27849	5502.1125
384.44203	5534.5125
388.60257	5549.2125
392.76012	5570.5125
396.91468	5635.1125
401.06626	5688.6125
405.21485	5741.3125
409.36047	5723.0125
413.50311	5622.2125
417.64277	5532.5125
421.77947	5464.6125
425.9132	5441.4125
430.04396	5442.4125
434.17176	5462.1125
438.2966	5520.7125
442.41849	5609.0125
446.53742	5713.5125
450.6534	5796.1125
454.76644	5892.8125
458.87653	5908.6125
462.98368	5916.9125
467.08789	5915.2125
471.18916	5873.2125
475.2875	5814.4125
479.38291	5779.0125
483.4754	5743.5125
487.56496	5728.5125
491.6516	5752.3125
495.73531	5767.6125
499.81612	5760.0125
503.89401	5783.9125
507.96899	5798.9125
512.04106	5820.5125
516.11023	5850.1125
520.1765	5897.6125
524.23987	5901.8125
528.30034	5905.5125
532.35792	5898.2125
536.41261	5875.6125
540.46441	5830.9125
544.51333	5798.4125
548.55936	5810.1125
552.60252	5861.4125
556.64279	5918.3125
560.6802	5942.5125
564.71473	5987.4125
568.7464	6033.2125
572.7752	6055.0125
576.80114	6017.8125
580.82422	5983.2125
584.84444	5991.2125
588.86181	6048.4125
592.87633	6127.0125
596.888	6171.3125
600.89682	6322.3125
604.9028	6738.5125
608.90594	7586.9125
612.90624	8442.7125
616.90371	8038.6125
620.89834	6865.6125
624.89015	6434.1125
628.87913	6454.0125
632.86528	6585.9125
636.84862	6639.8125
640.82913	6601.9125
644.80683	6388.8125
648.78172	6235.0125
652.75379	6184.4125
656.72306	6233.6125
660.68952	6357.1125
664.65319	6335.1125
668.61405	6261.8125
672.57211	6265.6125
676.52738	6290.0125
680.47986	6252.8125
684.42955	6240.6125
688.37646	6247.3125
692.32058	6234.2125
696.26192	6276.6125
700.20048	6272.8125
704.13626	6275.6125
708.06928	6219.9125
711.99952	6167.9125
715.927	6169.0125
719.85171	6189.2125
723.77365	6203.3125
727.69284	6214.7125
731.60928	6214.3125
735.52295	6206.0125
739.43388	6151.2125
743.34206	6146.9125
747.24749	6155.8125
751.15017	6144.0125
755.05012	6158.5125
758.94733	6300.6125
762.8418	6593.4125
766.73354	7035.2125
770.62254	7510.8125
774.50882	7778.9125
778.39237	7599.8125
782.27321	7171.3125
786.15132	6733.4125
790.02671	6447.3125
793.89938	6298.0125
797.76935	6241.9125
801.6366	6234.8125
805.50115	6222.7125
809.36299	6256.1125
813.22213	6254.8125
817.07857	6238.0125
820.93231	6200.4125
824.78336	6153.5125
828.63172	6127.7125
832.47738	6115.2125
836.32036	6114.3125
840.16066	6129.1125
843.99827	6093.3125
847.8332	6117.3125
851.66546	6083.9125
855.49504	6094.6125
859.32195	6108.0125
863.1462	6090.6125
866.96777	6099.7125
870.78668	6108.8125
874.60293	6130.0125
878.41652	6179.3125
882.22745	6226.3125
886.03573	6289.7125
889.84136	6284.1125
893.64433	6253.9125
897.44466	6235.7125
901.24235	6170.9125
905.0374	6128.6125
908.8298	6109.4125
912.61957	6082.5125
916.40671	6064.0125
920.19121	6069.9125
923.97308	6112.9125
927.75233	6158.8125
931.52895	6192.2125
935.30295	6141.4125
939.07433	6079.3125
942.84309	6054.0125
946.60924	6030.5125
950.37278	6027.4125
954.13371	5994.9125
957.89203	5973.7125
961.64774	5975.2125
965.40086	5965.8125
969.15137	5947.8125
972.89929	5937.0125
976.64461	5925.0125
980.38733	5941.8125
984.12747	5938.3125
987.86502	5993.5125
991.59999	6041.5125
995.33237	6120.3125
999.06217	6220.5125
1002.78939	6339.9125
1006.51404	6428.2125
1010.23611	6461.2125
1013.95561	6546.6125
1017.67255	6557.2125
1021.38692	6556.6125
1025.09872	6528.6125
1028.80796	6538.0125
1032.51465	6607.9125
1036.21877	6648.6125
1039.92035	6649.3125
1043.61937	6574.6125
1047.31584	6490.5125
1051.00976	6429.5125
1054.70114	6389.5125
1058.38998	6398.1125
1062.07627	6390.1125
1065.76003	6420.2125
1069.44126	6449.4125
1073.11995	6513.3125
1076.79611	6582.5125
1080.46974	6655.5125
1084.14085	6684.4125
1087.80943	6729.9125
1091.47549	6735.0125
1095.13903	6703.5125
1098.80005	6622.8125
1102.45857	6617.0125
1106.11456	6597.6125
1109.76805	6630.8125
1113.41903	6695.1125
1117.06751	6793.1125
1120.71348	6930.3125
1124.35696	7072.2125
1127.99793	7244.3125
1131.63641	7289.1125
1135.2724	7241.1125
1138.90589	7134.5125
1142.5369	7022.3125
1146.16542	6890.0125
1149.79145	6761.2125
1153.415	6682.0125
1157.03607	6635.8125
1160.65467	6642.7125
1164.27079	6752.9125
1167.88443	6923.0125
1171.49561	7150.7125
1175.10432	7552.5125
1178.71056	8051.6125
1182.31434	8552.9125
1185.91565	8809.1125
1189.51451	8773.9125
1193.11091	8552.1125
1196.70485	8254.3125
1200.29634	8028.8125
1203.88538	7836.8125
1207.47197	7630.7125
1211.05612	7398.8125
1214.63782	7213.4125
1218.21708	7130.7125
1221.79391	7107.0125
1225.36829	7108.4125
1228.94024	7081.0125
1232.50976	7018.9125
1236.07685	6992.8125
1239.6415	6968.6125
1243.20374	7012.2125
1246.76355	7040.7125
1250.32093	7114.2125
1253.8759	7187.0125
1257.42845	7310.1125
1260.97859	7454.1125
1264.52631	7583.3125
1268.07163	7724.7125
1271.61453	7856.2125
1275.15503	7950.5125
1278.69312	8049.0125
1282.22882	8097.9125
1285.76211	8148.5125
1289.29301	8240.1125
1292.82151	8343.2125
1296.34761	8530.8125
1299.87133	8827.1125
1303.39266	9273.7125
1306.9116	9928.9125
1310.42815	10587.1125
1313.94233	10839.9125
1317.45412	10679.2125
1320.96354	10236.0125
1324.47058	9767.1125
1327.97525	9381.9125
1331.47754	9101.1125
1334.97747	8983.1125
1338.47502	9027.6125
1341.97022	9199.6125
1345.46305	9445.6125
1348.95352	9779.8125
1352.44163	10205.0125
1355.92738	10760.1125
1359.41078	11516.1125
1362.89183	12127.7125
1366.37053	11746.0125
1369.84688	10565.5125
1373.32088	9481.3125
1376.79254	8825.8125
1380.26186	8437.1125
1383.72883	8204.3125
1387.19347	7975.5125
1390.65578	7778.5125
1394.11575	7598.1125
1397.57339	7499.7125
1401.0287	7464.6125
1404.48168	7467.4125
1407.93234	7443.1125
1411.38068	7453.0125
1414.82669	7451.2125
1418.27039	7390.6125
1421.71177	7357.9125
1425.15083	7296.3125
1428.58758	7252.0125
1432.02203	7307.9125
1435.45416	7344.9125
1438.88399	7369.7125
1442.31151	7334.6125
1445.73673	7360.1125
1449.15965	7370.9125
1452.58027	7332.5125
1455.9986	7324.1125
1459.41463	7346.2125
1462.82837	7404.8125
1466.23982	7495.8125
1469.64898	7624.9125
1473.05586	7699.9125
1476.46045	7761.2125
1479.86276	7840.7125
1483.26279	7897.2125
1486.66054	7949.9125
1490.05602	8071.8125
1493.44922	8234.9125
1496.84016	8554.4125
1500.22882	9030.5125
1503.61521	9669.9125
1506.99934	10319.9125
1510.38121	10682.3125
1513.76081	10606.3125
1517.13816	10056.3125
1520.51324	9333.6125
1523.88607	8694.9125
1527.25665	8310.1125
1530.62498	8099.0125
1533.99105	7978.1125
1537.35488	7916.4125
1540.71647	7868.7125
1544.07581	7841.0125
1547.4329	7855.5125
1550.78776	7802.0125
1554.14038	7797.3125
1557.49077	7780.4125
1560.83892	7834.5125
1564.18484	7899.7125
1567.52853	8030.9125
1570.86999	8157.8125
1574.20922	8213.1125
1577.54624	8192.3125
1580.88103	7985.5125
1584.2136	7745.9125
1587.54395	7650.5125
1590.87208	7767.9125
1594.19801	8041.5125
1597.52172	8375.5125
1600.84321	8568.7125
1604.16251	8431.3125
1607.47959	8169.1125
1610.79447	7808.2125
1614.10715	7502.8125
1617.41763	7203.3125
1620.7259	6988.4125
1624.03199	6871.8125
1627.33587	6855.3125
1630.63757	6920.9125
1633.93707	7121.5125
1637.23439	7444.3125
1640.52951	7868.9125
1643.82246	8415.3125
1647.11321	8927.9125
1650.40179	9165.4125
1653.68819	8817.2125
1656.97241	8134.3125
1660.25446	7421.8125
1663.53433	6960.8125
1666.81203	6648.6125
1670.08756	6444.4125
1673.36092	6348.1125
1676.63211	6254.1125
1679.90115	6190.4125
1683.16801	6147.4125
1686.43272	6095.2125
1689.69527	6065.5125
1692.95567	6019.0125
1696.2139	5964.6125
1699.46999	5925.4125
1702.72392	5873.2125
1705.97571	5847.6125
1709.22535	5806.7125
1712.47284	5790.7125
1715.71819	5760.8125
1718.96139	5740.4125
1722.20246	5710.9125
1725.44139	5649.4125
1728.67818	5634.3125
1731.91284	5613.1125
1735.14537	5563.1125
1738.37576	5535.8125
1741.60403	5517.8125
1744.83017	5492.5125
1748.05418	5476.3125
1751.27607	5453.8125
1754.49584	5440.5125
1757.71349	5453.7125
1760.92903	5427.4125
1764.14244	5450.0125
1767.35375	5430.9125
1770.56294	5415.9125
1773.77002	5403.9125
1776.97499	5397.0125
1780.17785	5388.1125
1783.37861	5373.8125
1786.57727	5360.5125
1789.77382	5335.5125
1792.96828	5334.4125
1796.16064	5325.9125
1799.3509	5325.6125
1802.53907	5306.5125
1805.72514	5316.8125
1808.90913	5299.2125
1812.09102	5268.3125
1815.27083	5268.9125
1818.44856	5248.0125
1821.6242	5249.8125
1824.79776	5240.4125
1827.96924	5239.6125
1831.13864	5228.8125
1834.30597	5235.1125
1837.47122	5231.7125
1840.6344	5210.1125
1843.7955	5197.8125
1846.95454	5200.6125
1850.11151	5202.6125
1853.26642	5200.0125
1856.41926	5194.5125
1859.57004	5185.9125
1862.71876	5178.4125
1865.86542	5185.9125
1869.01003	5178.1125
1872.15258	5179.7125
1875.29308	5157.8125
1878.43152	5149.7125
1881.56792	5154.0125
1884.70227	5159.4125
1887.83457	5135.4125
1890.96482	5133.7125
1894.09304	5129.5125
1897.21921	5132.0125
1900.34335	5130.7125
1903.46544	5131.9125
1906.58551	5130.4125
1909.70353	5139.3125
1912.81953	5103.3125
1915.93349	5113.7125
1919.04543	5104.8125
1922.15534	5095.7125
1925.26322	5084.7125
1928.36908	5063.5125
1931.47292	5068.4125
1934.57473	5068.6125
1937.67453	5047.0125
1940.77232	5049.4125
1943.86808	5008.9125
1946.96184	4993.1125
1950.05358	5006.3125
1953.14331	4980.8125
1956.23103	4949.2125
1959.31675	4940.1125
1962.40046	4947.4125
1965.48217	4937.5125
1968.56188	4924.9125
1971.63959	4904.9125
1974.7153	4883.1125
1977.78901	4887.0125
1980.86073	4857.3125
1983.93046	4854.2125
1986.99819	4822.3125
1990.06394	4827.1125
1993.1277	4807.6125
1996.18947	4797.2125
1999.24925	4787.3125
2002.30706	4789.6125
2005.36288	4767.9125
2008.41672	4753.3125
2011.46859	4733.7125
2014.51848	4717.7125
2017.56639	4724.6125
2020.61233	4693.1125
2023.6563	4695.9125
2026.6983	4677.3125
2029.73833	4685.3125
2032.7764	4660.0125
2035.8125	4649.0125
2038.84664	4640.7125
2041.87881	4650.4125
2044.90903	4637.0125
2047.93729	4621.3125
2050.96359	4624.7125
2053.98794	4615.4125
2057.01034	4620.8125
2060.03078	4613.2125
2063.04927	4603.4125
2066.06582	4592.0125
2069.08042	4601.9125
2072.09307	4592.9125
2075.10378	4601.7125
2078.11255	4587.5125
2081.11938	4599.7125
2084.12426	4590.2125
2087.12722	4598.1125
2090.12824	4582.4125
2093.12732	4597.7125
2096.12447	4582.7125
2099.11969	4584.9125
2102.11299	4587.3125
2105.10435	4604.0125
2108.09379	4599.9125
2111.08131	4607.4125
2114.0669	4601.0125
2117.05057	4593.7125
2120.03233	4605.6125
2123.01216	4630.7125
2125.99008	4618.8125
2128.96609	4610.7125
2131.94018	4619.3125
2134.91236	4617.0125
2137.88263	4614.9125
2140.851	4622.3125
2143.81746	4621.0125
2146.78201	4624.7125
2149.74466	4643.9125
2152.7054	4642.6125
2155.66425	4642.5125
2158.6212	4628.3125
2161.57625	4625.8125
2164.52941	4615.4125
2167.48067	4627.5125
2170.43004	4630.2125
2173.37752	4626.4125
2176.32311	4609.6125
2179.26681	4622.1125
2182.20863	4625.0125
2185.14856	4623.2125
2188.08661	4621.4125
2191.02278	4626.7125
2193.95707	4628.6125
2196.88948	4627.5125
2199.82001	4628.7125
2202.74867	4600.5125
2205.67545	4622.2125
2208.60037	4604.1125
2211.52341	4617.2125
2214.44458	4593.8125
2217.36388	4599.1125
2220.28132	4577.8125
2223.1969	4581.0125
2226.11061	4578.4125
2229.02246	4578.4125
2231.93245	4558.0125
2234.84058	4554.3125
2237.74686	4536.2125
2240.65128	4548.7125
2243.55385	4526.4125
2246.45456	4527.5125
2249.35343	4522.4125
2252.25044	4524.3125
2255.14561	4526.3125
2258.03893	4511.3125
2260.93041	4511.0125
2263.82004	4497.8125
2266.70783	4487.0125
2269.59378	4476.4125
2272.4779	4477.4125
2275.36017	4464.4125
2278.24061	4451.5125
2281.11922	4441.2125
2283.996	4434.2125
2286.87094	4427.7125
2289.74405	4425.6125
2292.61534	4409.0125
2295.4848	4402.9125
2298.35243	4406.9125
2301.21824	4407.7125
2304.08223	4408.3125
2306.94439	4413.9125
2309.80474	4404.7125
2312.66327	4406.4125
2315.51999	4395.0125
2318.37489	4395.5125
2321.22797	4401.5125
2324.07925	4407.3125
2326.92871	4378.0125
2329.77637	4393.5125
2332.62222	4379.4125
2335.46626	4365.6125
2338.3085	4354.8125
2341.14893	4362.6125
2343.98756	4358.3125
2346.8244	4357.9125
2349.65943	4362.2125
2352.49267	4368.5125
2355.32411	4345.3125
2358.15376	4375.0125
2360.98161	4368.4125
2363.80768	4353.1125
2366.63195	4354.4125
2369.45444	4354.2125
2372.27514	4340.3125
2375.09405	4333.1125
2377.91118	4322.3125
2380.72652	4316.8125
2383.54009	4312.3125
2386.35187	4303.5125
2389.16188	4291.5125
2391.97011	4293.7125
2394.77657	4287.9125
2397.58125	4263.2125
2400.38416	4281.8125
2403.18529	4268.3125
2405.98466	4250.7125
2408.78226	4255.4125
2411.57809	4238.0125
2414.37216	4239.7125
2417.16446	4244.8125
2419.955	4222.7125
2422.74378	4231.4125
2425.5308	4210.2125
2428.31606	4217.3125
2431.09956	4226.6125
2433.88131	4195.7125
2436.6613	4207.5125
2439.43954	4205.4125
2442.21603	4207.6125
2444.99077	4211.7125
2447.76377	4204.8125
2450.53501	4202.0125
2453.30451	4190.6125
2456.07226	4190.8125
2458.83827	4177.1125
2461.60254	4178.1125
2464.36507	4187.3125
2467.12586	4176.3125
2469.88492	4176.6125
2472.64224	4185.4125
2475.39782	4180.4125
2478.15167	4182.4125
2480.90379	4190.9125
2483.65417	4178.3125
2486.40283	4190.9125
2489.14976	4190.2125
2491.89497	4187.4125
2494.63845	4191.6125
2497.3802	4182.2125
2500.12024	4183.4125
2502.85855	4181.7125
2505.59514	4173.2125
2508.33002	4159.8125
2511.06318	4156.2125
2513.79462	4151.1125
2516.52435	4138.0125
2519.25237	4149.0125
2521.97867	4111.9125
2524.70327	4126.6125
2527.42616	4131.8125
2530.14734	4122.1125
2532.86681	4118.8125
2535.58458	4117.3125
2538.30065	4121.6125
2541.01501	4111.8125
2543.72768	4107.8125
2546.43864	4107.5125
2549.14791	4096.5125
2551.85548	4095.8125
2554.56136	4085.3125
2557.26554	4085.6125
2559.96803	4075.3125
2562.66883	4063.9125
2565.36794	4072.9125
2568.06536	4062.0125
2570.7611	4063.5125
2573.45514	4054.6125
2576.14751	4061.1125
2578.83819	4042.4125
2581.52719	4026.3125
2584.21451	4022.9125
2586.90015	4033.2125
2589.58411	4025.6125
2592.2664	4029.7125
2594.94701	4017.1125
2597.62594	4030.1125
2600.30321	4010.4125
2602.9788	3986.8125
2605.65273	4006.3125
2608.32498	4003.9125
2610.99557	4005.9125
2613.66449	4014.2125
2616.33175	3986.9125
2618.99734	3994.2125
2621.66128	3986.6125
2624.32355	3987.7125
2626.98416	3980.1125
2629.64311	3993.3125
2632.30041	3972.7125
2634.95605	3969.1125
2637.61004	3967.6125
2640.26238	3960.7125
2642.91306	3953.3125
2645.56209	3951.9125
2648.20948	3949.4125
2650.85521	3960.8125
2653.4993	3944.1125
2656.14175	3946.2125
2658.78255	3952.4125
2661.42171	3957.3125
2664.05923	3949.2125
2666.6951	3966.9125
2669.32934	3959.6125
2671.96194	3963.1125
2674.59291	3963.9125
2677.22224	3962.4125
2679.84993	3963.0125
2682.476	3963.2125
2685.10043	3950.7125
2687.72324	3938.3125
2690.34441	3941.7125
2692.96396	3934.7125
2695.58188	3955.4125
2698.19818	3935.5125
2700.81285	3924.9125
2703.4259	3935.8125
2706.03733	3936.3125
2708.64714	3929.2125
2711.25533	3944.2125
2713.86191	3934.6125
2716.46687	3947.7125
2719.07021	3932.8125
2721.67194	3933.3125
2724.27206	3954.7125
2726.87057	3945.8125
2729.46747	3946.6125
2732.06276	3957.4125
2734.65644	3949.3125
2737.24852	3944.8125
2739.83899	3958.1125
2742.42786	3957.1125
2745.01513	3924.9125
2747.60079	3930.4125
2750.18486	3927.4125
2752.76733	3916.3125
2755.3482	3901.7125
2757.92747	3911.5125
2760.50515	3907.2125
2763.08123	3911.1125
2765.65573	3898.3125
2768.22863	3906.6125
2770.79994	3899.9125
2773.36967	3896.7125
2775.9378	3890.8125
2778.50435	3894.9125
2781.06932	3875.7125
2783.6327	3880.3125
2786.1945	3873.2125
2788.75471	3880.0125
2791.31335	3869.5125
2793.87041	3859.0125
2796.42589	3875.8125
2798.97979	3879.6125
2801.53212	3842.1125
2804.08288	3860.5125
2806.63206	3837.5125
2809.17967	3831.3125
2811.72571	3820.6125
2814.27018	3809.8125
2816.81308	3805.8125
2819.35442	3808.6125
2821.89419	3796.3125
2824.43239	3790.8125
2826.96904	3788.6125
2829.50412	3791.7125
2832.03763	3786.1125
2834.56959	3792.6125
2837.1	3772.3125
2839.62884	3768.1125
2842.15613	3766.8125
2844.68186	3764.8125
2847.20604	3773.1125
2849.72867	3772.9125
2852.24974	3774.1125
2854.76927	3768.7125
2857.28724	3756.4125
2859.80367	3748.0125
2862.31855	3752.6125
2864.83189	3760.8125
2867.34368	3739.2125
2869.85393	3734.7125
2872.36264	3730.7125
2874.8698	3736.0125
2877.37543	3739.3125
2879.87952	3744.7125
2882.38207	3742.7125
2884.88308	3738.9125
2887.38256	3746.1125
2889.88051	3739.5125
2892.37692	3740.2125
2894.8718	3730.4125
2897.36515	3743.7125
2899.85698	3762.1125
2902.34727	3749.9125
2904.83604	3757.6125
2907.32328	3769.8125
2909.809	3764.0125
2912.29319	3775.2125
2914.77587	3779.4125
2917.25702	3767.2125
2919.73665	3770.3125
2922.21476	3761.9125
2924.69136	3772.5125
2927.16644	3779.4125
2929.64	3767.1125
2932.11205	3764.4125
2934.58258	3754.3125
2937.05161	3744.9125
2939.51912	3755.1125
2941.98513	3754.6125
2944.44962	3749.4125
2946.91261	3740.1125
2949.37409	3733.5125
2951.83407	3751.4125
2954.29254	3752.3125
2956.74951	3759.2125
2959.20498	3738.2125
2961.65895	3759.9125
2964.11142	3755.0125
2966.56239	3741.2125
2969.01186	3751.6125
2971.45984	3743.2125
2973.90632	3742.2125
2976.35131	3733.4125
2978.7948	3737.6125
2981.23681	3719.9125
2983.67732	3737.5125
2986.11635	3712.5125
2988.55388	3710.6125
2990.98993	3701.1125
2993.4245	3685.6125
2995.85758	3688.9125
2998.28917	3690.0125
3000.71928	3679.1125
3003.14791	3663.8125
3005.57506	3665.3125
3008.00073	3666.4125
3010.42493	3670.7125
3012.84764	3665.7125
3015.26888	3654.8125
3017.68865	3663.1125
3020.10694	3660.0125
3022.52376	3647.7125
3024.9391	3658.9125
3027.35298	3645.5125
3029.76539	3636.0125
3032.17632	3638.6125
3034.5858	3650.4125
3036.9938	3637.1125
3039.40034	3635.3125
3041.80542	3642.4125
3044.20903	3638.4125
3046.61118	3638.2125
3049.01187	3628.8125
3051.4111	3622.5125
3053.80888	3632.7125
3056.20519	3626.9125
3058.60005	3630.9125
3060.99345	3609.2125
3063.3854	3614.4125
3065.7759	3598.8125
3068.16494	3604.0125
3070.55254	3589.5125
3072.93868	3601.6125
3075.32338	3581.2125
3077.70662	3593.8125
3080.08842	3580.6125
3082.46878	3574.7125
3084.84769	3588.0125
3087.22515	3596.9125
3089.60118	3597.4125
3091.97576	3609.8125
3094.3489	3593.3125
3096.72061	3608.3125
3099.09087	3613.5125
3101.4597	3615.3125
3103.82709	3626.3125
3106.19305	3628.0125
3108.55757	3622.0125
3110.92066	3617.2125
3113.28232	3619.0125
3115.64255	3630.3125
3118.00134	3629.2125
3120.35871	3623.3125
3122.71466	3603.9125
3125.06917	3618.5125
3127.42226	3616.9125
