Data from AgNPs_UA_2uM_CRN_0uM_R6G_10uM_Q_RamanShift__10__13-12-41-908.txt Node

Date: Wed Jul 13 13:12:41 BST 2022
User: TCL
Spectrometer: QEP01345
Trigger mode: 4
Integration Time (sec): 7.000000E0
Scans to average: 10
Electric dark correction enabled: true
Nonlinearity correction enabled: false
Boxcar width: 0
XAxis mode: Raman Shifts
Number of Pixels in Spectrum: 1044
>>>>>Begin Spectral Data<<<<<
46.04893	-1.1875
50.45542	-1.0875
54.85868	-0.1875
59.25871	-1.3875
63.6555	113.5125
68.04907	115.1125
72.43941	119.4125
76.82654	123.3125
81.21044	129.4125
85.59113	135.7125
89.96862	140.1125
94.34289	141.1125
98.71396	147.6125
103.08183	148.6125
107.4465	157.3125
111.80798	156.6125
116.16626	164.1125
120.52136	169.0125
124.87327	177.2125
129.222	188.7125
133.56755	202.6125
137.90993	216.0125
142.24913	235.4125
146.58517	257.7125
150.91804	303.5125
155.24774	362.0125
159.57429	442.1125
163.89768	571.8125
168.21792	753.6125
172.53501	1021.0125
176.84895	1422.7125
181.15975	1994.5125
185.46741	2793.1125
189.77193	3862.4125
194.07331	5178.6125
198.37157	6648.2125
202.6667	8212.9125
206.9587	9785.1125
211.24758	11289.2125
215.53334	12831.3125
219.81599	14481.9125
224.09553	16282.8125
228.37195	18265.3125
232.64527	20432.2125
236.91549	22678.5125
241.18261	24891.1125
245.44663	26870.0125
249.70755	28604.4125
253.96539	30220.2125
258.22014	31594.2125
262.4718	32708.9125
266.72039	33413.1125
270.96589	33733.9125
275.20832	33714.1125
279.44768	33543.0125
283.68397	33224.0125
287.91719	32955.0125
292.14735	32836.8125
296.37445	32945.5125
300.59849	33229.0125
304.81948	33642.5125
309.03742	33901.4125
313.25231	33893.9125
317.46415	33527.4125
321.67296	32798.5125
325.87872	32172.9125
330.08145	31957.9125
334.28114	31961.8125
338.47781	32307.9125
342.67145	32784.9125
346.86207	33381.5125
351.04966	34155.3125
355.23424	34862.7125
359.4158	35426.3125
363.59435	35791.7125
367.76989	36006.8125
371.94243	36193.0125
376.11196	36168.8125
380.27849	36242.8125
384.44203	36334.7125
388.60257	36598.9125
392.76012	36894.5125
396.91468	37390.2125
401.06626	37952.1125
405.21485	38322.9125
409.36047	38013.3125
413.50311	37422.6125
417.64277	36976.0125
421.77947	36885.0125
425.9132	36925.9125
430.04396	37126.2125
434.17176	37291.3125
438.2966	37560.0125
442.41849	37971.2125
446.53742	38640.0125
450.6534	39388.0125
454.76644	39828.1125
458.87653	39999.9125
462.98368	39983.3125
467.08789	39825.4125
471.18916	39527.0125
475.2875	39087.6125
479.38291	38721.9125
483.4754	38473.4125
487.56496	38336.4125
491.6516	38156.3125
495.73531	38136.9125
499.81612	38161.7125
503.89401	38349.7125
507.96899	38590.6125
512.04106	38611.4125
516.11023	38610.3125
520.1765	38594.6125
524.23987	38546.9125
528.30034	38409.5125
532.35792	38257.1125
536.41261	37997.0125
540.46441	37740.3125
544.51333	37738.9125
548.55936	38032.1125
552.60252	38597.0125
556.64279	39169.0125
560.6802	39520.8125
564.71473	39812.3125
568.7464	40334.2125
572.7752	40883.4125
576.80114	41345.0125
580.82422	41927.2125
584.84444	42590.3125
588.86181	43196.0125
592.87633	43765.8125
596.888	43823.6125
600.89682	43722.0125
604.9028	45106.1125
608.90594	49232.5125
612.90624	53001.7125
616.90371	49357.1125
620.89834	42485.5125
624.89015	39802.9125
628.87913	39680.3125
632.86528	40094.5125
636.84862	40347.5125
640.82913	39914.1125
644.80683	39151.2125
648.78172	38679.3125
652.75379	38769.9125
656.72306	39389.4125
660.68952	39960.6125
664.65319	39727.2125
668.61405	39277.8125
672.57211	39313.7125
676.52738	39447.1125
680.47986	39233.1125
684.42955	38978.2125
688.37646	38904.1125
692.32058	39129.2125
696.26192	39607.9125
700.20048	40094.2125
704.13626	40356.3125
708.06928	40292.9125
711.99952	40186.9125
715.927	40030.3125
719.85171	40135.9125
723.77365	40081.7125
727.69284	39736.8125
731.60928	39453.0125
735.52295	39366.6125
739.43388	39396.1125
743.34206	39580.3125
747.24749	39672.3125
751.15017	39926.3125
755.05012	40408.5125
758.94733	41362.3125
762.8418	43435.9125
766.73354	46485.6125
770.62254	48961.0125
774.50882	49145.5125
778.39237	47304.3125
782.27321	44871.0125
786.15132	42630.1125
790.02671	41179.3125
793.89938	40380.6125
797.76935	39974.7125
801.6366	39835.9125
805.50115	39707.6125
809.36299	39654.2125
813.22213	39528.3125
817.07857	39467.4125
820.93231	39461.4125
824.78336	39459.2125
828.63172	39497.1125
832.47738	39432.5125
836.32036	39406.8125
840.16066	39376.8125
843.99827	39375.5125
847.8332	39395.5125
851.66546	39467.6125
855.49504	39608.5125
859.32195	39608.2125
863.1462	39574.5125
866.96777	39601.1125
870.78668	39601.7125
874.60293	39714.9125
878.41652	39853.6125
882.22745	40088.9125
886.03573	40121.0125
889.84136	40176.5125
893.64433	40108.3125
897.44466	39987.7125
901.24235	39908.6125
905.0374	39852.7125
908.8298	39722.7125
912.61957	39806.9125
916.40671	39923.6125
920.19121	40181.5125
923.97308	40476.8125
927.75233	40562.0125
931.52895	40410.4125
935.30295	40026.3125
939.07433	39540.2125
942.84309	39217.0125
946.60924	39034.7125
950.37278	38977.7125
954.13371	38940.9125
957.89203	38850.1125
961.64774	38894.8125
965.40086	38852.2125
969.15137	38810.6125
972.89929	38758.1125
976.64461	38681.6125
980.38733	38697.9125
984.12747	38711.0125
987.86502	38896.6125
991.59999	39032.2125
995.33237	39246.1125
999.06217	39508.2125
1002.78939	39911.4125
1006.51404	40390.0125
1010.23611	40886.1125
1013.95561	41159.9125
1017.67255	41217.2125
1021.38692	41037.1125
1025.09872	40662.9125
1028.80796	40305.0125
1032.51465	40230.1125
1036.21877	40253.0125
1039.92035	40333.8125
1043.61937	40426.9125
1047.31584	40592.0125
1051.00976	40582.6125
1054.70114	40756.8125
1058.38998	40964.3125
1062.07627	41282.3125
1065.76003	41639.5125
1069.44126	42116.9125
1073.11995	42710.1125
1076.79611	43321.5125
1080.46974	43665.6125
1084.14085	43915.3125
1087.80943	44285.4125
1091.47549	44444.6125
1095.13903	44282.0125
1098.80005	43887.8125
1102.45857	43400.3125
1106.11456	42913.1125
1109.76805	42595.9125
1113.41903	42439.4125
1117.06751	42661.1125
1120.71348	43046.5125
1124.35696	43575.1125
1127.99793	43995.5125
1131.63641	43887.3125
1135.2724	43433.1125
1138.90589	43052.8125
1142.5369	42893.2125
1146.16542	42860.1125
1149.79145	42863.1125
1153.415	42824.6125
1157.03607	42919.3125
1160.65467	43439.0125
1164.27079	44346.4125
1167.88443	45674.4125
1171.49561	47319.4125
1175.10432	49714.6125
1178.71056	52745.5125
1182.31434	55115.7125
1185.91565	56046.4125
1189.51451	55865.1125
1193.11091	54997.0125
1196.70485	53676.0125
1200.29634	52308.0125
1203.88538	50991.4125
1207.47197	49844.4125
1211.05612	48814.5125
1214.63782	47935.5125
1218.21708	47035.8125
1221.79391	46365.6125
1225.36829	46046.7125
1228.94024	45839.9125
1232.50976	45714.5125
1236.07685	45579.3125
1239.6415	45534.3125
1243.20374	45467.7125
1246.76355	45677.7125
1250.32093	45999.6125
1253.8759	46552.9125
1257.42845	47404.1125
1260.97859	48448.8125
1264.52631	49469.3125
1268.07163	50344.5125
1271.61453	51004.2125
1275.15503	51588.7125
1278.69312	52124.3125
1282.22882	52647.0125
1285.76211	53483.4125
1289.29301	54502.0125
1292.82151	55806.2125
1296.34761	57291.7125
1299.87133	59241.6125
1303.39266	61771.7125
1306.9116	64673.4125
1310.42815	67405.5125
1313.94233	68693.2125
1317.45412	67624.9125
1320.96354	65712.1125
1324.47058	64002.3125
1327.97525	62741.6125
1331.47754	61947.6125
1334.97747	61679.6125
1338.47502	61739.7125
1341.97022	62340.3125
1345.46305	63486.7125
1348.95352	65099.9125
1352.44163	66481.4125
1355.92738	68005.8125
1359.41078	70549.6125
1362.89183	72774.2125
1366.37053	71110.1125
1369.84688	65439.1125
1373.32088	59268.8125
1376.79254	55184.1125
1380.26186	53365.4125
1383.72883	52630.4125
1387.19347	52089.1125
1390.65578	51271.1125
1394.11575	50571.6125
1397.57339	50031.0125
1401.0287	49794.1125
1404.48168	49605.4125
1407.93234	49502.6125
1411.38068	49199.4125
1414.82669	48719.4125
1418.27039	47976.2125
1421.71177	47320.7125
1425.15083	46740.8125
1428.58758	46523.5125
1432.02203	46871.9125
1435.45416	47440.4125
1438.88399	47914.5125
1442.31151	48214.3125
1445.73673	48468.9125
1449.15965	48603.6125
1452.58027	48579.3125
1455.9986	48510.7125
1459.41463	48590.1125
1462.82837	49134.8125
1466.23982	49816.8125
1469.64898	50384.7125
1473.05586	50922.7125
1476.46045	51141.0125
1479.86276	51335.1125
1483.26279	51599.7125
1486.66054	52100.9125
1490.05602	52915.4125
1493.44922	54184.6125
1496.84016	55975.7125
1500.22882	58677.5125
1503.61521	62104.2125
1506.99934	65537.4125
1510.38121	67766.6125
1513.76081	67553.1125
1517.13816	64615.4125
1520.51324	60747.1125
1523.88607	57647.3125
1527.25665	55871.2125
1530.62498	55004.0125
1533.99105	54460.8125
1537.35488	53765.5125
1540.71647	53004.2125
1544.07581	52083.4125
1547.4329	51314.2125
1550.78776	50625.0125
1554.14038	50234.7125
1557.49077	50103.2125
1560.83892	50323.8125
1564.18484	50819.6125
1567.52853	51446.9125
1570.86999	52039.8125
1574.20922	52571.7125
1577.54624	52437.8125
1580.88103	51500.4125
1584.2136	50439.6125
1587.54395	50158.1125
1590.87208	50836.6125
1594.19801	52396.9125
1597.52172	54089.9125
1600.84321	54495.9125
1604.16251	53369.3125
1607.47959	51796.5125
1610.79447	49761.5125
1614.10715	47459.4125
1617.41763	45379.7125
1620.7259	43891.2125
1624.03199	43100.4125
1627.33587	42935.0125
1630.63757	43406.2125
1633.93707	44735.2125
1637.23439	47196.6125
1640.52951	51053.6125
1643.82246	55920.7125
1647.11321	60257.4125
1650.40179	61831.6125
1653.68819	59381.4125
1656.97241	54014.0125
1660.25446	48444.0125
1663.53433	44307.6125
1666.81203	41717.1125
1670.08756	40114.1125
1673.36092	39115.2125
1676.63211	38392.6125
1679.90115	37925.8125
1683.16801	37535.2125
1686.43272	37242.7125
1689.69527	37037.4125
1692.95567	36896.5125
1696.2139	36771.4125
1699.46999	36722.0125
1702.72392	36662.9125
1705.97571	36594.4125
1709.22535	36602.0125
1712.47284	36576.4125
1715.71819	36590.7125
1718.96139	36549.4125
1722.20246	36464.0125
1725.44139	36350.1125
1728.67818	36245.4125
1731.91284	36097.5125
1735.14537	35912.3125
1738.37576	35805.1125
1741.60403	35659.8125
1744.83017	35635.2125
1748.05418	35596.4125
1751.27607	35528.7125
1754.49584	35417.5125
1757.71349	35417.4125
1760.92903	35360.4125
1764.14244	35285.9125
1767.35375	35324.2125
1770.56294	35199.2125
1773.77002	35269.6125
1776.97499	35181.4125
1780.17785	35050.2125
1783.37861	35096.4125
1786.57727	35019.8125
1789.77382	34986.8125
1792.96828	34963.9125
1796.16064	34875.6125
1799.3509	34838.8125
1802.53907	34795.6125
1805.72514	34764.5125
1808.90913	34612.7125
1812.09102	34557.3125
1815.27083	34503.8125
1818.44856	34428.0125
1821.6242	34363.5125
1824.79776	34349.4125
1827.96924	34326.6125
1831.13864	34313.3125
1834.30597	34265.3125
1837.47122	34201.1125
1840.6344	34172.6125
1843.7955	34217.1125
1846.95454	34120.1125
1850.11151	34114.4125
1853.26642	34057.0125
1856.41926	34038.6125
1859.57004	34030.6125
1862.71876	33996.4125
1865.86542	33975.6125
1869.01003	33926.1125
1872.15258	33873.3125
1875.29308	33835.4125
1878.43152	33819.5125
1881.56792	33786.3125
1884.70227	33783.7125
1887.83457	33691.7125
1890.96482	33633.5125
1894.09304	33567.5125
1897.21921	33579.2125
1900.34335	33575.3125
1903.46544	33524.4125
1906.58551	33481.8125
1909.70353	33465.6125
1912.81953	33417.2125
1915.93349	33340.2125
1919.04543	33284.8125
1922.15534	33253.4125
1925.26322	33137.9125
1928.36908	33108.5125
1931.47292	33119.1125
1934.57473	32981.8125
1937.67453	32980.9125
1940.77232	32792.8125
1943.86808	32768.4125
1946.96184	32692.6125
1950.05358	32616.4125
1953.14331	32511.5125
1956.23103	32433.5125
1959.31675	32385.0125
1962.40046	32292.9125
1965.48217	32165.8125
1968.56188	32050.6125
1971.63959	31926.8125
1974.7153	31917.7125
1977.78901	31803.9125
1980.86073	31706.7125
1983.93046	31620.3125
1986.99819	31485.6125
1990.06394	31423.1125
1993.1277	31330.3125
1996.18947	31251.7125
1999.24925	31198.4125
2002.30706	31136.6125
2005.36288	31028.2125
2008.41672	30941.2125
2011.46859	30831.9125
2014.51848	30788.7125
2017.56639	30680.7125
2020.61233	30597.8125
2023.6563	30509.9125
2026.6983	30434.3125
2029.73833	30362.8125
2032.7764	30297.9125
2035.8125	30228.4125
2038.84664	30198.6125
2041.87881	30085.0125
2044.90903	30088.2125
2047.93729	29981.1125
2050.96359	29935.0125
2053.98794	29947.8125
2057.01034	29922.3125
2060.03078	29900.0125
2063.04927	29849.3125
2066.06582	29804.7125
2069.08042	29845.5125
2072.09307	29768.6125
2075.10378	29780.0125
2078.11255	29730.1125
2081.11938	29719.1125
2084.12426	29668.2125
2087.12722	29693.8125
2090.12824	29634.4125
2093.12732	29639.1125
2096.12447	29694.9125
2099.11969	29734.8125
2102.11299	29714.2125
2105.10435	29682.4125
2108.09379	29749.9125
2111.08131	29747.4125
2114.0669	29765.8125
2117.05057	29799.9125
2120.03233	29797.7125
2123.01216	29834.1125
2125.99008	29829.1125
2128.96609	29899.5125
2131.94018	29922.5125
2134.91236	29907.8125
2137.88263	29961.4125
2140.851	29991.9125
2143.81746	29993.7125
2146.78201	29994.5125
2149.74466	30007.0125
2152.7054	29999.3125
2155.66425	29957.5125
2158.6212	29927.9125
2161.57625	29977.2125
2164.52941	29960.0125
2167.48067	29919.2125
2170.43004	29935.0125
2173.37752	29922.7125
2176.32311	29947.1125
2179.26681	29907.8125
2182.20863	29887.3125
2185.14856	29924.8125
2188.08661	29894.9125
2191.02278	29904.8125
2193.95707	29858.7125
2196.88948	29854.5125
2199.82001	29822.3125
2202.74867	29760.5125
2205.67545	29697.1125
2208.60037	29703.1125
2211.52341	29690.0125
2214.44458	29664.3125
2217.36388	29534.9125
2220.28132	29448.4125
2223.1969	29376.1125
2226.11061	29379.1125
2229.02246	29296.3125
2231.93245	29279.2125
2234.84058	29233.3125
2237.74686	29216.0125
2240.65128	29185.1125
2243.55385	29165.0125
2246.45456	29143.0125
2249.35343	29148.5125
2252.25044	29122.4125
2255.14561	29084.4125
2258.03893	29031.3125
2260.93041	28981.0125
2263.82004	28902.4125
2266.70783	28823.8125
2269.59378	28741.8125
2272.4779	28685.5125
2275.36017	28588.3125
2278.24061	28580.1125
2281.11922	28523.3125
2283.996	28454.3125
2286.87094	28360.3125
2289.74405	28342.0125
2292.61534	28316.0125
2295.4848	28304.0125
2298.35243	28312.0125
2301.21824	28266.4125
2304.08223	28211.5125
2306.94439	28174.8125
2309.80474	28213.5125
2312.66327	28195.9125
2315.51999	28151.2125
2318.37489	28121.0125
2321.22797	28071.0125
2324.07925	28051.7125
2326.92871	28004.2125
2329.77637	27986.0125
2332.62222	27931.2125
2335.46626	27866.4125
2338.3085	27849.2125
2341.14893	27792.0125
2343.98756	27785.3125
2346.8244	27689.2125
2349.65943	27726.9125
2352.49267	27706.3125
2355.32411	27735.4125
2358.15376	27734.3125
2360.98161	27748.6125
2363.80768	27725.4125
2366.63195	27749.3125
2369.45444	27659.4125
2372.27514	27663.5125
2375.09405	27627.6125
2377.91118	27541.5125
2380.72652	27556.7125
2383.54009	27471.0125
2386.35187	27385.2125
2389.16188	27352.8125
2391.97011	27281.3125
2394.77657	27173.0125
2397.58125	27139.9125
2400.38416	27123.2125
2403.18529	27039.9125
2405.98466	27024.8125
2408.78226	26987.4125
2411.57809	26918.8125
2414.37216	26921.2125
2417.16446	26936.7125
2419.955	26866.7125
2422.74378	26848.9125
2425.5308	26857.4125
2428.31606	26803.0125
2431.09956	26847.2125
2433.88131	26742.4125
2436.6613	26750.6125
2439.43954	26760.2125
2442.21603	26764.2125
2444.99077	26715.5125
2447.76377	26717.4125
2450.53501	26703.7125
2453.30451	26629.7125
2456.07226	26605.1125
2458.83827	26605.5125
2461.60254	26573.9125
2464.36507	26527.4125
2467.12586	26464.7125
2469.88492	26492.9125
2472.64224	26445.4125
2475.39782	26442.0125
2478.15167	26549.0125
2480.90379	26442.1125
2483.65417	26468.1125
2486.40283	26506.7125
2489.14976	26460.9125
2491.89497	26453.4125
2494.63845	26444.2125
2497.3802	26422.7125
2500.12024	26416.3125
2502.85855	26392.8125
2505.59514	26330.6125
2508.33002	26335.6125
2511.06318	26295.7125
2513.79462	26187.9125
2516.52435	26132.8125
2519.25237	26138.8125
2521.97867	26077.7125
2524.70327	26038.4125
2527.42616	26027.6125
2530.14734	26019.8125
2532.86681	25934.2125
2535.58458	25920.8125
2538.30065	25889.4125
2541.01501	25878.6125
2543.72768	25835.4125
2546.43864	25831.3125
2549.14791	25775.0125
2551.85548	25736.2125
2554.56136	25685.7125
2557.26554	25605.8125
2559.96803	25609.1125
2562.66883	25566.2125
2565.36794	25510.4125
2568.06536	25519.9125
2570.7611	25421.6125
2573.45514	25411.3125
2576.14751	25328.9125
2578.83819	25264.2125
2581.52719	25256.5125
2584.21451	25245.7125
2586.90015	25175.7125
2589.58411	25158.3125
2592.2664	25119.2125
2594.94701	25075.7125
2597.62594	25053.9125
2600.30321	25010.1125
2602.9788	24961.7125
2605.65273	24912.3125
2608.32498	24920.4125
2610.99557	24864.4125
2613.66449	24880.4125
2616.33175	24852.8125
2618.99734	24885.7125
2621.66128	24781.4125
2624.32355	24738.3125
2626.98416	24704.5125
2629.64311	24643.8125
2632.30041	24631.1125
2634.95605	24607.8125
2637.61004	24573.7125
2640.26238	24535.9125
2642.91306	24486.7125
2645.56209	24516.3125
2648.20948	24488.4125
2650.85521	24469.9125
2653.4993	24457.5125
2656.14175	24437.8125
2658.78255	24465.3125
2661.42171	24439.4125
2664.05923	24476.3125
2666.6951	24470.2125
2669.32934	24471.7125
2671.96194	24497.3125
2674.59291	24462.8125
2677.22224	24421.3125
2679.84993	24451.7125
2682.476	24440.7125
2685.10043	24463.0125
2687.72324	24444.6125
2690.34441	24441.3125
2692.96396	24450.7125
2695.58188	24440.9125
2698.19818	24384.9125
2700.81285	24449.1125
2703.4259	24395.1125
2706.03733	24403.5125
2708.64714	24436.3125
2711.25533	24494.2125
2713.86191	24436.6125
2716.46687	24470.1125
2719.07021	24436.6125
2721.67194	24491.5125
2724.27206	24441.2125
2726.87057	24486.9125
2729.46747	24443.7125
2732.06276	24459.7125
2734.65644	24468.4125
2737.24852	24482.1125
2739.83899	24369.7125
2742.42786	24365.6125
2745.01513	24307.2125
2747.60079	24278.3125
2750.18486	24221.6125
2752.76733	24184.7125
2755.3482	24192.8125
2757.92747	24190.0125
2760.50515	24116.2125
2763.08123	24076.3125
2765.65573	24057.0125
2768.22863	24049.0125
2770.79994	24007.3125
2773.36967	23973.2125
2775.9378	23979.7125
2778.50435	23990.3125
2781.06932	23914.1125
2783.6327	23866.8125
2786.1945	23864.4125
2788.75471	23823.7125
2791.31335	23783.3125
2793.87041	23744.3125
2796.42589	23700.6125
2798.97979	23690.1125
2801.53212	23662.5125
2804.08288	23601.8125
2806.63206	23525.3125
2809.17967	23496.1125
2811.72571	23399.8125
2814.27018	23406.6125
2816.81308	23325.9125
2819.35442	23327.9125
2821.89419	23226.1125
2824.43239	23173.4125
2826.96904	23159.6125
2829.50412	23142.6125
2832.03763	23084.6125
2834.56959	23087.5125
2837.1	23045.9125
2839.62884	23045.2125
2842.15613	23045.9125
2844.68186	23070.6125
2847.20604	23015.3125
2849.72867	22988.7125
2852.24974	22930.4125
2854.76927	22892.0125
2857.28724	22872.5125
2859.80367	22841.8125
2862.31855	22783.2125
2864.83189	22766.7125
2867.34368	22718.6125
2869.85393	22753.3125
2872.36264	22691.4125
2874.8698	22659.7125
2877.37543	22636.4125
2879.87952	22628.1125
2882.38207	22613.6125
2884.88308	22577.3125
2887.38256	22574.2125
2889.88051	22547.6125
2892.37692	22597.6125
2894.8718	22553.8125
2897.36515	22566.7125
2899.85698	22570.5125
2902.34727	22635.0125
2904.83604	22580.8125
2907.32328	22633.6125
2909.809	22654.2125
2912.29319	22655.6125
2914.77587	22673.0125
2917.25702	22670.2125
2919.73665	22664.3125
2922.21476	22616.3125
2924.69136	22560.0125
2927.16644	22576.9125
2929.64	22541.0125
2932.11205	22532.0125
2934.58258	22452.3125
2937.05161	22466.1125
2939.51912	22470.9125
2941.98513	22428.9125
2944.44962	22426.6125
2946.91261	22353.8125
2949.37409	22395.8125
2951.83407	22373.3125
2954.29254	22364.2125
2956.74951	22371.4125
2959.20498	22358.3125
2961.65895	22345.4125
2964.11142	22365.7125
2966.56239	22307.5125
2969.01186	22323.2125
2971.45984	22288.1125
2973.90632	22249.1125
2976.35131	22209.0125
2978.7948	22203.4125
2981.23681	22159.6125
2983.67732	22137.8125
2986.11635	22086.4125
2988.55388	22063.5125
2990.98993	22019.5125
2993.4245	21989.7125
2995.85758	21898.3125
2998.28917	21867.6125
3000.71928	21816.9125
3003.14791	21829.2125
3005.57506	21767.3125
3008.00073	21701.7125
3010.42493	21669.7125
3012.84764	21631.2125
3015.26888	21637.0125
3017.68865	21574.4125
3020.10694	21544.2125
3022.52376	21492.2125
3024.9391	21463.9125
