Data from AgNPs_UA_10uM_CRN_0uM_R6G_10uM_Q_RamanShift__32__12-26-02-664.txt Node

Date: Mon Jul 18 12:26:02 BST 2022
User: TCL
Spectrometer: QEP01345
Trigger mode: 4
Integration Time (sec): 7.000000E0
Scans to average: 10
Electric dark correction enabled: true
Nonlinearity correction enabled: false
Boxcar width: 0
XAxis mode: Raman Shifts
Number of Pixels in Spectrum: 1044
>>>>>Begin Spectral Data<<<<<
46.04893	0.0125
50.45542	-2.3875
54.85868	-1.1875
59.25871	-0.8875
63.6555	73.5125
68.04907	75.8125
72.43941	82.6125
76.82654	85.2125
81.21044	86.6125
85.59113	89.6125
89.96862	97.1125
94.34289	100.3125
98.71396	102.6125
103.08183	108.1125
107.4465	110.1125
111.80798	113.1125
116.16626	112.6125
120.52136	114.5125
124.87327	123.5125
129.222	125.0125
133.56755	131.9125
137.90993	139.2125
142.24913	142.8125
146.58517	163.9125
150.91804	189.4125
155.24774	219.2125
159.57429	274.0125
163.89768	348.8125
168.21792	454.7125
172.53501	612.7125
176.84895	840.4125
181.15975	1163.2125
185.46741	1615.0125
189.77193	2229.6125
194.07331	2957.5125
198.37157	3787.5125
202.6667	4635.1125
206.9587	5505.2125
211.24758	6398.4125
215.53334	7291.2125
219.81599	8314.3125
224.09553	9514.2125
228.37195	10825.0125
232.64527	12221.4125
236.91549	13584.1125
241.18261	14893.8125
245.44663	15931.2125
249.70755	16780.6125
253.96539	17446.6125
258.22014	17972.2125
262.4718	18474.8125
266.72039	18832.8125
270.96589	18977.7125
275.20832	18960.5125
279.44768	18740.5125
283.68397	18468.3125
287.91719	18386.4125
292.14735	18498.8125
296.37445	18930.0125
300.59849	19642.1125
304.81948	20403.7125
309.03742	20924.9125
313.25231	20685.5125
317.46415	19595.9125
321.67296	18083.4125
325.87872	16916.6125
330.08145	16382.6125
334.28114	16412.2125
338.47781	16689.2125
342.67145	17204.5125
346.86207	17995.2125
351.04966	19091.4125
355.23424	20303.8125
359.4158	21170.4125
363.59435	21643.8125
367.76989	21752.3125
371.94243	21709.9125
376.11196	21528.7125
380.27849	21381.2125
384.44203	21161.4125
388.60257	20902.0125
392.76012	20743.8125
396.91468	21048.1125
401.06626	21601.7125
405.21485	21910.7125
409.36047	21364.6125
413.50311	20236.6125
417.64277	19267.8125
421.77947	18708.4125
425.9132	18508.8125
430.04396	18563.0125
434.17176	18690.6125
438.2966	19080.6125
442.41849	19677.3125
446.53742	20445.3125
450.6534	21164.5125
454.76644	21598.8125
458.87653	21512.7125
462.98368	21180.1125
467.08789	20627.3125
471.18916	20022.4125
475.2875	19425.8125
479.38291	18941.0125
483.4754	18536.5125
487.56496	18223.8125
491.6516	17989.1125
495.73531	17883.7125
499.81612	17918.9125
503.89401	18176.9125
507.96899	18375.8125
512.04106	18629.1125
516.11023	18963.5125
520.1765	19136.1125
524.23987	19040.7125
528.30034	18677.1125
532.35792	18330.2125
536.41261	17890.8125
540.46441	17452.5125
544.51333	17296.0125
548.55936	17487.0125
552.60252	18008.0125
556.64279	18487.6125
560.6802	18749.1125
564.71473	19158.1125
568.7464	20083.7125
572.7752	20494.5125
576.80114	19930.0125
580.82422	19442.7125
584.84444	19333.0125
588.86181	19495.5125
592.87633	19739.8125
596.888	20159.0125
600.89682	21141.9125
604.9028	24349.0125
608.90594	31814.9125
612.90624	39248.7125
616.90371	34671.3125
620.89834	23605.1125
624.89015	19114.9125
628.87913	18421.2125
632.86528	18696.2125
636.84862	18883.9125
640.82913	18354.2125
644.80683	17409.1125
648.78172	16860.0125
652.75379	17082.6125
656.72306	18039.1125
660.68952	18898.5125
664.65319	18435.5125
668.61405	17427.4125
672.57211	17073.6125
676.52738	17030.7125
680.47986	16947.0125
684.42955	16753.5125
688.37646	16639.4125
692.32058	16761.3125
696.26192	16985.8125
700.20048	17271.2125
704.13626	17421.2125
708.06928	17380.4125
711.99952	17198.8125
715.927	17152.9125
719.85171	17200.0125
723.77365	17083.4125
727.69284	16907.6125
731.60928	16765.2125
735.52295	16790.7125
739.43388	16912.3125
743.34206	17063.4125
747.24749	17226.2125
751.15017	17436.7125
755.05012	17905.8125
758.94733	19153.1125
762.8418	21830.2125
766.73354	25916.5125
770.62254	29762.7125
774.50882	31200.0125
778.39237	29196.9125
782.27321	24716.3125
786.15132	20781.5125
790.02671	18593.9125
793.89938	17620.3125
797.76935	17183.7125
801.6366	17034.3125
805.50115	16899.7125
809.36299	16767.3125
813.22213	16660.5125
817.07857	16627.8125
820.93231	16626.8125
824.78336	16715.8125
828.63172	16796.9125
832.47738	16806.6125
836.32036	16732.0125
840.16066	16679.5125
843.99827	16578.6125
847.8332	16502.3125
851.66546	16484.4125
855.49504	16430.1125
859.32195	16396.1125
863.1462	16244.4125
866.96777	16214.4125
870.78668	16200.7125
874.60293	16222.6125
878.41652	16334.9125
882.22745	16474.7125
886.03573	16567.0125
889.84136	16493.6125
893.64433	16392.2125
897.44466	16342.4125
901.24235	16335.7125
905.0374	16296.5125
908.8298	16179.2125
912.61957	16151.3125
916.40671	16265.0125
920.19121	16456.5125
923.97308	16734.0125
927.75233	16959.6125
931.52895	17104.6125
935.30295	16749.4125
939.07433	16195.0125
942.84309	15750.0125
946.60924	15489.2125
950.37278	15392.2125
954.13371	15308.5125
957.89203	15258.0125
961.64774	15221.0125
965.40086	15174.5125
969.15137	15139.1125
972.89929	15119.7125
976.64461	15140.0125
980.38733	15177.1125
984.12747	15252.3125
987.86502	15383.8125
991.59999	15454.6125
995.33237	15759.7125
999.06217	16308.8125
1002.78939	16876.0125
1006.51404	17392.6125
1010.23611	17821.0125
1013.95561	18038.7125
1017.67255	17994.3125
1021.38692	17621.1125
1025.09872	17296.4125
1028.80796	17236.0125
1032.51465	17451.0125
1036.21877	17716.3125
1039.92035	17790.6125
1043.61937	17756.8125
1047.31584	17532.6125
1051.00976	17270.2125
1054.70114	17153.0125
1058.38998	17112.9125
1062.07627	17188.4125
1065.76003	17339.8125
1069.44126	17500.5125
1073.11995	17853.2125
1076.79611	18084.0125
1080.46974	18455.2125
1084.14085	18931.0125
1087.80943	19429.4125
1091.47549	19563.3125
1095.13903	19109.8125
1098.80005	18369.6125
1102.45857	17776.7125
1106.11456	17519.9125
1109.76805	17698.1125
1113.41903	18154.0125
1117.06751	18905.6125
1120.71348	19864.4125
1124.35696	20881.9125
1127.99793	21508.7125
1131.63641	21176.4125
1135.2724	20073.5125
1138.90589	19144.2125
1142.5369	18561.6125
1146.16542	18210.7125
1149.79145	18101.3125
1153.415	18197.6125
1157.03607	18458.5125
1160.65467	18980.3125
1164.27079	19821.5125
1167.88443	21139.5125
1171.49561	23334.9125
1175.10432	26681.2125
1178.71056	30870.8125
1182.31434	33961.8125
1185.91565	34777.2125
1189.51451	33727.8125
1193.11091	31361.3125
1196.70485	28628.2125
1200.29634	26572.2125
1203.88538	24846.5125
1207.47197	23109.6125
1211.05612	21804.7125
1214.63782	21261.4125
1218.21708	21149.8125
1221.79391	21215.8125
1225.36829	21258.8125
1228.94024	21201.4125
1232.50976	21183.6125
1236.07685	21215.8125
1239.6415	21368.0125
1243.20374	21475.5125
1246.76355	21625.2125
1250.32093	21926.9125
1253.8759	22537.7125
1257.42845	23349.3125
1260.97859	24178.9125
1264.52631	25031.4125
1268.07163	25811.2125
1271.61453	26539.4125
1275.15503	27126.5125
1278.69312	27440.2125
1282.22882	27803.9125
1285.76211	28613.7125
1289.29301	29740.4125
1292.82151	30923.1125
1296.34761	32198.0125
1299.87133	34028.0125
1303.39266	36981.7125
1306.9116	41275.3125
1310.42815	45750.4125
1313.94233	47701.7125
1317.45412	46361.6125
1320.96354	43270.9125
1324.47058	40269.8125
1327.97525	37910.9125
1331.47754	36728.8125
1334.97747	36411.5125
1338.47502	36656.0125
1341.97022	37157.9125
1345.46305	38014.2125
1348.95352	39763.5125
1352.44163	42517.7125
1355.92738	46738.0125
1359.41078	52981.0125
1362.89183	57882.4125
1366.37053	55357.5125
1369.84688	46975.0125
1373.32088	38889.6125
1376.79254	33765.4125
1380.26186	31245.7125
1383.72883	29867.2125
1387.19347	28770.1125
1390.65578	27562.1125
1394.11575	26690.1125
1397.57339	26447.5125
1401.0287	26741.1125
1404.48168	27338.1125
1407.93234	28037.8125
1411.38068	28422.8125
1414.82669	28292.2125
1418.27039	27508.8125
1421.71177	26461.6125
1425.15083	25694.5125
1428.58758	25390.3125
1432.02203	25657.2125
1435.45416	25972.8125
1438.88399	26183.3125
1442.31151	26301.6125
1445.73673	26445.1125
1449.15965	26594.2125
1452.58027	26466.0125
1455.9986	26161.6125
1459.41463	26074.7125
1462.82837	26384.1125
1466.23982	27146.2125
1469.64898	27911.4125
1473.05586	28432.4125
1476.46045	28872.9125
1479.86276	29362.4125
1483.26279	29925.8125
1486.66054	30639.8125
1490.05602	31705.8125
1493.44922	33134.8125
1496.84016	35281.9125
1500.22882	38695.0125
1503.61521	43269.0125
1506.99934	48289.0125
1510.38121	52127.1125
1513.76081	52658.6125
1517.13816	49082.1125
1520.51324	43002.5125
1523.88607	37632.1125
1527.25665	34157.3125
1530.62498	32408.6125
1533.99105	31308.2125
1537.35488	30558.2125
1540.71647	30099.8125
1544.07581	29739.9125
1547.4329	29308.5125
1550.78776	28848.6125
1554.14038	28455.1125
1557.49077	28300.3125
1560.83892	28552.9125
1564.18484	29214.2125
1567.52853	30070.0125
1570.86999	30863.3125
1574.20922	31334.6125
1577.54624	30996.1125
1580.88103	29404.8125
1584.2136	27681.3125
1587.54395	27101.1125
1590.87208	28002.9125
1594.19801	30272.7125
1597.52172	32943.9125
1600.84321	34157.7125
1604.16251	32991.7125
1607.47959	30434.2125
1610.79447	27343.6125
1614.10715	24545.3125
1617.41763	22550.3125
1620.7259	21365.8125
1624.03199	20875.2125
1627.33587	20959.9125
1630.63757	21630.0125
1633.93707	22939.7125
1637.23439	25018.4125
1640.52951	28051.9125
1643.82246	31962.9125
1647.11321	35865.9125
1650.40179	37997.4125
1653.68819	35987.5125
1656.97241	30745.9125
1660.25446	25342.8125
1663.53433	21482.8125
1666.81203	19139.7125
1670.08756	17707.4125
1673.36092	16858.4125
1676.63211	16323.1125
1679.90115	15897.7125
1683.16801	15652.3125
1686.43272	15416.3125
1689.69527	15263.7125
1692.95567	15149.4125
1696.2139	15069.4125
1699.46999	15002.7125
1702.72392	14964.6125
1705.97571	14935.1125
1709.22535	14937.3125
1712.47284	14961.9125
1715.71819	14953.4125
1718.96139	14884.6125
1722.20246	14806.2125
1725.44139	14719.3125
1728.67818	14635.5125
1731.91284	14499.6125
1735.14537	14360.2125
1738.37576	14325.6125
1741.60403	14238.0125
1744.83017	14193.3125
1748.05418	14181.9125
1751.27607	14127.9125
1754.49584	14082.6125
1757.71349	14062.2125
1760.92903	14029.9125
1764.14244	14000.9125
1767.35375	14007.0125
1770.56294	13959.1125
1773.77002	13911.3125
1776.97499	13887.6125
1780.17785	13853.5125
1783.37861	13836.5125
1786.57727	13788.4125
1789.77382	13781.0125
1792.96828	13771.2125
1796.16064	13733.5125
1799.3509	13735.0125
1802.53907	13718.6125
1805.72514	13618.7125
1808.90913	13588.7125
1812.09102	13555.3125
1815.27083	13513.0125
1818.44856	13505.6125
1821.6242	13482.9125
1824.79776	13457.8125
1827.96924	13450.6125
1831.13864	13436.4125
1834.30597	13402.3125
1837.47122	13409.2125
1840.6344	13342.9125
1843.7955	13371.0125
1846.95454	13331.5125
1850.11151	13347.2125
1853.26642	13323.5125
1856.41926	13367.5125
1859.57004	13342.8125
1862.71876	13347.6125
1865.86542	13342.3125
1869.01003	13347.9125
1872.15258	13355.7125
1875.29308	13361.2125
1878.43152	13340.2125
1881.56792	13340.0125
1884.70227	13323.7125
1887.83457	13327.5125
1890.96482	13352.1125
1894.09304	13329.1125
1897.21921	13323.0125
1900.34335	13344.0125
1903.46544	13344.2125
1906.58551	13316.5125
1909.70353	13304.5125
1912.81953	13275.2125
1915.93349	13303.1125
1919.04543	13273.2125
1922.15534	13263.6125
1925.26322	13205.4125
1928.36908	13154.7125
1931.47292	13144.8125
1934.57473	13077.1125
1937.67453	13044.5125
1940.77232	13005.1125
1943.86808	12936.1125
1946.96184	12912.0125
1950.05358	12889.4125
1953.14331	12827.1125
1956.23103	12773.6125
1959.31675	12712.2125
1962.40046	12708.5125
1965.48217	12682.0125
1968.56188	12649.9125
1971.63959	12637.0125
1974.7153	12552.5125
1977.78901	12529.5125
1980.86073	12474.2125
1983.93046	12451.4125
1986.99819	12419.4125
1990.06394	12393.9125
1993.1277	12346.1125
1996.18947	12269.6125
1999.24925	12265.0125
2002.30706	12231.7125
2005.36288	12219.4125
2008.41672	12190.6125
2011.46859	12087.4125
2014.51848	12088.1125
2017.56639	12053.9125
2020.61233	12022.3125
2023.6563	11985.8125
2026.6983	11939.0125
2029.73833	11902.0125
2032.7764	11845.7125
2035.8125	11856.6125
2038.84664	11838.6125
2041.87881	11803.4125
2044.90903	11781.0125
2047.93729	11764.7125
2050.96359	11744.3125
2053.98794	11718.4125
2057.01034	11701.2125
2060.03078	11698.0125
2063.04927	11696.5125
2066.06582	11685.7125
2069.08042	11647.8125
2072.09307	11650.5125
2075.10378	11640.7125
2078.11255	11629.7125
2081.11938	11625.1125
2084.12426	11612.0125
2087.12722	11615.8125
2090.12824	11602.4125
2093.12732	11614.7125
2096.12447	11615.8125
2099.11969	11599.8125
2102.11299	11646.3125
2105.10435	11609.9125
2108.09379	11604.2125
2111.08131	11616.0125
2114.0669	11597.4125
2117.05057	11603.9125
2120.03233	11601.0125
2123.01216	11604.2125
2125.99008	11617.8125
2128.96609	11610.1125
2131.94018	11647.3125
2134.91236	11623.8125
2137.88263	11654.8125
2140.851	11641.6125
2143.81746	11623.8125
2146.78201	11635.3125
2149.74466	11664.9125
2152.7054	11659.0125
2155.66425	11629.0125
2158.6212	11630.0125
2161.57625	11576.1125
2164.52941	11577.9125
2167.48067	11600.9125
2170.43004	11570.4125
2173.37752	11574.1125
2176.32311	11552.0125
2179.26681	11547.0125
2182.20863	11588.0125
2185.14856	11606.7125
2188.08661	11563.2125
2191.02278	11546.0125
2193.95707	11577.7125
2196.88948	11521.8125
2199.82001	11548.2125
2202.74867	11508.1125
2205.67545	11495.1125
2208.60037	11488.5125
2211.52341	11447.8125
2214.44458	11444.5125
2217.36388	11444.7125
2220.28132	11443.5125
2223.1969	11375.1125
2226.11061	11339.6125
2229.02246	11319.8125
2231.93245	11320.7125
2234.84058	11280.2125
2237.74686	11250.5125
2240.65128	11239.6125
2243.55385	11254.5125
2246.45456	11236.8125
2249.35343	11223.9125
2252.25044	11192.8125
2255.14561	11203.5125
2258.03893	11189.1125
2260.93041	11168.1125
2263.82004	11160.0125
2266.70783	11144.7125
2269.59378	11118.7125
2272.4779	11080.0125
2275.36017	11041.4125
2278.24061	11027.2125
2281.11922	11027.1125
2283.996	10992.8125
2286.87094	10958.9125
2289.74405	10921.5125
2292.61534	10924.4125
2295.4848	10887.9125
2298.35243	10891.9125
2301.21824	10891.0125
2304.08223	10890.3125
2306.94439	10875.8125
2309.80474	10897.5125
2312.66327	10876.6125
2315.51999	10865.5125
2318.37489	10865.6125
2321.22797	10865.7125
2324.07925	10849.2125
2326.92871	10808.4125
2329.77637	10818.2125
2332.62222	10823.9125
2335.46626	10817.8125
2338.3085	10821.7125
2341.14893	10801.0125
2343.98756	10830.1125
2346.8244	10853.9125
2349.65943	10863.8125
2352.49267	10848.9125
2355.32411	10886.5125
2358.15376	10846.6125
2360.98161	10895.3125
2363.80768	10893.3125
2366.63195	10902.5125
2369.45444	10879.7125
2372.27514	10872.7125
2375.09405	10823.1125
2377.91118	10780.4125
2380.72652	10755.6125
2383.54009	10713.1125
2386.35187	10691.5125
2389.16188	10659.8125
2391.97011	10626.1125
2394.77657	10593.6125
2397.58125	10573.4125
2400.38416	10561.1125
2403.18529	10528.3125
2405.98466	10492.8125
2408.78226	10481.1125
2411.57809	10468.4125
2414.37216	10445.5125
2417.16446	10437.1125
2419.955	10423.5125
2422.74378	10414.0125
2425.5308	10391.8125
2428.31606	10374.9125
2431.09956	10402.0125
2433.88131	10368.1125
2436.6613	10385.0125
2439.43954	10370.2125
2442.21603	10377.4125
2444.99077	10348.4125
2447.76377	10358.3125
2450.53501	10348.0125
2453.30451	10333.5125
2456.07226	10329.4125
2458.83827	10329.8125
2461.60254	10316.6125
2464.36507	10318.2125
2467.12586	10308.4125
2469.88492	10296.6125
2472.64224	10322.1125
2475.39782	10321.1125
2478.15167	10354.8125
2480.90379	10368.7125
2483.65417	10389.4125
2486.40283	10441.8125
2489.14976	10475.5125
2491.89497	10490.0125
2494.63845	10487.5125
2497.3802	10494.4125
2500.12024	10448.8125
2502.85855	10410.8125
2505.59514	10408.8125
2508.33002	10360.4125
2511.06318	10326.7125
2513.79462	10284.6125
2516.52435	10251.7125
2519.25237	10249.9125
2521.97867	10224.9125
2524.70327	10196.8125
2527.42616	10199.0125
2530.14734	10192.0125
2532.86681	10174.7125
2535.58458	10185.6125
2538.30065	10147.6125
2541.01501	10173.2125
2543.72768	10158.8125
2546.43864	10147.9125
2549.14791	10117.8125
2551.85548	10133.3125
2554.56136	10109.5125
2557.26554	10132.2125
2559.96803	10108.5125
2562.66883	10088.4125
2565.36794	10093.4125
2568.06536	10082.1125
2570.7611	10043.5125
2573.45514	10055.9125
2576.14751	10026.4125
2578.83819	10007.6125
2581.52719	10012.5125
2584.21451	10010.6125
2586.90015	10002.2125
2589.58411	9988.8125
2592.2664	10010.1125
2594.94701	9993.5125
2597.62594	10009.1125
2600.30321	9961.0125
2602.9788	9974.8125
2605.65273	9949.3125
2608.32498	9922.3125
2610.99557	9931.0125
2613.66449	9965.5125
2616.33175	9957.4125
2618.99734	9965.6125
2621.66128	9945.7125
2624.32355	9955.5125
2626.98416	9942.5125
2629.64311	9922.2125
2632.30041	9930.0125
2634.95605	9917.6125
2637.61004	9873.3125
2640.26238	9885.6125
2642.91306	9900.2125
2645.56209	9849.0125
2648.20948	9847.8125
2650.85521	9857.8125
2653.4993	9821.7125
2656.14175	9838.9125
2658.78255	9858.7125
2661.42171	9889.3125
2664.05923	9888.4125
2666.6951	9893.0125
2669.32934	9904.6125
2671.96194	9899.1125
2674.59291	9915.2125
2677.22224	9943.6125
2679.84993	9954.2125
2682.476	9908.6125
2685.10043	9938.0125
2687.72324	9919.9125
2690.34441	9927.9125
2692.96396	9907.8125
2695.58188	9912.4125
2698.19818	9900.3125
2700.81285	9888.9125
2703.4259	9890.0125
2706.03733	9909.5125
2708.64714	9913.6125
2711.25533	9900.2125
2713.86191	9931.9125
2716.46687	9947.8125
2719.07021	9940.3125
2721.67194	9940.8125
2724.27206	9954.3125
2726.87057	9946.1125
2729.46747	9969.3125
2732.06276	9989.5125
2734.65644	9973.5125
2737.24852	9977.3125
2739.83899	9943.5125
2742.42786	9903.1125
2745.01513	9886.7125
2747.60079	9897.2125
2750.18486	9901.8125
2752.76733	9883.8125
2755.3482	9885.3125
2757.92747	9889.1125
2760.50515	9850.9125
2763.08123	9841.1125
2765.65573	9832.9125
2768.22863	9838.0125
2770.79994	9826.3125
2773.36967	9829.8125
2775.9378	9801.3125
2778.50435	9812.2125
2781.06932	9803.6125
2783.6327	9828.6125
2786.1945	9818.9125
2788.75471	9811.5125
2791.31335	9804.4125
2793.87041	9788.8125
2796.42589	9778.1125
2798.97979	9796.9125
2801.53212	9751.3125
2804.08288	9794.1125
2806.63206	9765.7125
2809.17967	9766.3125
2811.72571	9734.7125
2814.27018	9726.5125
2816.81308	9743.8125
2819.35442	9715.1125
2821.89419	9737.5125
2824.43239	9732.4125
2826.96904	9717.3125
2829.50412	9730.7125
2832.03763	9722.1125
2834.56959	9729.7125
2837.1	9757.6125
2839.62884	9771.1125
2842.15613	9767.3125
2844.68186	9778.0125
2847.20604	9754.6125
2849.72867	9780.0125
2852.24974	9799.4125
2854.76927	9763.3125
2857.28724	9784.9125
2859.80367	9794.2125
2862.31855	9786.4125
2864.83189	9783.4125
2867.34368	9787.7125
2869.85393	9775.8125
2872.36264	9756.8125
2874.8698	9739.9125
2877.37543	9749.6125
2879.87952	9726.1125
2882.38207	9712.9125
2884.88308	9698.8125
2887.38256	9722.8125
2889.88051	9722.7125
2892.37692	9698.0125
2894.8718	9668.8125
2897.36515	9705.5125
2899.85698	9696.7125
2902.34727	9724.2125
2904.83604	9720.9125
2907.32328	9754.5125
2909.809	9733.5125
2912.29319	9727.0125
2914.77587	9727.7125
2917.25702	9713.9125
2919.73665	9691.5125
2922.21476	9707.1125
2924.69136	9673.3125
2927.16644	9688.6125
2929.64	9650.7125
2932.11205	9660.6125
2934.58258	9578.9125
2937.05161	9587.6125
2939.51912	9568.1125
2941.98513	9529.2125
2944.44962	9499.2125
2946.91261	9441.0125
2949.37409	9441.8125
2951.83407	9452.7125
2954.29254	9437.6125
2956.74951	9411.4125
2959.20498	9390.6125
2961.65895	9375.6125
2964.11142	9378.2125
2966.56239	9370.1125
2969.01186	9342.7125
2971.45984	9295.6125
2973.90632	9296.7125
2976.35131	9252.5125
2978.7948	9224.4125
2981.23681	9195.1125
2983.67732	9201.6125
2986.11635	9176.5125
2988.55388	9145.8125
2990.98993	9139.4125
2993.4245	9083.5125
2995.85758	9043.3125
2998.28917	9056.2125
3000.71928	9013.1125
3003.14791	8983.8125
3005.57506	8975.7125
3008.00073	8943.6125
3010.42493	8915.1125
3012.84764	8909.0125
3015.26888	8926.2125
3017.68865	8876.9125
3020.10694	8858.1125
3022.52376	8861.5125
3024.9391	8829.2125
3027.35298	8806.2125
3029.76539	8796.3125
3032.17632	8810.6125
3034.5858	8799.8125
3036.9938	8796.8125
3039.40034	8784.4125
3041.80542	8780.9125
3044.20903	8757.4125
3046.61118	8741.4125
