Data from AgNPs_UA_200uM_CRN_0uM_R6G_10uM_Q_RamanShift__25__14-29-04-167.txt Node

Date: Tue Jul 26 14:29:04 BST 2022
User: TCL
Spectrometer: QEP01345
Trigger mode: 4
Integration Time (sec): 7.000000E0
Scans to average: 10
Electric dark correction enabled: true
Nonlinearity correction enabled: false
Boxcar width: 0
XAxis mode: Raman Shifts
Number of Pixels in Spectrum: 1044
>>>>>Begin Spectral Data<<<<<
46.04893	0.4875
50.45542	-0.7125
54.85868	-0.1125
59.25871	0.2875
63.6555	45.0875
68.04907	48.1875
72.43941	51.3875
76.82654	51.0875
81.21044	57.1875
85.59113	60.2875
89.96862	64.6875
94.34289	64.8875
98.71396	68.0875
103.08183	70.5875
107.4465	71.2875
111.80798	71.5875
116.16626	72.0875
120.52136	70.1875
124.87327	70.9875
129.222	74.4875
133.56755	76.3875
137.90993	72.7875
142.24913	76.9875
146.58517	82.8875
150.91804	86.5875
155.24774	98.2875
159.57429	116.3875
163.89768	135.4875
168.21792	163.9875
172.53501	213.7875
176.84895	287.9875
181.15975	387.2875
185.46741	534.7875
189.77193	715.1875
194.07331	952.6875
198.37157	1225.5875
202.6667	1512.4875
206.9587	1803.6875
211.24758	2095.6875
215.53334	2415.2875
219.81599	2782.1875
224.09553	3157.0875
228.37195	3598.5875
232.64527	4047.8875
236.91549	4477.5875
241.18261	4851.0875
245.44663	5132.1875
249.70755	5359.3875
253.96539	5542.4875
258.22014	5703.0875
262.4718	5849.2875
266.72039	5921.2875
270.96589	5933.7875
275.20832	5861.7875
279.44768	5729.1875
283.68397	5595.5875
287.91719	5497.8875
292.14735	5521.4875
296.37445	5646.5875
300.59849	5891.3875
304.81948	6215.1875
309.03742	6446.5875
313.25231	6450.0875
317.46415	6175.7875
321.67296	5729.2875
325.87872	5358.7875
330.08145	5201.3875
334.28114	5205.8875
338.47781	5296.7875
342.67145	5458.2875
346.86207	5714.5875
351.04966	6041.5875
355.23424	6444.4875
359.4158	6733.1875
363.59435	6900.9875
367.76989	6947.4875
371.94243	6918.0875
376.11196	6888.6875
380.27849	6845.5875
384.44203	6763.6875
388.60257	6694.0875
392.76012	6668.6875
396.91468	6714.7875
401.06626	6826.7875
405.21485	6885.5875
409.36047	6728.6875
413.50311	6393.6875
417.64277	6080.9875
421.77947	5884.6875
425.9132	5788.8875
430.04396	5760.7875
434.17176	5815.7875
438.2966	5880.4875
442.41849	6024.7875
446.53742	6138.8875
450.6534	6237.0875
454.76644	6334.1875
458.87653	6348.8875
462.98368	6316.4875
467.08789	6263.8875
471.18916	6177.3875
475.2875	6055.5875
479.38291	5961.6875
483.4754	5915.9875
487.56496	5906.6875
491.6516	5889.2875
495.73531	5915.4875
499.81612	5921.4875
503.89401	5962.6875
507.96899	6021.7875
512.04106	6118.1875
516.11023	6234.4875
520.1765	6353.3875
524.23987	6368.5875
528.30034	6323.1875
532.35792	6277.9875
536.41261	6220.5875
540.46441	6101.8875
544.51333	6036.3875
548.55936	6025.8875
552.60252	6131.0875
556.64279	6248.2875
560.6802	6308.0875
564.71473	6440.1875
568.7464	6692.3875
572.7752	6704.9875
576.80114	6417.5875
580.82422	6165.5875
584.84444	6063.1875
588.86181	6101.6875
592.87633	6181.7875
596.888	6323.2875
600.89682	6623.4875
604.9028	7582.0875
608.90594	9890.5875
612.90624	12339.0875
616.90371	11451.7875
620.89834	8362.1875
624.89015	7055.4875
628.87913	7013.2875
632.86528	7173.4875
636.84862	7314.4875
640.82913	7117.7875
644.80683	6718.1875
648.78172	6377.6875
652.75379	6320.6875
656.72306	6519.4875
660.68952	6727.7875
664.65319	6581.0875
668.61405	6284.3875
672.57211	6159.3875
676.52738	6130.2875
680.47986	6098.9875
684.42955	6056.3875
688.37646	6056.2875
692.32058	6069.6875
696.26192	6115.2875
700.20048	6148.8875
704.13626	6174.1875
708.06928	6128.6875
711.99952	6073.6875
715.927	6093.9875
719.85171	6156.1875
723.77365	6207.2875
727.69284	6213.0875
731.60928	6203.3875
735.52295	6177.2875
739.43388	6144.8875
743.34206	6161.1875
747.24749	6179.3875
751.15017	6171.3875
755.05012	6262.3875
758.94733	6594.2875
762.8418	7379.9875
766.73354	8582.8875
770.62254	9683.7875
774.50882	10163.8875
778.39237	9639.4875
782.27321	8417.1875
786.15132	7302.3875
790.02671	6655.5875
793.89938	6361.8875
797.76935	6254.7875
801.6366	6236.9875
805.50115	6266.7875
809.36299	6319.5875
813.22213	6355.0875
817.07857	6323.1875
820.93231	6264.4875
824.78336	6183.2875
828.63172	6179.2875
832.47738	6144.7875
836.32036	6142.0875
840.16066	6115.7875
843.99827	6110.0875
847.8332	6104.2875
851.66546	6075.3875
855.49504	6091.7875
859.32195	6080.1875
863.1462	6073.0875
866.96777	6027.6875
870.78668	6071.9875
874.60293	6104.9875
878.41652	6173.4875
882.22745	6278.9875
886.03573	6363.6875
889.84136	6370.3875
893.64433	6317.7875
897.44466	6257.7875
901.24235	6187.4875
905.0374	6133.9875
908.8298	6032.8875
912.61957	5996.9875
916.40671	5994.7875
920.19121	6018.9875
923.97308	6080.1875
927.75233	6167.7875
931.52895	6260.5875
935.30295	6203.4875
939.07433	6059.7875
942.84309	5933.1875
946.60924	5888.5875
950.37278	5866.5875
954.13371	5801.8875
957.89203	5786.0875
961.64774	5753.8875
965.40086	5757.4875
969.15137	5746.7875
972.89929	5712.7875
976.64461	5716.2875
980.38733	5709.8875
984.12747	5750.9875
987.86502	5783.0875
991.59999	5868.1875
995.33237	5984.9875
999.06217	6144.6875
1002.78939	6347.7875
1006.51404	6478.2875
1010.23611	6550.4875
1013.95561	6616.7875
1017.67255	6639.2875
1021.38692	6613.5875
1025.09872	6593.6875
1028.80796	6649.7875
1032.51465	6815.7875
1036.21877	6930.2875
1039.92035	6912.3875
1043.61937	6788.4875
1047.31584	6614.4875
1051.00976	6459.2875
1054.70114	6343.1875
1058.38998	6318.1875
1062.07627	6339.2875
1065.76003	6329.0875
1069.44126	6345.3875
1073.11995	6388.6875
1076.79611	6464.6875
1080.46974	6606.1875
1084.14085	6746.8875
1087.80943	6905.7875
1091.47549	6897.1875
1095.13903	6778.8875
1098.80005	6575.6875
1102.45857	6486.3875
1106.11456	6484.8875
1109.76805	6595.5875
1113.41903	6814.4875
1117.06751	7107.9875
1120.71348	7494.4875
1124.35696	7920.4875
1127.99793	8213.8875
1131.63641	8140.4875
1135.2724	7810.3875
1138.90589	7483.7875
1142.5369	7225.0875
1146.16542	6968.7875
1149.79145	6770.5875
1153.415	6643.2875
1157.03607	6614.1875
1160.65467	6659.3875
1164.27079	6850.1875
1167.88443	7144.6875
1171.49561	7626.5875
1175.10432	8455.0875
1178.71056	9571.4875
1182.31434	10519.1875
1185.91565	10778.0875
1189.51451	10411.2875
1193.11091	9680.4875
1196.70485	9018.1875
1200.29634	8613.6875
1203.88538	8321.9875
1207.47197	7911.7875
1211.05612	7511.9875
1214.63782	7225.1875
1218.21708	7098.3875
1221.79391	7026.2875
1225.36829	7057.8875
1228.94024	7023.4875
1232.50976	6946.7875
1236.07685	6882.0875
1239.6415	6868.8875
1243.20374	6925.1875
1246.76355	6986.2875
1250.32093	7094.2875
1253.8759	7219.6875
1257.42845	7437.3875
1260.97859	7653.1875
1264.52631	7859.6875
1268.07163	8083.4875
1271.61453	8259.0875
1275.15503	8405.5875
1278.69312	8549.2875
1282.22882	8669.5875
1285.76211	8851.2875
1289.29301	9108.5875
1292.82151	9370.5875
1296.34761	9693.3875
1299.87133	10286.0875
1303.39266	11352.6875
1306.9116	12883.1875
1310.42815	14382.0875
1313.94233	14761.0875
1317.45412	13848.3875
1320.96354	12517.7875
1324.47058	11215.4875
1327.97525	10247.7875
1331.47754	9654.3875
1334.97747	9465.8875
1338.47502	9535.0875
1341.97022	9915.9875
1345.46305	10575.9875
1348.95352	11447.0875
1352.44163	12520.8875
1355.92738	14046.1875
1359.41078	16421.6875
1362.89183	18335.6875
1366.37053	17237.8875
1369.84688	14063.1875
1373.32088	11464.7875
1376.79254	10057.8875
1380.26186	9265.7875
1383.72883	8730.8875
1387.19347	8315.6875
1390.65578	7959.3875
1394.11575	7716.8875
1397.57339	7593.0875
1401.0287	7545.8875
1404.48168	7540.0875
1407.93234	7557.1875
1411.38068	7595.1875
1414.82669	7647.7875
1418.27039	7685.0875
1421.71177	7631.5875
1425.15083	7533.1875
1428.58758	7500.6875
1432.02203	7580.4875
1435.45416	7661.8875
1438.88399	7619.7875
1442.31151	7550.0875
1445.73673	7517.1875
1449.15965	7541.7875
1452.58027	7513.7875
1455.9986	7441.6875
1459.41463	7408.4875
1462.82837	7462.4875
1466.23982	7605.0875
1469.64898	7765.3875
1473.05586	7905.7875
1476.46045	7993.4875
1479.86276	8132.1875
1483.26279	8283.0875
1486.66054	8572.3875
1490.05602	8893.0875
1493.44922	9430.0875
1496.84016	10280.3875
1500.22882	11615.8875
1503.61521	13522.9875
1506.99934	15580.6875
1510.38121	16938.4875
1513.76081	16772.8875
1517.13816	15046.4875
1520.51324	12738.0875
1523.88607	10873.3875
1527.25665	9772.5875
1530.62498	9141.1875
1533.99105	8785.4875
1537.35488	8579.1875
1540.71647	8457.9875
1544.07581	8417.4875
1547.4329	8452.6875
1550.78776	8483.1875
1554.14038	8565.9875
1557.49077	8653.5875
1560.83892	8785.5875
1564.18484	9047.9875
1567.52853	9366.8875
1570.86999	9593.0875
1574.20922	9704.2875
1577.54624	9582.4875
1580.88103	9053.1875
1584.2136	8430.4875
1587.54395	8125.8875
1590.87208	8228.7875
1594.19801	8680.8875
1597.52172	9264.2875
1600.84321	9517.3875
1604.16251	9238.9875
1607.47959	8771.6875
1610.79447	8254.4875
1614.10715	7793.5875
1617.41763	7431.7875
1620.7259	7161.1875
1624.03199	7054.6875
1627.33587	7073.1875
1630.63757	7260.1875
1633.93707	7625.9875
1637.23439	8096.4875
1640.52951	8868.2875
1643.82246	9972.6875
1647.11321	11242.3875
1650.40179	11967.7875
1653.68819	11428.5875
1656.97241	9917.1875
1660.25446	8423.5875
1663.53433	7394.3875
1666.81203	6809.7875
1670.08756	6500.9875
1673.36092	6263.6875
1676.63211	6148.0875
1679.90115	6034.0875
1683.16801	5967.7875
1686.43272	5924.9875
1689.69527	5851.8875
1692.95567	5823.2875
1696.2139	5773.8875
1699.46999	5725.9875
1702.72392	5671.2875
1705.97571	5638.1875
1709.22535	5609.5875
1712.47284	5605.8875
1715.71819	5568.9875
1718.96139	5550.4875
1722.20246	5514.3875
1725.44139	5485.4875
1728.67818	5434.0875
1731.91284	5394.6875
1735.14537	5351.6875
1738.37576	5335.0875
1741.60403	5324.1875
1744.83017	5290.1875
1748.05418	5275.2875
1751.27607	5249.2875
1754.49584	5252.0875
1757.71349	5226.4875
1760.92903	5221.8875
1764.14244	5232.3875
1767.35375	5229.9875
1770.56294	5202.7875
1773.77002	5167.1875
1776.97499	5162.0875
1780.17785	5147.5875
1783.37861	5153.8875
1786.57727	5128.2875
1789.77382	5119.9875
1792.96828	5103.5875
1796.16064	5108.8875
1799.3509	5080.3875
1802.53907	5099.6875
1805.72514	5080.2875
1808.90913	5070.0875
1812.09102	5047.1875
1815.27083	5031.8875
1818.44856	5011.7875
1821.6242	5018.7875
1824.79776	5010.9875
1827.96924	5008.0875
1831.13864	4993.6875
1834.30597	4990.7875
1837.47122	4987.0875
1840.6344	4984.6875
1843.7955	4975.6875
1846.95454	4961.5875
1850.11151	4960.9875
1853.26642	4946.9875
1856.41926	4950.2875
1859.57004	4946.6875
1862.71876	4949.2875
1865.86542	4954.6875
1869.01003	4946.8875
1872.15258	4930.1875
1875.29308	4946.9875
1878.43152	4938.1875
1881.56792	4928.7875
1884.70227	4931.3875
1887.83457	4916.2875
1890.96482	4904.8875
1894.09304	4913.0875
1897.21921	4926.9875
1900.34335	4923.6875
1903.46544	4905.4875
1906.58551	4909.0875
1909.70353	4902.7875
1912.81953	4895.5875
1915.93349	4880.6875
1919.04543	4886.5875
1922.15534	4861.5875
1925.26322	4865.5875
1928.36908	4860.1875
1931.47292	4854.2875
1934.57473	4849.9875
1937.67453	4829.8875
1940.77232	4808.1875
1943.86808	4791.5875
1946.96184	4776.3875
1950.05358	4764.9875
1953.14331	4763.3875
1956.23103	4751.2875
1959.31675	4745.1875
1962.40046	4732.4875
1965.48217	4718.9875
1968.56188	4709.6875
1971.63959	4707.8875
1974.7153	4668.0875
1977.78901	4684.6875
1980.86073	4646.9875
1983.93046	4641.8875
1986.99819	4627.0875
1990.06394	4602.3875
1993.1277	4595.0875
1996.18947	4567.5875
1999.24925	4563.6875
2002.30706	4549.5875
2005.36288	4538.7875
2008.41672	4529.1875
2011.46859	4501.8875
2014.51848	4499.1875
2017.56639	4483.2875
2020.61233	4477.1875
2023.6563	4465.6875
2026.6983	4456.8875
2029.73833	4453.2875
2032.7764	4430.5875
2035.8125	4435.6875
2038.84664	4428.4875
2041.87881	4426.5875
2044.90903	4414.3875
2047.93729	4415.6875
2050.96359	4417.8875
2053.98794	4410.9875
2057.01034	4396.1875
2060.03078	4388.2875
2063.04927	4384.0875
2066.06582	4376.9875
2069.08042	4381.4875
2072.09307	4377.5875
2075.10378	4369.5875
2078.11255	4362.5875
2081.11938	4375.8875
2084.12426	4373.7875
2087.12722	4375.0875
2090.12824	4370.5875
2093.12732	4362.3875
2096.12447	4374.9875
2099.11969	4361.2875
2102.11299	4363.8875
2105.10435	4369.9875
2108.09379	4363.7875
2111.08131	4388.8875
2114.0669	4386.4875
2117.05057	4384.7875
2120.03233	4398.4875
2123.01216	4410.3875
2125.99008	4416.7875
2128.96609	4399.0875
2131.94018	4396.7875
2134.91236	4408.6875
2137.88263	4395.4875
2140.851	4416.4875
2143.81746	4401.7875
2146.78201	4399.5875
2149.74466	4400.4875
2152.7054	4413.2875
2155.66425	4396.8875
2158.6212	4389.6875
2161.57625	4398.7875
2164.52941	4407.0875
2167.48067	4401.2875
2170.43004	4380.6875
2173.37752	4378.9875
2176.32311	4383.1875
2179.26681	4402.3875
2182.20863	4410.8875
2185.14856	4400.7875
2188.08661	4408.4875
2191.02278	4411.2875
2193.95707	4400.4875
2196.88948	4404.4875
2199.82001	4395.4875
2202.74867	4377.9875
2205.67545	4393.3875
2208.60037	4381.8875
2211.52341	4386.7875
2214.44458	4378.3875
2217.36388	4376.1875
2220.28132	4377.7875
2223.1969	4352.5875
2226.11061	4350.6875
2229.02246	4343.0875
2231.93245	4340.1875
2234.84058	4320.8875
2237.74686	4319.3875
2240.65128	4320.0875
2243.55385	4309.9875
2246.45456	4294.8875
2249.35343	4293.6875
2252.25044	4311.6875
2255.14561	4311.5875
2258.03893	4303.3875
2260.93041	4300.7875
2263.82004	4288.3875
2266.70783	4288.7875
2269.59378	4275.5875
2272.4779	4274.4875
2275.36017	4252.5875
2278.24061	4244.5875
2281.11922	4242.9875
2283.996	4246.0875
2286.87094	4231.2875
2289.74405	4221.5875
2292.61534	4202.4875
2295.4848	4194.7875
2298.35243	4205.9875
2301.21824	4205.6875
2304.08223	4206.5875
2306.94439	4205.0875
2309.80474	4208.3875
2312.66327	4198.2875
2315.51999	4220.0875
2318.37489	4210.9875
2321.22797	4207.0875
2324.07925	4207.1875
2326.92871	4192.0875
2329.77637	4206.6875
2332.62222	4196.4875
2335.46626	4189.5875
2338.3085	4192.8875
2341.14893	4169.1875
2343.98756	4191.6875
2346.8244	4207.1875
2349.65943	4194.9875
2352.49267	4200.3875
2355.32411	4209.3875
2358.15376	4208.9875
2360.98161	4209.4875
2363.80768	4196.5875
2366.63195	4205.3875
2369.45444	4203.0875
2372.27514	4197.6875
2375.09405	4182.4875
2377.91118	4173.3875
2380.72652	4164.0875
2383.54009	4159.0875
2386.35187	4140.4875
2389.16188	4120.1875
2391.97011	4126.1875
2394.77657	4103.1875
2397.58125	4109.0875
2400.38416	4088.2875
2403.18529	4091.0875
2405.98466	4072.0875
2408.78226	4067.1875
2411.57809	4064.5875
2414.37216	4037.8875
2417.16446	4048.8875
2419.955	4043.0875
2422.74378	4039.1875
2425.5308	4032.4875
2428.31606	4033.3875
2431.09956	4021.6875
2433.88131	4014.3875
2436.6613	4041.1875
2439.43954	4036.0875
2442.21603	4029.0875
2444.99077	4044.9875
2447.76377	4020.9875
2450.53501	4018.8875
2453.30451	4013.9875
2456.07226	4005.7875
2458.83827	4018.1875
2461.60254	4020.0875
2464.36507	4016.8875
2467.12586	4011.4875
2469.88492	4024.6875
2472.64224	4014.9875
2475.39782	4020.7875
2478.15167	4028.8875
2480.90379	4025.5875
2483.65417	4043.2875
2486.40283	4047.3875
2489.14976	4048.1875
2491.89497	4046.5875
2494.63845	4049.7875
2497.3802	4037.3875
2500.12024	4042.3875
2502.85855	4030.7875
2505.59514	4018.8875
2508.33002	4006.5875
2511.06318	4003.3875
2513.79462	3989.5875
2516.52435	3967.7875
2519.25237	3970.3875
2521.97867	3958.6875
2524.70327	3952.1875
2527.42616	3964.6875
2530.14734	3965.2875
2532.86681	3942.7875
2535.58458	3943.1875
2538.30065	3944.6875
2541.01501	3941.9875
2543.72768	3956.6875
2546.43864	3950.8875
2549.14791	3949.4875
2551.85548	3938.2875
2554.56136	3926.4875
2557.26554	3925.9875
2559.96803	3930.7875
2562.66883	3920.6875
2565.36794	3905.0875
2568.06536	3912.7875
2570.7611	3908.2875
2573.45514	3892.3875
2576.14751	3890.9875
2578.83819	3884.6875
2581.52719	3886.4875
2584.21451	3870.7875
2586.90015	3878.7875
2589.58411	3872.9875
2592.2664	3886.4875
2594.94701	3872.0875
2597.62594	3857.1875
2600.30321	3863.7875
2602.9788	3856.7875
2605.65273	3859.4875
2608.32498	3866.9875
2610.99557	3866.7875
2613.66449	3883.6875
2616.33175	3869.0875
2618.99734	3867.0875
2621.66128	3868.2875
2624.32355	3854.1875
2626.98416	3856.9875
2629.64311	3849.2875
2632.30041	3860.3875
2634.95605	3852.0875
2637.61004	3849.4875
2640.26238	3838.7875
2642.91306	3835.1875
2645.56209	3816.4875
2648.20948	3811.4875
2650.85521	3820.5875
2653.4993	3815.2875
2656.14175	3824.7875
2658.78255	3841.1875
2661.42171	3824.4875
2664.05923	3833.2875
2666.6951	3840.6875
2669.32934	3832.2875
2671.96194	3850.3875
2674.59291	3840.9875
2677.22224	3850.8875
2679.84993	3841.9875
2682.476	3828.6875
2685.10043	3832.7875
2687.72324	3815.0875
2690.34441	3819.9875
2692.96396	3802.1875
2695.58188	3824.4875
2698.19818	3813.3875
2700.81285	3807.2875
2703.4259	3801.3875
2706.03733	3800.4875
2708.64714	3819.1875
2711.25533	3799.9875
2713.86191	3820.2875
2716.46687	3812.0875
2719.07021	3810.5875
2721.67194	3825.1875
2724.27206	3810.2875
2726.87057	3815.4875
2729.46747	3814.1875
2732.06276	3817.2875
2734.65644	3811.2875
2737.24852	3821.3875
2739.83899	3813.8875
2742.42786	3813.3875
2745.01513	3786.4875
2747.60079	3799.5875
2750.18486	3780.0875
2752.76733	3772.9875
2755.3482	3773.2875
2757.92747	3781.0875
2760.50515	3765.4875
2763.08123	3759.6875
2765.65573	3767.2875
2768.22863	3768.5875
2770.79994	3761.9875
2773.36967	3758.5875
2775.9378	3771.3875
2778.50435	3747.4875
2781.06932	3751.3875
2783.6327	3746.7875
2786.1945	3762.6875
2788.75471	3754.0875
2791.31335	3733.8875
2793.87041	3743.0875
2796.42589	3731.3875
2798.97979	3733.7875
2801.53212	3735.1875
2804.08288	3717.7875
2806.63206	3715.5875
2809.17967	3719.1875
2811.72571	3704.5875
2814.27018	3703.8875
2816.81308	3698.7875
2819.35442	3692.6875
2821.89419	3711.8875
2824.43239	3707.4875
2826.96904	3701.7875
2829.50412	3714.0875
2832.03763	3689.4875
2834.56959	3706.3875
2837.1	3695.5875
2839.62884	3692.8875
2842.15613	3680.4875
2844.68186	3676.8875
2847.20604	3675.3875
2849.72867	3677.0875
2852.24974	3681.5875
2854.76927	3677.5875
2857.28724	3678.5875
2859.80367	3673.2875
2862.31855	3676.4875
2864.83189	3676.4875
2867.34368	3670.4875
2869.85393	3665.4875
2872.36264	3666.7875
2874.8698	3664.9875
2877.37543	3677.0875
2879.87952	3685.1875
2882.38207	3683.0875
2884.88308	3665.5875
2887.38256	3679.1875
2889.88051	3679.7875
2892.37692	3680.5875
2894.8718	3681.1875
2897.36515	3670.7875
2899.85698	3677.2875
2902.34727	3692.4875
2904.83604	3685.9875
2907.32328	3698.7875
2909.809	3712.1875
2912.29319	3709.8875
2914.77587	3714.3875
2917.25702	3696.2875
2919.73665	3695.3875
2922.21476	3681.5875
2924.69136	3677.9875
2927.16644	3683.1875
2929.64	3682.3875
2932.11205	3658.9875
2934.58258	3656.8875
2937.05161	3678.8875
2939.51912	3681.1875
2941.98513	3673.3875
2944.44962	3657.1875
2946.91261	3642.9875
2949.37409	3676.3875
2951.83407	3657.7875
2954.29254	3657.5875
2956.74951	3681.8875
2959.20498	3671.8875
2961.65895	3663.0875
2964.11142	3659.3875
2966.56239	3676.8875
2969.01186	3648.0875
2971.45984	3665.9875
2973.90632	3652.5875
2976.35131	3659.9875
2978.7948	3625.2875
2981.23681	3639.1875
2983.67732	3629.4875
2986.11635	3620.8875
2988.55388	3603.2875
2990.98993	3589.9875
2993.4245	3591.1875
2995.85758	3597.4875
2998.28917	3595.9875
3000.71928	3584.9875
3003.14791	3590.4875
3005.57506	3572.7875
3008.00073	3571.7875
3010.42493	3582.5875
3012.84764	3568.3875
3015.26888	3564.7875
3017.68865	3565.9875
3020.10694	3562.6875
3022.52376	3547.5875
3024.9391	3556.9875
3027.35298	3560.1875
3029.76539	3550.7875
3032.17632	3551.3875
3034.5858	3532.3875
3036.9938	3543.0875
3039.40034	3543.1875
3041.80542	3542.8875
3044.20903	3531.0875
3046.61118	3535.7875
3049.01187	3522.7875
3051.4111	3519.1875
3053.80888	3532.1875
3056.20519	3523.2875
3058.60005	3520.5875
3060.99345	3513.8875
3063.3854	3511.3875
3065.7759	3505.5875
3068.16494	3493.0875
3070.55254	3488.9875
3072.93868	3486.9875
3075.32338	3480.6875
3077.70662	3467.8875
3080.08842	3474.5875
3082.46878	3483.0875
3084.84769	3482.3875
3087.22515	3482.6875
3089.60118	3491.0875
3091.97576	3485.9875
3094.3489	3485.9875
3096.72061	3510.4875
3099.09087	3509.8875
3101.4597	3503.7875
3103.82709	3500.4875
3106.19305	3503.7875
3108.55757	3509.6875
3110.92066	3513.5875
3113.28232	3520.5875
3115.64255	3520.6875
3118.00134	3512.4875
3120.35871	3508.6875
3122.71466	3505.6875
