Data from AgNPs_UA_100uM_CRN_0uM_R6G_10uM_Q_RamanShift__29__13-46-15-346.txt Node

Date: Tue Jul 26 13:46:15 BST 2022
User: TCL
Spectrometer: QEP01345
Trigger mode: 4
Integration Time (sec): 7.000000E0
Scans to average: 10
Electric dark correction enabled: true
Nonlinearity correction enabled: false
Boxcar width: 0
XAxis mode: Raman Shifts
Number of Pixels in Spectrum: 1044
>>>>>Begin Spectral Data<<<<<
46.04893	-0.2625
50.45542	0.2375
54.85868	-1.6625
59.25871	0.1375
63.6555	52.4375
68.04907	54.5375
72.43941	60.9375
76.82654	67.3375
81.21044	69.4375
85.59113	69.4375
89.96862	74.7375
94.34289	77.1375
98.71396	78.4375
103.08183	80.2375
107.4465	79.4375
111.80798	79.7375
116.16626	84.5375
120.52136	86.4375
124.87327	86.1375
129.222	88.7375
133.56755	91.9375
137.90993	95.5375
142.24913	96.6375
146.58517	99.8375
150.91804	111.3375
155.24774	124.2375
159.57429	143.6375
163.89768	176.1375
168.21792	228.2375
172.53501	291.2375
176.84895	393.5375
181.15975	544.2375
185.46741	752.3375
189.77193	1016.5375
194.07331	1359.4375
198.37157	1749.5375
202.6667	2146.2375
206.9587	2567.0375
211.24758	2979.4375
215.53334	3420.0375
219.81599	3912.2375
224.09553	4457.8375
228.37195	5066.8375
232.64527	5695.5375
236.91549	6355.9375
241.18261	6909.9375
245.44663	7352.4375
249.70755	7705.1375
253.96539	8039.8375
258.22014	8309.4375
262.4718	8537.8375
266.72039	8678.6375
270.96589	8724.0375
275.20832	8628.5375
279.44768	8449.2375
283.68397	8262.7375
287.91719	8133.6375
292.14735	8186.6375
296.37445	8373.9375
300.59849	8729.6375
304.81948	9123.1375
309.03742	9405.8375
313.25231	9403.2375
317.46415	9029.3375
321.67296	8422.7375
325.87872	7919.3375
330.08145	7707.5375
334.28114	7775.4375
338.47781	7909.3375
342.67145	8136.4375
346.86207	8483.4375
351.04966	8993.6375
355.23424	9512.3375
359.4158	9958.7375
363.59435	10176.7375
367.76989	10250.4375
371.94243	10230.8375
376.11196	10200.1375
380.27849	10173.8375
384.44203	10070.5375
388.60257	9977.7375
392.76012	9901.8375
396.91468	9986.7375
401.06626	10167.3375
405.21485	10287.7375
409.36047	10080.8375
413.50311	9610.1375
417.64277	9186.8375
421.77947	8917.1375
425.9132	8830.2375
430.04396	8820.5375
434.17176	8884.5375
438.2966	9020.1375
442.41849	9220.3375
446.53742	9456.5375
450.6534	9667.4375
454.76644	9794.2375
458.87653	9823.2375
462.98368	9748.6375
467.08789	9623.8375
471.18916	9490.9375
475.2875	9278.2375
479.38291	9126.0375
483.4754	9023.0375
487.56496	8963.1375
491.6516	8910.5375
495.73531	8918.0375
499.81612	8939.1375
503.89401	9031.0375
507.96899	9114.2375
512.04106	9262.8375
516.11023	9452.6375
520.1765	9573.6375
524.23987	9616.3375
528.30034	9553.7375
532.35792	9468.6375
536.41261	9354.2375
540.46441	9205.4375
544.51333	9135.5375
548.55936	9200.1375
552.60252	9311.7375
556.64279	9512.9375
560.6802	9572.5375
564.71473	9730.5375
568.7464	10053.1375
572.7752	10157.8375
576.80114	9779.4375
580.82422	9424.6375
584.84444	9353.3375
588.86181	9387.0375
592.87633	9522.3375
596.888	9743.4375
600.89682	10177.5375
604.9028	11477.2375
608.90594	14560.0375
612.90624	17953.2375
616.90371	16671.0375
620.89834	12286.7375
624.89015	10424.8375
628.87913	10212.1375
632.86528	10352.6375
636.84862	10454.8375
640.82913	10224.5375
644.80683	9773.3375
648.78172	9468.9375
652.75379	9470.4375
656.72306	9808.8375
660.68952	10137.8375
664.65319	9962.6375
668.61405	9550.1375
672.57211	9367.7375
676.52738	9346.7375
680.47986	9349.0375
684.42955	9284.7375
688.37646	9287.0375
692.32058	9328.1375
696.26192	9406.5375
700.20048	9500.6375
704.13626	9542.8375
708.06928	9509.8375
711.99952	9405.9375
715.927	9436.2375
719.85171	9501.3375
723.77365	9545.8375
727.69284	9556.0375
731.60928	9506.3375
735.52295	9491.9375
739.43388	9536.4375
743.34206	9572.2375
747.24749	9590.4375
751.15017	9619.5375
755.05012	9793.2375
758.94733	10252.9375
762.8418	11329.1375
766.73354	12946.6375
770.62254	14496.2375
774.50882	15156.4375
778.39237	14466.3375
782.27321	12728.1375
786.15132	11155.6375
790.02671	10243.6375
793.89938	9855.7375
797.76935	9710.1375
801.6366	9666.9375
805.50115	9674.3375
809.36299	9690.9375
813.22213	9663.2375
817.07857	9645.5375
820.93231	9649.2375
824.78336	9643.4375
828.63172	9660.2375
832.47738	9674.6375
836.32036	9661.8375
840.16066	9649.6375
843.99827	9657.5375
847.8332	9646.9375
851.66546	9592.1375
855.49504	9616.1375
859.32195	9602.9375
863.1462	9597.9375
866.96777	9537.7375
870.78668	9554.0375
874.60293	9610.4375
878.41652	9661.1375
882.22745	9773.4375
886.03573	9842.1375
889.84136	9854.8375
893.64433	9800.2375
897.44466	9758.9375
901.24235	9723.8375
905.0374	9662.9375
908.8298	9618.0375
912.61957	9590.1375
916.40671	9564.5375
920.19121	9621.5375
923.97308	9744.3375
927.75233	9878.9375
931.52895	10028.0375
935.30295	9945.3375
939.07433	9715.5375
942.84309	9541.5375
946.60924	9463.1375
950.37278	9399.0375
954.13371	9360.3375
957.89203	9324.7375
961.64774	9289.0375
965.40086	9277.2375
969.15137	9233.3375
972.89929	9198.1375
976.64461	9210.1375
980.38733	9242.4375
984.12747	9274.8375
987.86502	9377.0375
991.59999	9467.2375
995.33237	9608.2375
999.06217	9916.8375
1002.78939	10205.2375
1006.51404	10377.9375
1010.23611	10514.0375
1013.95561	10582.1375
1017.67255	10616.7375
1021.38692	10562.0375
1025.09872	10553.4375
1028.80796	10700.1375
1032.51465	11016.9375
1036.21877	11181.5375
1039.92035	11196.2375
1043.61937	11018.2375
1047.31584	10736.5375
1051.00976	10442.4375
1054.70114	10297.5375
1058.38998	10244.4375
1062.07627	10216.1375
1065.76003	10214.2375
1069.44126	10226.1375
1073.11995	10275.0375
1076.79611	10379.1375
1080.46974	10578.7375
1084.14085	10853.9375
1087.80943	11038.2375
1091.47549	11060.7375
1095.13903	10870.2375
1098.80005	10617.0375
1102.45857	10439.0375
1106.11456	10413.4375
1109.76805	10610.3375
1113.41903	10877.2375
1117.06751	11284.0375
1120.71348	11754.7375
1124.35696	12258.5375
1127.99793	12529.9375
1131.63641	12329.5375
1135.2724	11813.9375
1138.90589	11379.4375
1142.5369	11065.8375
1146.16542	10816.1375
1149.79145	10645.8375
1153.415	10562.5375
1157.03607	10594.3375
1160.65467	10724.2375
1164.27079	10999.2375
1167.88443	11453.4375
1171.49561	12172.1375
1175.10432	13320.5375
1178.71056	14956.9375
1182.31434	16297.2375
1185.91565	16650.5375
1189.51451	16170.8375
1193.11091	15139.5375
1196.70485	14108.7375
1200.29634	13425.3375
1203.88538	12937.3375
1207.47197	12388.9375
1211.05612	11841.2375
1214.63782	11519.7375
1218.21708	11417.0375
1221.79391	11427.2375
1225.36829	11483.7375
1228.94024	11449.6375
1232.50976	11365.1375
1236.07685	11276.0375
1239.6415	11307.8375
1243.20374	11347.3375
1246.76355	11485.9375
1250.32093	11620.1375
1253.8759	11835.0375
1257.42845	12156.3375
1260.97859	12464.1375
1264.52631	12796.4375
1268.07163	13093.3375
1271.61453	13340.3375
1275.15503	13588.9375
1278.69312	13810.9375
1282.22882	14009.3375
1285.76211	14312.1375
1289.29301	14645.2375
1292.82151	15002.5375
1296.34761	15515.5375
1299.87133	16381.9375
1303.39266	17804.5375
1306.9116	19942.2375
1310.42815	21936.7375
1313.94233	22479.6375
1317.45412	21254.4375
1320.96354	19383.1375
1324.47058	17662.0375
1327.97525	16305.2375
1331.47754	15506.9375
1334.97747	15284.5375
1338.47502	15465.8375
1341.97022	16011.4375
1345.46305	16863.6375
1348.95352	18010.6375
1352.44163	19383.5375
1355.92738	21408.3375
1359.41078	24500.9375
1362.89183	27083.4375
1366.37053	25542.6375
1369.84688	21245.2375
1373.32088	17706.0375
1376.79254	15646.1375
1380.26186	14548.0375
1383.72883	13874.7375
1387.19347	13372.0375
1390.65578	12924.9375
1394.11575	12607.0375
1397.57339	12486.8375
1401.0287	12467.3375
1404.48168	12514.5375
1407.93234	12621.8375
1411.38068	12795.6375
1414.82669	12947.0375
1418.27039	12951.0375
1421.71177	12815.4375
1425.15083	12660.9375
1428.58758	12627.2375
1432.02203	12747.9375
1435.45416	12830.4375
1438.88399	12816.9375
1442.31151	12740.1375
1445.73673	12708.4375
1449.15965	12743.1375
1452.58027	12697.7375
1455.9986	12536.9375
1459.41463	12474.7375
1462.82837	12607.6375
1466.23982	12797.3375
1469.64898	13063.6375
1473.05586	13272.6375
1476.46045	13414.5375
1479.86276	13619.2375
1483.26279	13905.3375
1486.66054	14297.7375
1490.05602	14760.0375
1493.44922	15486.0375
1496.84016	16593.4375
1500.22882	18301.7375
1503.61521	20707.8375
1506.99934	23460.3375
1510.38121	25216.7375
1513.76081	24973.9375
1517.13816	22695.4375
1520.51324	19618.3375
1523.88607	17145.8375
1527.25665	15634.9375
1530.62498	14803.4375
1533.99105	14353.9375
1537.35488	14075.1375
1540.71647	13944.9375
1544.07581	13888.9375
1547.4329	13948.2375
1550.78776	14000.5375
1554.14038	14085.8375
1557.49077	14165.7375
1560.83892	14333.6375
1564.18484	14626.2375
1567.52853	14952.6375
1570.86999	15220.0375
1574.20922	15422.5375
1577.54624	15220.8375
1580.88103	14580.0375
1584.2136	13801.9375
1587.54395	13455.9375
1590.87208	13690.1375
1594.19801	14487.1375
1597.52172	15417.1375
1600.84321	15842.3375
1604.16251	15438.2375
1607.47959	14647.3375
1610.79447	13755.4375
1614.10715	12892.3375
1617.41763	12260.9375
1620.7259	11857.4375
1624.03199	11670.8375
1627.33587	11736.1375
1630.63757	12016.9375
1633.93707	12538.5375
1637.23439	13299.6375
1640.52951	14385.7375
1643.82246	15876.7375
1647.11321	17546.4375
1650.40179	18446.5375
1653.68819	17668.1375
1656.97241	15488.6375
1660.25446	13404.9375
1663.53433	11961.5375
1666.81203	11153.0375
1670.08756	10695.2375
1673.36092	10395.0375
1676.63211	10185.9375
1679.90115	10025.5375
1683.16801	9929.6375
1686.43272	9854.0375
1689.69527	9759.8375
1692.95567	9722.2375
1696.2139	9687.2375
1699.46999	9646.9375
1702.72392	9617.9375
1705.97571	9590.1375
1709.22535	9600.1375
1712.47284	9596.7375
1715.71819	9587.6375
1718.96139	9570.2375
1722.20246	9547.1375
1725.44139	9497.0375
1728.67818	9442.6375
1731.91284	9410.8375
1735.14537	9378.7375
1738.37576	9317.7375
1741.60403	9341.3375
1744.83017	9299.8375
1748.05418	9253.7375
1751.27607	9246.7375
1754.49584	9237.3375
1757.71349	9223.6375
1760.92903	9209.3375
1764.14244	9222.6375
1767.35375	9203.8375
1770.56294	9168.5375
1773.77002	9167.1375
1776.97499	9165.7375
1780.17785	9145.5375
1783.37861	9142.7375
1786.57727	9132.3375
1789.77382	9128.2375
1792.96828	9118.3375
1796.16064	9113.8375
1799.3509	9091.8375
1802.53907	9103.2375
1805.72514	9072.9375
1808.90913	9055.4375
1812.09102	9021.3375
1815.27083	9023.1375
1818.44856	9003.8375
1821.6242	8995.0375
1824.79776	8983.7375
1827.96924	8966.6375
1831.13864	8958.6375
1834.30597	8978.5375
1837.47122	8936.8375
1840.6344	8909.9375
1843.7955	8953.9375
1846.95454	8920.2375
1850.11151	8940.6375
1853.26642	8940.0375
1856.41926	8932.9375
1859.57004	8942.8375
1862.71876	8932.5375
1865.86542	8929.5375
1869.01003	8934.0375
1872.15258	8925.6375
1875.29308	8911.0375
1878.43152	8941.1375
1881.56792	8942.8375
1884.70227	8912.2375
1887.83457	8908.2375
1890.96482	8918.9375
1894.09304	8897.9375
1897.21921	8904.9375
1900.34335	8884.5375
1903.46544	8879.1375
1906.58551	8882.4375
1909.70353	8882.8375
1912.81953	8877.2375
1915.93349	8879.8375
1919.04543	8868.8375
1922.15534	8868.0375
1925.26322	8867.4375
1928.36908	8859.1375
1931.47292	8846.2375
1934.57473	8819.7375
1937.67453	8822.0375
1940.77232	8813.2375
1943.86808	8778.9375
1946.96184	8727.6375
1950.05358	8710.3375
1953.14331	8702.6375
1956.23103	8672.1375
1959.31675	8654.1375
1962.40046	8647.9375
1965.48217	8629.4375
1968.56188	8596.3375
1971.63959	8577.3375
1974.7153	8578.1375
1977.78901	8551.5375
1980.86073	8515.8375
1983.93046	8492.1375
1986.99819	8449.3375
1990.06394	8456.7375
1993.1277	8416.3375
1996.18947	8396.3375
1999.24925	8359.3375
2002.30706	8351.3375
2005.36288	8333.1375
2008.41672	8304.0375
2011.46859	8295.3375
2014.51848	8228.9375
2017.56639	8230.1375
2020.61233	8218.3375
2023.6563	8219.9375
2026.6983	8202.3375
2029.73833	8188.4375
2032.7764	8166.4375
2035.8125	8160.6375
2038.84664	8159.3375
2041.87881	8154.1375
2044.90903	8129.1375
2047.93729	8127.8375
2050.96359	8140.7375
2053.98794	8114.8375
2057.01034	8138.5375
2060.03078	8100.2375
2063.04927	8102.7375
2066.06582	8086.8375
2069.08042	8091.1375
2072.09307	8090.0375
2075.10378	8087.3375
2078.11255	8074.6375
2081.11938	8073.9375
2084.12426	8080.6375
2087.12722	8085.3375
2090.12824	8043.1375
2093.12732	8071.0375
2096.12447	8082.4375
2099.11969	8050.4375
2102.11299	8098.9375
2105.10435	8099.4375
2108.09379	8099.2375
2111.08131	8097.8375
2114.0669	8101.3375
2117.05057	8109.5375
2120.03233	8146.9375
2123.01216	8144.3375
2125.99008	8151.1375
2128.96609	8168.7375
2131.94018	8166.7375
2134.91236	8185.4375
2137.88263	8176.3375
2140.851	8191.1375
2143.81746	8193.6375
2146.78201	8185.0375
2149.74466	8184.5375
2152.7054	8206.5375
2155.66425	8216.1375
2158.6212	8210.8375
2161.57625	8205.1375
2164.52941	8197.0375
2167.48067	8205.7375
2170.43004	8175.9375
2173.37752	8177.1375
2176.32311	8196.2375
2179.26681	8204.1375
2182.20863	8218.8375
2185.14856	8195.0375
2188.08661	8192.5375
2191.02278	8224.7375
2193.95707	8202.4375
2196.88948	8203.4375
2199.82001	8230.6375
2202.74867	8231.1375
2205.67545	8229.3375
2208.60037	8200.3375
2211.52341	8208.2375
2214.44458	8209.5375
2217.36388	8184.9375
2220.28132	8173.8375
2223.1969	8152.2375
2226.11061	8142.2375
2229.02246	8148.6375
2231.93245	8124.8375
2234.84058	8118.1375
2237.74686	8083.7375
2240.65128	8100.0375
2243.55385	8084.3375
2246.45456	8076.9375
2249.35343	8063.0375
2252.25044	8070.7375
2255.14561	8051.3375
2258.03893	8063.1375
2260.93041	8075.4375
2263.82004	8052.7375
2266.70783	8043.7375
2269.59378	8005.3375
2272.4779	8004.1375
2275.36017	7994.6375
2278.24061	7960.0375
2281.11922	7963.5375
2283.996	7966.6375
2286.87094	7949.8375
2289.74405	7928.5375
2292.61534	7945.9375
2295.4848	7919.8375
2298.35243	7932.6375
2301.21824	7915.5375
2304.08223	7941.2375
2306.94439	7916.5375
2309.80474	7921.2375
2312.66327	7940.8375
2315.51999	7919.5375
2318.37489	7936.5375
2321.22797	7934.6375
2324.07925	7931.5375
2326.92871	7925.3375
2329.77637	7924.1375
2332.62222	7932.5375
2335.46626	7908.6375
2338.3085	7911.3375
2341.14893	7924.7375
2343.98756	7911.9375
2346.8244	7917.2375
2349.65943	7918.0375
2352.49267	7912.5375
2355.32411	7937.0375
2358.15376	7928.6375
2360.98161	7929.5375
2363.80768	7912.9375
2366.63195	7893.9375
2369.45444	7902.9375
2372.27514	7919.1375
2375.09405	7887.4375
2377.91118	7852.4375
2380.72652	7859.5375
2383.54009	7803.8375
2386.35187	7822.9375
2389.16188	7795.4375
2391.97011	7797.8375
2394.77657	7774.7375
2397.58125	7755.6375
2400.38416	7737.3375
2403.18529	7718.7375
2405.98466	7718.4375
2408.78226	7683.5375
2411.57809	7690.6375
2414.37216	7696.3375
2417.16446	7672.1375
2419.955	7658.6375
2422.74378	7645.6375
2425.5308	7646.9375
2428.31606	7646.8375
2431.09956	7673.7375
2433.88131	7655.0375
2436.6613	7659.6375
2439.43954	7667.2375
2442.21603	7662.6375
2444.99077	7660.9375
2447.76377	7664.4375
2450.53501	7653.0375
2453.30451	7637.3375
2456.07226	7624.4375
2458.83827	7614.0375
2461.60254	7614.4375
2464.36507	7623.3375
2467.12586	7613.6375
2469.88492	7621.4375
2472.64224	7623.5375
2475.39782	7643.6375
2478.15167	7643.2375
2480.90379	7627.9375
2483.65417	7651.1375
2486.40283	7654.3375
2489.14976	7658.2375
2491.89497	7657.1375
2494.63845	7653.7375
2497.3802	7654.7375
2500.12024	7651.0375
2502.85855	7652.0375
2505.59514	7630.6375
2508.33002	7624.7375
2511.06318	7617.0375
2513.79462	7593.5375
2516.52435	7569.7375
2519.25237	7588.6375
2521.97867	7539.3375
2524.70327	7545.3375
2527.42616	7526.9375
2530.14734	7532.5375
2532.86681	7530.7375
2535.58458	7522.3375
2538.30065	7524.5375
2541.01501	7519.3375
2543.72768	7531.6375
2546.43864	7529.1375
2549.14791	7508.5375
2551.85548	7508.4375
2554.56136	7503.3375
2557.26554	7491.5375
2559.96803	7476.0375
2562.66883	7468.9375
2565.36794	7477.9375
2568.06536	7456.7375
2570.7611	7430.6375
2573.45514	7429.4375
2576.14751	7440.0375
2578.83819	7427.1375
2581.52719	7436.4375
2584.21451	7425.6375
2586.90015	7420.8375
2589.58411	7420.9375
2592.2664	7417.6375
2594.94701	7407.0375
2597.62594	7423.5375
2600.30321	7399.0375
2602.9788	7373.4375
2605.65273	7374.9375
2608.32498	7400.4375
2610.99557	7383.7375
2613.66449	7382.3375
2616.33175	7415.3375
2618.99734	7391.3375
2621.66128	7384.5375
2624.32355	7372.7375
2626.98416	7387.9375
2629.64311	7392.6375
2632.30041	7389.6375
2634.95605	7372.1375
2637.61004	7359.8375
2640.26238	7360.6375
2642.91306	7341.8375
2645.56209	7342.4375
2648.20948	7322.0375
2650.85521	7336.8375
2653.4993	7304.0375
2656.14175	7303.9375
2658.78255	7303.2375
2661.42171	7323.2375
2664.05923	7316.0375
2666.6951	7322.3375
2669.32934	7350.6375
2671.96194	7340.8375
2674.59291	7355.8375
2677.22224	7360.0375
2679.84993	7349.1375
2682.476	7349.6375
2685.10043	7339.8375
2687.72324	7332.1375
2690.34441	7345.4375
2692.96396	7319.2375
2695.58188	7341.2375
2698.19818	7309.6375
2700.81285	7301.0375
2703.4259	7326.0375
2706.03733	7323.6375
2708.64714	7322.3375
2711.25533	7321.8375
2713.86191	7320.5375
2716.46687	7352.0375
2719.07021	7337.3375
2721.67194	7331.5375
2724.27206	7349.7375
2726.87057	7340.3375
2729.46747	7324.9375
2732.06276	7346.9375
2734.65644	7339.5375
2737.24852	7360.3375
2739.83899	7342.5375
2742.42786	7340.3375
2745.01513	7326.1375
2747.60079	7320.0375
2750.18486	7278.1375
2752.76733	7295.7375
2755.3482	7285.2375
2757.92747	7304.0375
2760.50515	7284.5375
2763.08123	7287.6375
2765.65573	7277.9375
2768.22863	7285.5375
2770.79994	7259.0375
2773.36967	7267.1375
2775.9378	7254.2375
2778.50435	7231.5375
2781.06932	7245.4375
2783.6327	7254.5375
2786.1945	7236.4375
2788.75471	7234.4375
2791.31335	7240.2375
2793.87041	7226.6375
2796.42589	7226.9375
2798.97979	7225.4375
2801.53212	7185.9375
2804.08288	7185.5375
2806.63206	7193.4375
2809.17967	7174.7375
2811.72571	7167.0375
2814.27018	7172.3375
2816.81308	7142.5375
2819.35442	7169.0375
2821.89419	7124.7375
2824.43239	7142.7375
2826.96904	7150.6375
2829.50412	7133.5375
2832.03763	7116.3375
2834.56959	7093.5375
2837.1	7114.6375
2839.62884	7121.6375
2842.15613	7098.2375
2844.68186	7099.3375
2847.20604	7092.3375
2849.72867	7096.1375
2852.24974	7081.2375
2854.76927	7073.1375
2857.28724	7064.8375
2859.80367	7098.9375
2862.31855	7082.6375
2864.83189	7101.5375
2867.34368	7071.6375
2869.85393	7076.5375
2872.36264	7061.7375
2874.8698	7041.4375
2877.37543	7074.9375
2879.87952	7062.1375
2882.38207	7068.8375
2884.88308	7073.4375
2887.38256	7076.2375
2889.88051	7090.2375
2892.37692	7095.7375
2894.8718	7084.3375
2897.36515	7095.8375
2899.85698	7079.1375
2902.34727	7105.3375
2904.83604	7110.0375
2907.32328	7157.3375
2909.809	7118.4375
2912.29319	7126.3375
2914.77587	7116.2375
2917.25702	7114.1375
2919.73665	7097.1375
2922.21476	7105.5375
2924.69136	7092.2375
2927.16644	7088.5375
2929.64	7093.6375
2932.11205	7053.2375
2934.58258	7057.8375
2937.05161	7052.1375
2939.51912	7072.0375
2941.98513	7075.4375
2944.44962	7066.8375
2946.91261	7057.3375
2949.37409	7066.0375
2951.83407	7046.0375
2954.29254	7042.0375
2956.74951	7049.0375
2959.20498	7056.8375
2961.65895	7051.5375
2964.11142	7051.6375
2966.56239	7062.9375
2969.01186	7063.0375
2971.45984	7031.2375
2973.90632	7034.7375
2976.35131	7033.1375
2978.7948	7012.8375
2981.23681	7005.8375
2983.67732	6983.8375
2986.11635	6980.5375
2988.55388	6973.5375
2990.98993	6953.2375
2993.4245	6950.8375
2995.85758	6954.2375
2998.28917	6918.2375
3000.71928	6940.1375
3003.14791	6923.6375
3005.57506	6912.7375
3008.00073	6891.8375
3010.42493	6890.1375
3012.84764	6883.8375
3015.26888	6885.4375
3017.68865	6860.8375
3020.10694	6859.5375
3022.52376	6846.6375
3024.9391	6836.3375
3027.35298	6838.5375
3029.76539	6849.9375
3032.17632	6827.2375
3034.5858	6829.9375
3036.9938	6815.7375
3039.40034	6813.3375
3041.80542	6825.4375
3044.20903	6805.8375
3046.61118	6815.1375
3049.01187	6790.0375
3051.4111	6798.6375
3053.80888	6767.8375
3056.20519	6772.6375
3058.60005	6735.2375
3060.99345	6744.5375
3063.3854	6752.1375
3065.7759	6730.8375
3068.16494	6700.4375
3070.55254	6679.4375
3072.93868	6709.6375
3075.32338	6669.9375
3077.70662	6655.3375
3080.08842	6644.7375
3082.46878	6653.2375
3084.84769	6616.9375
3087.22515	6640.6375
3089.60118	6648.0375
3091.97576	6643.2375
3094.3489	6658.1375
3096.72061	6684.2375
3099.09087	6681.2375
3101.4597	6663.8375
