Data from AgNPs_UA_10uM_CRN_0uM_R6G_10uM_Q_RamanShift__4__11-53-22-627.txt Node

Date: Mon Jul 18 11:53:22 BST 2022
User: TCL
Spectrometer: QEP01345
Trigger mode: 4
Integration Time (sec): 7.000000E0
Scans to average: 10
Electric dark correction enabled: true
Nonlinearity correction enabled: false
Boxcar width: 0
XAxis mode: Raman Shifts
Number of Pixels in Spectrum: 1044
>>>>>Begin Spectral Data<<<<<
46.04893	-1.0625
50.45542	-1.4625
54.85868	-2.5625
59.25871	0.6375
63.6555	115.8375
68.04907	121.0375
72.43941	127.4375
76.82654	133.1375
81.21044	135.5375
85.59113	138.2375
89.96862	144.3375
94.34289	147.9375
98.71396	153.4375
103.08183	161.6375
107.4465	165.9375
111.80798	168.3375
116.16626	170.1375
120.52136	185.1375
124.87327	193.6375
129.222	198.2375
133.56755	214.1375
137.90993	231.9375
142.24913	250.7375
146.58517	279.2375
150.91804	331.1375
155.24774	397.0375
159.57429	498.0375
163.89768	644.7375
168.21792	846.8375
172.53501	1169.7375
176.84895	1633.9375
181.15975	2299.5375
185.46741	3224.5375
189.77193	4468.1375
194.07331	5967.0375
198.37157	7649.4375
202.6667	9465.8375
206.9587	11246.1375
211.24758	13029.1375
215.53334	14811.9375
219.81599	16786.8375
224.09553	18933.8375
228.37195	21359.1375
232.64527	23946.1375
236.91549	26494.5375
241.18261	28881.5375
245.44663	30926.3375
249.70755	32724.5375
253.96539	34223.0375
258.22014	35592.4375
262.4718	36650.2375
266.72039	37463.2375
270.96589	37847.5375
275.20832	37825.5375
279.44768	37456.0375
283.68397	36983.6375
287.91719	36709.1375
292.14735	36713.6375
296.37445	37075.8375
300.59849	37862.8375
304.81948	38759.6375
309.03742	39506.5375
313.25231	39545.8375
317.46415	38722.8375
321.67296	37263.3375
325.87872	35901.8375
330.08145	35216.2375
334.28114	35142.2375
338.47781	35553.0375
342.67145	36200.0375
346.86207	37129.4375
351.04966	38272.2375
355.23424	39512.9375
359.4158	40312.6375
363.59435	40658.1375
367.76989	40689.4375
371.94243	40566.4375
376.11196	40366.0375
380.27849	40284.4375
384.44203	40309.6375
388.60257	40358.1375
392.76012	40644.2375
396.91468	41187.3375
401.06626	41906.5375
405.21485	42277.0375
409.36047	41701.4375
413.50311	40597.9375
417.64277	39699.2375
421.77947	39276.2375
425.9132	39275.5375
430.04396	39241.6375
434.17176	39397.9375
438.2966	39687.5375
442.41849	40547.0375
446.53742	41720.3375
450.6534	42804.6375
454.76644	43510.8375
458.87653	43508.8375
462.98368	43104.3375
467.08789	42551.1375
471.18916	41832.8375
475.2875	41032.5375
479.38291	40500.8375
483.4754	39900.2375
487.56496	39499.7375
491.6516	39162.1375
495.73531	38996.9375
499.81612	39036.5375
503.89401	39298.3375
507.96899	39438.9375
512.04106	39495.5375
516.11023	39563.8375
520.1765	39614.3375
524.23987	39547.0375
528.30034	39369.1375
532.35792	39104.2375
536.41261	38596.0375
540.46441	38051.4375
544.51333	37952.8375
548.55936	38343.2375
552.60252	39273.1375
556.64279	40285.9375
560.6802	40978.3375
564.71473	41460.3375
568.7464	42381.8375
572.7752	43218.0375
576.80114	43533.3375
580.82422	44141.9375
584.84444	45269.7375
588.86181	46595.0375
592.87633	47814.5375
596.888	48014.9375
600.89682	47473.6375
604.9028	49473.2375
608.90594	56552.7375
612.90624	63474.0375
616.90371	57793.5375
620.89834	45405.1375
624.89015	40497.4375
628.87913	39971.3375
632.86528	40464.8375
636.84862	40631.8375
640.82913	39723.6375
644.80683	38391.7375
648.78172	37611.0375
652.75379	37743.4375
656.72306	38767.9375
660.68952	39734.2375
664.65319	39224.2375
668.61405	38160.6375
672.57211	38054.1375
676.52738	38217.1375
680.47986	37964.5375
684.42955	37546.6375
688.37646	37357.6375
692.32058	37647.1375
696.26192	38238.2375
700.20048	38866.8375
704.13626	39147.6375
708.06928	38982.1375
711.99952	38726.4375
715.927	38778.4375
719.85171	38972.6375
723.77365	38796.6375
727.69284	38293.4375
731.60928	37844.1375
735.52295	37787.0375
739.43388	37856.6375
743.34206	38063.5375
747.24749	38259.9375
751.15017	38559.3375
755.05012	39323.1375
758.94733	40990.5375
762.8418	44499.2375
766.73354	49670.1375
770.62254	53693.3375
774.50882	53837.4375
778.39237	50847.8375
782.27321	46436.2375
786.15132	42509.0375
790.02671	39989.7375
793.89938	38724.1375
797.76935	38204.3375
801.6366	37998.2375
805.50115	37832.0375
809.36299	37500.5375
813.22213	37255.7375
817.07857	37172.0375
820.93231	37128.4375
824.78336	37122.5375
828.63172	37151.4375
832.47738	37160.7375
836.32036	37079.0375
840.16066	37178.8375
843.99827	37220.3375
847.8332	37157.0375
851.66546	37116.6375
855.49504	37185.0375
859.32195	37167.5375
863.1462	36998.3375
866.96777	36978.6375
870.78668	36913.3375
874.60293	36949.6375
878.41652	37033.9375
882.22745	37299.8375
886.03573	37453.0375
889.84136	37391.5375
893.64433	37223.1375
897.44466	37037.8375
901.24235	37037.4375
905.0374	36836.2375
908.8298	36711.5375
912.61957	36659.2375
916.40671	36862.7375
920.19121	37339.0375
923.97308	37783.0375
927.75233	38154.5375
931.52895	38220.0375
935.30295	37700.2375
939.07433	36855.9375
942.84309	36226.9375
946.60924	35866.0375
950.37278	35820.6375
954.13371	35735.1375
957.89203	35698.0375
961.64774	35743.3375
965.40086	35837.9375
969.15137	35813.9375
972.89929	35783.9375
976.64461	35790.4375
980.38733	35842.8375
984.12747	35963.3375
987.86502	36144.7375
991.59999	36411.1375
995.33237	36811.1375
999.06217	37585.4375
1002.78939	38394.4375
1006.51404	39112.6375
1010.23611	39677.3375
1013.95561	39996.7375
1017.67255	39940.3375
1021.38692	39505.1375
1025.09872	38898.4375
1028.80796	38715.1375
1032.51465	39086.6375
1036.21877	39619.5375
1039.92035	39809.7375
1043.61937	39671.6375
1047.31584	39326.6375
1051.00976	38956.1375
1054.70114	38793.5375
1058.38998	38800.0375
1062.07627	39002.0375
1065.76003	39323.2375
1069.44126	39892.8375
1073.11995	40600.9375
1076.79611	41293.1375
1080.46974	41899.5375
1084.14085	42483.2375
1087.80943	43190.3375
1091.47549	43493.3375
1095.13903	43034.0375
1098.80005	42217.8375
1102.45857	41203.2375
1106.11456	40557.7375
1109.76805	40363.6375
1113.41903	40664.3375
1117.06751	41270.2375
1120.71348	42111.3375
1124.35696	43134.0375
1127.99793	43986.7375
1131.63641	43758.7375
1135.2724	42778.1375
1138.90589	41948.4375
1142.5369	41553.3375
1146.16542	41424.1375
1149.79145	41483.8375
1153.415	41631.2375
1157.03607	42071.5375
1160.65467	43030.8375
1164.27079	44672.8375
1167.88443	46897.6375
1171.49561	49956.5375
1175.10432	54237.5375
1178.71056	59656.3375
1182.31434	64112.7375
1185.91565	65527.2375
1189.51451	64304.5375
1193.11091	61625.6375
1196.70485	58565.7375
1200.29634	55993.6375
1203.88538	53884.3375
1207.47197	51941.3375
1211.05612	50296.7375
1214.63782	49108.1375
1218.21708	48256.3375
1221.79391	47696.9375
1225.36829	47577.9375
1228.94024	47163.5375
1232.50976	46529.0375
1236.07685	45916.8375
1239.6415	45541.8375
1243.20374	45521.3375
1246.76355	45917.7375
1250.32093	46562.7375
1253.8759	47529.0375
1257.42845	48822.9375
1260.97859	50351.3375
1264.52631	52071.4375
1268.07163	53616.6375
1271.61453	55063.7375
1275.15503	56444.1375
1278.69312	57706.0375
1282.22882	58723.8375
1285.76211	60268.3375
1289.29301	62344.1375
1292.82151	64691.7375
1296.34761	67428.0375
1299.87133	71058.6375
1303.39266	75929.9375
1306.9116	82018.2375
1310.42815	88165.1375
1313.94233	90978.6375
1317.45412	88885.8375
1320.96354	84548.8375
1324.47058	80532.0375
1327.97525	77149.7375
1331.47754	74704.2375
1334.97747	73320.0375
1338.47502	72684.4375
1341.97022	72807.8375
1345.46305	73564.0375
1348.95352	75089.6375
1352.44163	77541.0375
1355.92738	81522.5375
1359.41078	87871.3375
1362.89183	93930.2375
1366.37053	91724.8375
1369.84688	81098.1375
1373.32088	69896.3375
1376.79254	63005.6375
1380.26186	59942.6375
1383.72883	58679.6375
1387.19347	57749.7375
1390.65578	56541.4375
1394.11575	55745.7375
1397.57339	55530.9375
1401.0287	55663.5375
1404.48168	55656.1375
1407.93234	55204.5375
1411.38068	54658.8375
1414.82669	53762.3375
1418.27039	52612.9375
1421.71177	51370.6375
1425.15083	50298.1375
1428.58758	49940.6375
1432.02203	50708.9375
1435.45416	51905.1375
1438.88399	52825.6375
1442.31151	53237.0375
1445.73673	53411.0375
1449.15965	53457.7375
1452.58027	53429.6375
1455.9986	53277.8375
1459.41463	53449.4375
1462.82837	54128.6375
1466.23982	55149.4375
1469.64898	56103.4375
1473.05586	56821.0375
1476.46045	57090.5375
1479.86276	57241.9375
1483.26279	57421.6375
1486.66054	58117.7375
1490.05602	59459.7375
1493.44922	61417.3375
1496.84016	64223.3375
1500.22882	68439.8375
1503.61521	74198.1375
1506.99934	80825.2375
1510.38121	85713.7375
1513.76081	86253.7375
1517.13816	81497.3375
1520.51324	74122.6375
1523.88607	67945.3375
1527.25665	64159.7375
1530.62498	62289.5375
1533.99105	61026.6375
1537.35488	59724.7375
1540.71647	58310.4375
1544.07581	56959.6375
1547.4329	55696.9375
1550.78776	54801.2375
1554.14038	54265.0375
1557.49077	54276.3375
1560.83892	54713.4375
1564.18484	55668.4375
1567.52853	56818.5375
1570.86999	57830.8375
1574.20922	58623.7375
1577.54624	58577.4375
1580.88103	57214.1375
1584.2136	55657.2375
1587.54395	55631.5375
1590.87208	57445.8375
1594.19801	60652.9375
1597.52172	63863.9375
1600.84321	64564.3375
1604.16251	62140.6375
1607.47959	58083.0375
1610.79447	53838.9375
1614.10715	49928.0375
1617.41763	46658.8375
1620.7259	44619.6375
1624.03199	43646.7375
1627.33587	43865.8375
1630.63757	45214.2375
1633.93707	47822.7375
1637.23439	52334.3375
1640.52951	59054.9375
1643.82246	67350.5375
1647.11321	74650.6375
1650.40179	77292.0375
1653.68819	72486.5375
1656.97241	62672.8375
1660.25446	53012.7375
1663.53433	46059.3375
1666.81203	41748.2375
1670.08756	39184.9375
1673.36092	37627.2375
1676.63211	36623.0375
1679.90115	35901.0375
1683.16801	35359.2375
1686.43272	34949.9375
1689.69527	34637.4375
1692.95567	34379.0375
1696.2139	34233.9375
1699.46999	34075.9375
1702.72392	34034.5375
1705.97571	33946.9375
1709.22535	33924.4375
1712.47284	33921.6375
1715.71819	33917.5375
1718.96139	33872.1375
1722.20246	33732.1375
1725.44139	33571.7375
1728.67818	33372.8375
1731.91284	33127.4375
1735.14537	32961.8375
1738.37576	32841.3375
1741.60403	32775.1375
1744.83017	32661.0375
1748.05418	32597.2375
1751.27607	32462.3375
1754.49584	32422.8375
1757.71349	32404.9375
1760.92903	32403.8375
1764.14244	32336.1375
1767.35375	32339.7375
1770.56294	32241.6375
1773.77002	32131.4375
1776.97499	32167.2375
1780.17785	32051.4375
1783.37861	32018.0375
1786.57727	31974.2375
1789.77382	31888.6375
1792.96828	31845.7375
1796.16064	31795.8375
1799.3509	31700.6375
1802.53907	31639.9375
1805.72514	31567.6375
1808.90913	31428.9375
1812.09102	31388.9375
1815.27083	31287.8375
1818.44856	31300.1375
1821.6242	31261.6375
1824.79776	31191.9375
1827.96924	31205.9375
1831.13864	31140.8375
1834.30597	31113.4375
1837.47122	31070.7375
1840.6344	31102.6375
1843.7955	31099.6375
1846.95454	31019.6375
1850.11151	31028.6375
1853.26642	30967.9375
1856.41926	30975.0375
1859.57004	30982.9375
1862.71876	30925.2375
1865.86542	30889.4375
1869.01003	30918.4375
1872.15258	30890.7375
1875.29308	30841.0375
1878.43152	30776.9375
1881.56792	30734.3375
1884.70227	30722.6375
1887.83457	30688.4375
1890.96482	30704.5375
1894.09304	30663.8375
1897.21921	30624.4375
1900.34335	30605.9375
1903.46544	30523.1375
1906.58551	30483.3375
1909.70353	30462.5375
1912.81953	30473.6375
1915.93349	30418.6375
1919.04543	30379.6375
1922.15534	30296.6375
1925.26322	30162.6375
1928.36908	30226.7375
1931.47292	30115.6375
1934.57473	29996.5375
1937.67453	29946.9375
1940.77232	29868.2375
1943.86808	29806.6375
1946.96184	29742.6375
1950.05358	29667.4375
1953.14331	29508.7375
1956.23103	29443.6375
1959.31675	29408.2375
1962.40046	29330.5375
1965.48217	29296.2375
1968.56188	29207.1375
1971.63959	29130.0375
1974.7153	29078.8375
1977.78901	28975.8375
1980.86073	28853.8375
1983.93046	28770.8375
1986.99819	28683.5375
1990.06394	28598.5375
1993.1277	28536.3375
1996.18947	28418.2375
1999.24925	28381.4375
2002.30706	28311.7375
2005.36288	28267.1375
2008.41672	28169.2375
2011.46859	28101.3375
2014.51848	28035.4375
2017.56639	27936.7375
2020.61233	27904.3375
2023.6563	27815.3375
2026.6983	27739.5375
2029.73833	27618.2375
2032.7764	27578.3375
2035.8125	27594.5375
2038.84664	27535.6375
2041.87881	27471.6375
2044.90903	27395.7375
2047.93729	27334.3375
2050.96359	27305.2375
2053.98794	27287.8375
2057.01034	27281.9375
2060.03078	27249.8375
2063.04927	27206.0375
2066.06582	27221.8375
2069.08042	27202.9375
2072.09307	27143.2375
2075.10378	27143.3375
2078.11255	27124.4375
2081.11938	27122.4375
2084.12426	27095.9375
2087.12722	27105.1375
2090.12824	27138.1375
2093.12732	27105.8375
2096.12447	27127.2375
2099.11969	27124.6375
2102.11299	27165.3375
2105.10435	27170.2375
2108.09379	27161.6375
2111.08131	27172.7375
2114.0669	27159.6375
2117.05057	27165.2375
2120.03233	27241.1375
2123.01216	27253.4375
2125.99008	27299.8375
2128.96609	27352.5375
2131.94018	27393.4375
2134.91236	27395.8375
2137.88263	27371.5375
2140.851	27419.1375
2143.81746	27420.5375
2146.78201	27421.2375
2149.74466	27403.1375
2152.7054	27395.2375
2155.66425	27410.1375
2158.6212	27434.9375
2161.57625	27373.7375
2164.52941	27326.0375
2167.48067	27341.1375
2170.43004	27343.7375
2173.37752	27306.4375
2176.32311	27299.4375
2179.26681	27325.3375
2182.20863	27370.4375
2185.14856	27328.7375
2188.08661	27353.0375
2191.02278	27340.4375
2193.95707	27329.5375
2196.88948	27378.4375
2199.82001	27338.1375
2202.74867	27235.5375
2205.67545	27217.5375
2208.60037	27191.3375
2211.52341	27110.5375
2214.44458	27120.2375
2217.36388	27102.9375
2220.28132	27062.4375
2223.1969	26980.0375
2226.11061	26926.5375
2229.02246	26842.3375
2231.93245	26847.3375
2234.84058	26838.9375
2237.74686	26763.7375
2240.65128	26720.2375
2243.55385	26666.8375
2246.45456	26672.4375
2249.35343	26628.6375
2252.25044	26617.4375
2255.14561	26567.6375
2258.03893	26534.8375
2260.93041	26538.2375
2263.82004	26514.6375
2266.70783	26433.0375
2269.59378	26380.1375
2272.4779	26357.0375
2275.36017	26260.0375
2278.24061	26230.6375
2281.11922	26199.9375
2283.996	26168.5375
2286.87094	26120.9375
2289.74405	26086.8375
2292.61534	26031.4375
2295.4848	25982.1375
2298.35243	26038.4375
2301.21824	26051.0375
2304.08223	26034.2375
2306.94439	25996.6375
2309.80474	26037.2375
2312.66327	25952.3375
2315.51999	25941.2375
2318.37489	26000.4375
2321.22797	25940.2375
2324.07925	25886.5375
2326.92871	25826.9375
2329.77637	25814.2375
2332.62222	25823.7375
2335.46626	25848.5375
2338.3085	25874.6375
2341.14893	25826.4375
2343.98756	25807.5375
2346.8244	25819.1375
2349.65943	25900.8375
2352.49267	25808.3375
2355.32411	25833.5375
2358.15376	25799.1375
2360.98161	25826.5375
2363.80768	25791.5375
2366.63195	25842.9375
2369.45444	25763.5375
2372.27514	25759.2375
2375.09405	25722.7375
2377.91118	25641.2375
2380.72652	25558.6375
2383.54009	25437.4375
2386.35187	25473.3375
2389.16188	25425.7375
2391.97011	25389.7375
2394.77657	25317.3375
2397.58125	25283.6375
2400.38416	25261.3375
2403.18529	25227.9375
2405.98466	25234.9375
2408.78226	25191.3375
2411.57809	25159.0375
2414.37216	25139.7375
2417.16446	25141.7375
2419.955	25105.0375
2422.74378	25119.0375
2425.5308	25054.3375
2428.31606	24988.0375
2431.09956	25029.6375
2433.88131	24977.1375
2436.6613	24981.8375
2439.43954	24991.8375
2442.21603	24974.3375
2444.99077	24975.3375
2447.76377	24974.2375
2450.53501	24908.0375
2453.30451	24921.7375
2456.07226	24877.9375
2458.83827	24894.0375
2461.60254	24930.2375
2464.36507	24903.1375
2467.12586	24841.2375
2469.88492	24885.2375
2472.64224	24801.4375
2475.39782	24812.2375
2478.15167	24898.3375
2480.90379	24879.0375
2483.65417	24969.7375
2486.40283	24993.1375
2489.14976	25008.1375
2491.89497	24993.4375
2494.63845	25025.8375
2497.3802	24976.4375
2500.12024	24947.9375
2502.85855	24886.2375
2505.59514	24850.9375
2508.33002	24802.0375
2511.06318	24712.7375
2513.79462	24695.7375
2516.52435	24680.2375
2519.25237	24636.9375
2521.97867	24632.2375
2524.70327	24609.3375
2527.42616	24616.8375
2530.14734	24597.4375
2532.86681	24563.8375
2535.58458	24570.9375
2538.30065	24536.2375
2541.01501	24545.6375
2543.72768	24513.1375
2546.43864	24494.0375
2549.14791	24459.4375
2551.85548	24431.3375
2554.56136	24371.5375
2557.26554	24354.9375
2559.96803	24380.5375
2562.66883	24355.4375
2565.36794	24300.8375
2568.06536	24314.3375
2570.7611	24297.8375
2573.45514	24287.4375
2576.14751	24273.4375
2578.83819	24242.1375
2581.52719	24194.6375
2584.21451	24158.0375
2586.90015	24162.6375
2589.58411	24042.2375
2592.2664	24142.3375
2594.94701	24124.1375
2597.62594	24130.7375
2600.30321	24051.1375
2602.9788	23991.9375
2605.65273	23944.9375
2608.32498	23975.7375
2610.99557	23960.4375
2613.66449	24005.3375
2616.33175	23962.6375
2618.99734	23934.5375
2621.66128	23905.7375
2624.32355	23933.5375
2626.98416	23885.5375
2629.64311	23843.7375
2632.30041	23798.9375
2634.95605	23780.0375
2637.61004	23746.0375
2640.26238	23781.9375
2642.91306	23786.0375
2645.56209	23734.6375
2648.20948	23707.1375
2650.85521	23696.2375
2653.4993	23672.1375
2656.14175	23680.8375
2658.78255	23757.9375
2661.42171	23799.0375
2664.05923	23826.5375
2666.6951	23808.9375
2669.32934	23787.2375
2671.96194	23774.5375
2674.59291	23778.6375
2677.22224	23793.9375
2679.84993	23830.6375
2682.476	23731.0375
2685.10043	23780.2375
2687.72324	23713.3375
2690.34441	23733.5375
2692.96396	23708.5375
2695.58188	23711.2375
2698.19818	23669.5375
2700.81285	23684.1375
2703.4259	23695.0375
2706.03733	23747.3375
2708.64714	23737.8375
2711.25533	23776.1375
2713.86191	23769.3375
2716.46687	23758.2375
2719.07021	23776.5375
2721.67194	23778.8375
2724.27206	23773.2375
2726.87057	23753.9375
2729.46747	23831.0375
2732.06276	23827.7375
2734.65644	23805.9375
2737.24852	23791.8375
2739.83899	23739.8375
2742.42786	23726.9375
2745.01513	23680.4375
2747.60079	23705.8375
2750.18486	23687.4375
2752.76733	23682.8375
2755.3482	23617.8375
2757.92747	23655.2375
2760.50515	23578.7375
2763.08123	23582.2375
2765.65573	23560.9375
2768.22863	23554.2375
2770.79994	23547.0375
2773.36967	23561.9375
2775.9378	23497.3375
2778.50435	23500.2375
2781.06932	23472.0375
2783.6327	23453.6375
2786.1945	23475.2375
2788.75471	23516.2375
2791.31335	23373.5375
2793.87041	23338.9375
2796.42589	23282.5375
2798.97979	23303.6375
2801.53212	23252.1375
2804.08288	23297.6375
2806.63206	23192.5375
2809.17967	23186.8375
2811.72571	23117.4375
2814.27018	23097.1375
2816.81308	23021.7375
2819.35442	22978.3375
2821.89419	22956.0375
2824.43239	22963.7375
2826.96904	22914.2375
2829.50412	22947.8375
2832.03763	22890.5375
2834.56959	22869.8375
2837.1	22884.2375
2839.62884	22834.9375
2842.15613	22814.8375
2844.68186	22765.1375
2847.20604	22747.7375
2849.72867	22770.7375
2852.24974	22707.7375
2854.76927	22715.6375
2857.28724	22682.4375
2859.80367	22726.0375
2862.31855	22698.0375
2864.83189	22692.6375
2867.34368	22645.8375
2869.85393	22665.4375
2872.36264	22620.1375
2874.8698	22625.5375
2877.37543	22573.8375
2879.87952	22589.1375
2882.38207	22605.6375
2884.88308	22555.8375
2887.38256	22596.6375
2889.88051	22518.8375
2892.37692	22583.1375
2894.8718	22568.9375
2897.36515	22625.3375
2899.85698	22598.4375
2902.34727	22612.3375
2904.83604	22625.9375
2907.32328	22670.5375
2909.809	22677.5375
2912.29319	22701.0375
2914.77587	22702.0375
2917.25702	22702.7375
2919.73665	22716.3375
2922.21476	22699.0375
2924.69136	22658.4375
2927.16644	22673.4375
2929.64	22598.1375
2932.11205	22559.8375
2934.58258	22462.2375
2937.05161	22468.6375
2939.51912	22509.5375
2941.98513	22492.8375
2944.44962	22466.1375
2946.91261	22371.9375
2949.37409	22436.5375
2951.83407	22426.4375
2954.29254	22403.5375
2956.74951	22393.8375
2959.20498	22438.2375
2961.65895	22431.9375
2964.11142	22438.5375
2966.56239	22389.0375
2969.01186	22383.7375
2971.45984	22342.8375
2973.90632	22313.9375
2976.35131	22283.0375
2978.7948	22233.8375
2981.23681	22226.5375
2983.67732	22202.0375
2986.11635	22206.3375
2988.55388	22163.1375
2990.98993	22084.8375
2993.4245	22037.2375
2995.85758	21966.2375
2998.28917	21962.5375
3000.71928	21910.8375
3003.14791	21828.8375
3005.57506	21843.9375
3008.00073	21774.3375
3010.42493	21741.5375
3012.84764	21712.0375
3015.26888	21736.7375
3017.68865	21658.2375
3020.10694	21648.3375
3022.52376	21612.5375
3024.9391	21539.4375
