Data from AgNPs_UA_5uM_CRN_0uM_R6G_10uM_Q_RamanShift__3__10-52-45-291.txt Node

Date: Mon Jul 18 10:52:45 BST 2022
User: TCL
Spectrometer: QEP01345
Trigger mode: 4
Integration Time (sec): 7.000000E0
Scans to average: 10
Electric dark correction enabled: true
Nonlinearity correction enabled: false
Boxcar width: 0
XAxis mode: Raman Shifts
Number of Pixels in Spectrum: 1044
>>>>>Begin Spectral Data<<<<<
46.04893	-1.2875
50.45542	-2.2875
54.85868	-1.5875
59.25871	-1.7875
63.6555	179.6125
68.04907	184.6125
72.43941	190.2125
76.82654	199.2125
81.21044	200.2125
85.59113	207.0125
89.96862	219.7125
94.34289	220.2125
98.71396	237.5125
103.08183	239.0125
107.4465	241.2125
111.80798	252.1125
116.16626	261.7125
120.52136	276.6125
124.87327	286.3125
129.222	308.8125
133.56755	333.9125
137.90993	367.5125
142.24913	407.3125
146.58517	460.7125
150.91804	544.2125
155.24774	658.0125
159.57429	833.3125
163.89768	1069.8125
168.21792	1436.1125
172.53501	1993.2125
176.84895	2794.1125
181.15975	3963.3125
185.46741	5572.8125
189.77193	7722.2125
194.07331	10326.9125
198.37157	13357.0125
202.6667	16514.7125
206.9587	19653.4125
211.24758	22734.4125
215.53334	25929.1125
219.81599	29340.6125
224.09553	33072.5125
228.37195	37250.2125
232.64527	41729.5125
236.91549	46337.3125
241.18261	50579.5125
245.44663	54253.3125
249.70755	57318.8125
253.96539	59930.2125
258.22014	62267.1125
262.4718	64246.0125
266.72039	65616.1125
270.96589	66238.5125
275.20832	66144.8125
279.44768	65513.4125
283.68397	64634.1125
287.91719	63974.2125
292.14735	63760.8125
296.37445	64243.7125
300.59849	65391.7125
304.81948	66819.4125
309.03742	68181.1125
313.25231	68715.6125
317.46415	68095.7125
321.67296	66362.4125
325.87872	64658.2125
330.08145	63772.4125
334.28114	63875.5125
338.47781	64560.5125
342.67145	65678.3125
346.86207	67254.6125
351.04966	69126.2125
355.23424	71156.5125
359.4158	72792.8125
363.59435	73862.5125
367.76989	74407.9125
371.94243	74651.8125
376.11196	74789.7125
380.27849	75067.1125
384.44203	75594.6125
388.60257	76283.9125
392.76012	77031.2125
396.91468	77931.2125
401.06626	78885.7125
405.21485	79506.7125
409.36047	78757.8125
413.50311	77010.5125
417.64277	75512.6125
421.77947	74602.5125
425.9132	74121.6125
430.04396	74127.8125
434.17176	74454.0125
438.2966	75356.3125
442.41849	76803.6125
446.53742	79002.2125
450.6534	81363.8125
454.76644	82819.4125
458.87653	83271.4125
462.98368	82897.7125
467.08789	82043.6125
471.18916	80592.9125
475.2875	78693.3125
479.38291	76948.9125
483.4754	75647.1125
487.56496	74823.2125
491.6516	74246.3125
495.73531	74081.3125
499.81612	74371.1125
503.89401	75066.4125
507.96899	75423.7125
512.04106	75431.4125
516.11023	75690.7125
520.1765	75929.3125
524.23987	76062.2125
528.30034	76155.7125
532.35792	76062.6125
536.41261	75256.2125
540.46441	74032.3125
544.51333	73430.8125
548.55936	73953.8125
552.60252	75209.2125
556.64279	77019.4125
560.6802	78409.9125
564.71473	79171.2125
568.7464	79553.3125
572.7752	79746.9125
576.80114	79325.0125
580.82422	79566.4125
584.84444	80748.7125
588.86181	82542.7125
592.87633	84535.7125
596.888	85562.9125
600.89682	86325.7125
604.9028	91577.1125
608.90594	105565.8125
612.90624	119141.9125
616.90371	110304.4125
620.89834	88681.9125
624.89015	79454.8125
628.87913	78566.9125
632.86528	79943.3125
636.84862	80494.6125
640.82913	78961.2125
644.80683	76287.7125
648.78172	74592.1125
652.75379	74536.8125
656.72306	76297.0125
660.68952	78632.8125
664.65319	78298.4125
668.61405	77464.3125
672.57211	78403.8125
676.52738	78583.9125
680.47986	76832.7125
684.42955	74927.2125
688.37646	74399.1125
692.32058	75199.0125
696.26192	77062.8125
700.20048	78741.1125
704.13626	79080.8125
708.06928	78154.6125
711.99952	77089.0125
715.927	76747.0125
719.85171	77216.0125
723.77365	77204.6125
727.69284	76233.9125
731.60928	75353.9125
735.52295	75169.5125
739.43388	75433.3125
743.34206	75733.1125
747.24749	75920.9125
751.15017	76173.9125
755.05012	77051.9125
758.94733	79493.9125
762.8418	84681.2125
766.73354	92772.7125
770.62254	99847.6125
774.50882	102162.2125
778.39237	99709.3125
782.27321	94096.0125
786.15132	87294.4125
790.02671	81980.6125
793.89938	78987.3125
797.76935	77340.8125
801.6366	76618.1125
805.50115	76040.8125
809.36299	75634.6125
813.22213	75317.1125
817.07857	75112.5125
820.93231	74965.2125
824.78336	74957.8125
828.63172	75073.9125
832.47738	74998.9125
836.32036	74685.0125
840.16066	74530.3125
843.99827	74460.4125
847.8332	74443.8125
851.66546	74651.4125
855.49504	74839.7125
859.32195	74896.3125
863.1462	74844.5125
866.96777	74928.4125
870.78668	74852.7125
874.60293	75145.7125
878.41652	75414.8125
882.22745	75967.2125
886.03573	76288.0125
889.84136	76180.9125
893.64433	75785.9125
897.44466	75313.7125
901.24235	75134.6125
905.0374	74933.8125
908.8298	74593.7125
912.61957	74403.7125
916.40671	74518.5125
920.19121	74889.8125
923.97308	75565.6125
927.75233	76374.4125
931.52895	76699.8125
935.30295	76191.6125
939.07433	75116.9125
942.84309	74146.3125
946.60924	73671.1125
950.37278	73464.3125
954.13371	73577.4125
957.89203	73590.2125
961.64774	73599.2125
965.40086	73591.7125
969.15137	73615.3125
972.89929	73457.9125
976.64461	73636.5125
980.38733	73918.1125
984.12747	74187.2125
987.86502	74650.0125
991.59999	75221.2125
995.33237	75999.9125
999.06217	77275.3125
1002.78939	78900.7125
1006.51404	80736.1125
1010.23611	82692.3125
1013.95561	84026.5125
1017.67255	84514.0125
1021.38692	83865.5125
1025.09872	82288.4125
1028.80796	80872.4125
1032.51465	80347.8125
1036.21877	80811.8125
1039.92035	81230.5125
1043.61937	81321.6125
1047.31584	81081.8125
1051.00976	80705.5125
1054.70114	80711.0125
1058.38998	81096.7125
1062.07627	81780.2125
1065.76003	82667.9125
1069.44126	84151.1125
1073.11995	86602.1125
1076.79611	89137.6125
1080.46974	90424.5125
1084.14085	91009.3125
1087.80943	91765.9125
1091.47549	92622.2125
1095.13903	93121.3125
1098.80005	93116.3125
1102.45857	93065.0125
1106.11456	92162.7125
1109.76805	90186.7125
1113.41903	89208.2125
1117.06751	89536.1125
1120.71348	90546.6125
1124.35696	91505.5125
1127.99793	92446.0125
1131.63641	91900.2125
1135.2724	90190.7125
1138.90589	88673.9125
1142.5369	87913.3125
1146.16542	87848.1125
1149.79145	87806.5125
1153.415	87142.0125
1157.03607	86507.7125
1160.65467	87101.7125
1164.27079	88979.9125
1167.88443	92236.2125
1171.49561	96965.5125
1175.10432	103383.2125
1178.71056	111940.7125
1182.31434	119515.5125
1185.91565	122999.5125
1189.51451	122966.3125
1193.11091	120931.1125
1196.70485	117823.9125
1200.29634	114580.5125
1203.88538	111575.6125
1207.47197	108452.4125
1211.05612	105376.9125
1214.63782	102500.3125
1218.21708	100172.7125
1221.79391	98477.0125
1225.36829	97664.5125
1228.94024	97028.1125
1232.50976	96119.6125
1236.07685	95248.4125
1239.6415	94822.7125
1243.20374	95001.2125
1246.76355	95854.4125
1250.32093	97132.8125
1253.8759	99262.6125
1257.42845	102572.9125
1260.97859	106272.3125
1264.52631	109821.3125
1268.07163	112846.6125
1271.61453	115002.5125
1275.15503	116380.8125
1278.69312	117050.6125
1282.22882	116892.6125
1285.76211	117525.4125
1289.29301	118983.1125
1292.82151	121135.9125
1296.34761	124207.4125
1299.87133	128716.7125
1303.39266	135578.5125
1306.9116	145184.0125
1310.42815	155504.4125
1313.94233	161758.4125
1317.45412	160374.7125
1320.96354	154813.7125
1324.47058	148014.2125
1327.97525	141547.8125
1331.47754	136622.5125
1334.97747	134705.4125
1338.47502	135405.1125
1341.97022	138846.0125
1345.46305	144449.6125
1348.95352	150747.0125
1352.44163	156635.2125
1355.92738	162980.3125
1359.41078	170758.1125
1362.89183	175989.3125
1366.37053	169904.1125
1369.84688	152301.2125
1373.32088	134332.2125
1376.79254	123145.1125
1380.26186	117818.5125
1383.72883	115311.7125
1387.19347	113442.8125
1390.65578	110944.5125
1394.11575	108637.8125
1397.57339	106921.4125
1401.0287	106305.7125
1404.48168	106309.2125
1407.93234	107147.1125
1411.38068	108345.5125
1414.82669	108727.9125
1418.27039	107896.8125
1421.71177	106600.5125
1425.15083	105928.0125
1428.58758	105985.1125
1432.02203	107230.6125
1435.45416	108979.2125
1438.88399	110115.5125
1442.31151	110223.7125
1445.73673	110284.3125
1449.15965	109997.9125
1452.58027	109307.6125
1455.9986	108658.6125
1459.41463	109103.6125
1462.82837	110875.8125
1466.23982	112956.2125
1469.64898	114698.2125
1473.05586	115672.3125
1476.46045	116257.8125
1479.86276	116479.5125
1483.26279	116685.0125
1486.66054	117664.5125
1490.05602	119927.0125
1493.44922	123311.8125
1496.84016	128273.5125
1500.22882	135761.8125
1503.61521	145036.9125
1506.99934	153468.1125
1510.38121	158078.5125
1513.76081	156132.7125
1517.13816	147786.5125
1520.51324	136826.1125
1523.88607	127559.1125
1527.25665	121872.3125
1530.62498	119077.0125
1533.99105	117707.2125
1537.35488	116458.1125
1540.71647	115444.5125
1544.07581	114291.7125
1547.4329	112904.0125
1550.78776	111418.2125
1554.14038	110148.0125
1557.49077	109568.1125
1560.83892	110158.9125
1564.18484	111745.6125
1567.52853	113744.8125
1570.86999	115100.5125
1574.20922	115628.4125
1577.54624	114699.4125
1580.88103	111391.2125
1584.2136	107842.1125
1587.54395	106661.8125
1590.87208	108909.5125
1594.19801	114611.9125
1597.52172	121655.1125
1600.84321	125330.0125
1604.16251	123891.0125
1607.47959	118850.6125
1610.79447	111796.8125
1614.10715	103570.6125
1617.41763	96688.1125
1620.7259	91698.3125
1624.03199	89194.6125
1627.33587	88848.0125
1630.63757	90637.4125
1633.93707	94849.2125
1637.23439	102327.3125
1640.52951	113431.6125
1643.82246	126904.2125
1647.11321	138074.9125
1650.40179	140733.0125
1653.68819	131720.4125
1656.97241	115763.4125
1660.25446	100578.8125
1663.53433	89947.2125
1666.81203	83466.9125
1670.08756	79606.1125
1673.36092	77156.5125
1676.63211	75485.8125
1679.90115	74266.8125
1683.16801	73252.9125
1686.43272	72507.2125
1689.69527	71959.4125
1692.95567	71506.4125
1696.2139	71189.7125
1699.46999	71031.2125
1702.72392	70864.5125
1705.97571	70850.3125
1709.22535	70714.7125
1712.47284	70813.2125
1715.71819	70882.3125
1718.96139	70720.1125
1722.20246	70420.5125
1725.44139	70059.0125
1728.67818	69671.5125
1731.91284	69280.2125
1735.14537	69011.1125
1738.37576	68688.3125
1741.60403	68448.0125
1744.83017	68285.5125
1748.05418	68012.7125
1751.27607	67874.4125
1754.49584	67709.8125
1757.71349	67617.5125
1760.92903	67476.8125
1764.14244	67330.5125
1767.35375	67170.5125
1770.56294	67021.5125
1773.77002	66882.6125
1776.97499	66831.2125
1780.17785	66708.6125
1783.37861	66452.6125
1786.57727	66384.7125
1789.77382	66292.5125
1792.96828	66109.5125
1796.16064	66008.2125
1799.3509	65986.8125
1802.53907	65788.5125
1805.72514	65573.0125
1808.90913	65444.7125
1812.09102	65374.5125
1815.27083	65145.5125
1818.44856	64972.3125
1821.6242	64939.4125
1824.79776	64772.0125
1827.96924	64607.3125
1831.13864	64377.0125
1834.30597	64350.7125
1837.47122	64273.6125
1840.6344	64156.4125
1843.7955	64248.7125
1846.95454	64169.6125
1850.11151	64031.6125
1853.26642	63909.4125
1856.41926	63767.5125
1859.57004	63745.7125
1862.71876	63780.6125
1865.86542	63670.2125
1869.01003	63652.6125
1872.15258	63709.0125
1875.29308	63524.6125
1878.43152	63411.5125
1881.56792	63385.6125
1884.70227	63295.2125
1887.83457	63215.2125
1890.96482	63149.6125
1894.09304	63116.7125
1897.21921	63006.0125
1900.34335	63046.1125
1903.46544	62850.7125
1906.58551	62749.2125
1909.70353	62646.2125
1912.81953	62494.0125
1915.93349	62343.0125
1919.04543	62207.6125
1922.15534	62160.8125
1925.26322	61970.2125
1928.36908	61886.4125
1931.47292	61747.4125
1934.57473	61537.6125
1937.67453	61330.5125
1940.77232	61249.8125
1943.86808	60948.6125
1946.96184	60807.3125
1950.05358	60660.2125
1953.14331	60435.9125
1956.23103	60311.4125
1959.31675	60076.1125
1962.40046	60033.2125
1965.48217	59853.7125
1968.56188	59628.7125
1971.63959	59427.4125
1974.7153	59321.3125
1977.78901	59184.7125
1980.86073	58944.7125
1983.93046	58773.1125
1986.99819	58500.7125
1990.06394	58324.6125
1993.1277	58099.4125
1996.18947	57994.4125
1999.24925	57825.2125
2002.30706	57652.5125
2005.36288	57594.8125
2008.41672	57450.0125
2011.46859	57262.2125
2014.51848	57044.7125
2017.56639	56982.8125
2020.61233	56954.9125
2023.6563	56745.2125
2026.6983	56515.5125
2029.73833	56307.0125
2032.7764	56142.0125
2035.8125	56067.1125
2038.84664	55888.3125
2041.87881	55816.1125
2044.90903	55662.7125
2047.93729	55514.7125
2050.96359	55503.6125
2053.98794	55409.1125
2057.01034	55387.7125
2060.03078	55310.8125
2063.04927	55141.9125
2066.06582	55129.2125
2069.08042	55004.9125
2072.09307	54945.7125
2075.10378	54918.3125
2078.11255	54841.2125
2081.11938	54798.8125
2084.12426	54722.3125
2087.12722	54644.5125
2090.12824	54644.6125
2093.12732	54699.7125
2096.12447	54718.4125
2099.11969	54692.4125
2102.11299	54834.5125
2105.10435	54862.4125
2108.09379	54863.7125
2111.08131	54860.0125
2114.0669	54817.6125
2117.05057	54935.6125
2120.03233	54919.8125
2123.01216	54922.6125
2125.99008	54906.3125
2128.96609	54961.7125
2131.94018	55043.1125
2134.91236	55115.2125
2137.88263	55063.5125
2140.851	55168.7125
2143.81746	55175.3125
2146.78201	55097.6125
2149.74466	55144.2125
2152.7054	55061.8125
2155.66425	55064.6125
2158.6212	55035.0125
2161.57625	54982.9125
2164.52941	54931.5125
2167.48067	54964.8125
2170.43004	54938.4125
2173.37752	54862.5125
2176.32311	54853.8125
2179.26681	54767.3125
2182.20863	54844.7125
2185.14856	54852.4125
2188.08661	54815.4125
2191.02278	54773.3125
2193.95707	54793.9125
2196.88948	54765.6125
2199.82001	54654.2125
2202.74867	54603.4125
2205.67545	54574.4125
2208.60037	54445.6125
2211.52341	54292.3125
2214.44458	54145.1125
2217.36388	54037.5125
2220.28132	54033.6125
2223.1969	53811.4125
2226.11061	53708.4125
2229.02246	53577.8125
2231.93245	53615.6125
2234.84058	53462.6125
2237.74686	53306.3125
2240.65128	53211.8125
2243.55385	53128.4125
2246.45456	53089.1125
2249.35343	52979.7125
2252.25044	52924.2125
2255.14561	52927.0125
2258.03893	52856.3125
2260.93041	52738.8125
2263.82004	52679.0125
2266.70783	52524.8125
2269.59378	52447.7125
2272.4779	52440.4125
2275.36017	52213.3125
2278.24061	52096.3125
2281.11922	52030.0125
2283.996	51942.1125
2286.87094	51836.7125
2289.74405	51759.8125
2292.61534	51700.3125
2295.4848	51637.2125
2298.35243	51608.0125
2301.21824	51543.6125
2304.08223	51448.3125
2306.94439	51476.6125
2309.80474	51456.7125
2312.66327	51474.4125
2315.51999	51391.7125
2318.37489	51424.2125
2321.22797	51291.7125
2324.07925	51189.0125
2326.92871	51092.4125
2329.77637	51058.8125
2332.62222	50956.9125
2335.46626	50938.7125
2338.3085	50827.5125
2341.14893	50889.6125
2343.98756	50860.1125
2346.8244	50756.1125
2349.65943	50911.0125
2352.49267	50894.3125
2355.32411	50800.3125
2358.15376	50767.9125
2360.98161	50769.8125
2363.80768	50827.3125
2366.63195	50708.3125
2369.45444	50598.9125
2372.27514	50641.4125
2375.09405	50527.3125
2377.91118	50502.8125
2380.72652	50316.1125
2383.54009	50128.9125
2386.35187	50074.5125
2389.16188	49988.4125
2391.97011	49892.0125
2394.77657	49845.0125
2397.58125	49739.2125
2400.38416	49604.8125
2403.18529	49438.6125
2405.98466	49456.2125
2408.78226	49391.8125
2411.57809	49360.8125
2414.37216	49293.9125
2417.16446	49271.0125
2419.955	49163.9125
2422.74378	49214.2125
2425.5308	49122.4125
2428.31606	49103.3125
2431.09956	49220.6125
2433.88131	49075.0125
2436.6613	49033.6125
2439.43954	49017.2125
2442.21603	49048.9125
2444.99077	48993.8125
2447.76377	48916.8125
2450.53501	48843.7125
2453.30451	48891.6125
2456.07226	48836.0125
2458.83827	48740.3125
2461.60254	48734.0125
2464.36507	48744.1125
2467.12586	48744.2125
2469.88492	48721.4125
2472.64224	48567.3125
2475.39782	48499.6125
2478.15167	48624.0125
2480.90379	48729.8125
2483.65417	48775.9125
2486.40283	48755.6125
2489.14976	48812.4125
2491.89497	48777.6125
2494.63845	48706.7125
2497.3802	48512.5125
2500.12024	48508.6125
2502.85855	48482.7125
2505.59514	48354.1125
2508.33002	48291.2125
2511.06318	48220.7125
2513.79462	48205.9125
2516.52435	48118.8125
2519.25237	48087.9125
2521.97867	48075.9125
2524.70327	48099.9125
2527.42616	47984.8125
2530.14734	48023.6125
2532.86681	47866.0125
2535.58458	47896.5125
2538.30065	47911.8125
2541.01501	47887.3125
2543.72768	47892.8125
2546.43864	47921.0125
2549.14791	47822.2125
2551.85548	47806.8125
2554.56136	47727.8125
2557.26554	47566.0125
2559.96803	47490.1125
2562.66883	47416.6125
2565.36794	47356.0125
2568.06536	47258.2125
2570.7611	47120.4125
2573.45514	47037.2125
2576.14751	47015.8125
2578.83819	46835.1125
2581.52719	46873.1125
2584.21451	46758.8125
2586.90015	46745.8125
2589.58411	46658.6125
2592.2664	46609.5125
2594.94701	46523.2125
2597.62594	46573.7125
2600.30321	46510.6125
2602.9788	46446.0125
2605.65273	46346.2125
2608.32498	46309.2125
2610.99557	46377.4125
2613.66449	46429.7125
2616.33175	46346.4125
2618.99734	46270.2125
2621.66128	46137.4125
2624.32355	46066.3125
2626.98416	46040.0125
2629.64311	46025.9125
2632.30041	45863.6125
2634.95605	45851.8125
2637.61004	45777.8125
2640.26238	45697.6125
2642.91306	45696.6125
2645.56209	45659.1125
2648.20948	45618.8125
2650.85521	45581.4125
2653.4993	45639.8125
2656.14175	45602.8125
2658.78255	45735.7125
2661.42171	45740.0125
2664.05923	45872.7125
2666.6951	45845.7125
2669.32934	45883.8125
2671.96194	45783.1125
2674.59291	45851.7125
2677.22224	45777.6125
2679.84993	45780.8125
2682.476	45695.3125
2685.10043	45740.8125
2687.72324	45607.2125
2690.34441	45625.3125
2692.96396	45577.8125
2695.58188	45573.9125
2698.19818	45496.5125
2700.81285	45556.8125
2703.4259	45576.5125
2706.03733	45642.6125
2708.64714	45577.0125
2711.25533	45556.4125
2713.86191	45525.6125
2716.46687	45645.8125
2719.07021	45615.5125
2721.67194	45658.6125
2724.27206	45596.7125
2726.87057	45649.8125
2729.46747	45560.1125
2732.06276	45621.1125
2734.65644	45556.7125
2737.24852	45583.8125
2739.83899	45490.2125
2742.42786	45445.4125
2745.01513	45341.4125
2747.60079	45293.7125
2750.18486	45336.6125
2752.76733	45316.9125
2755.3482	45314.5125
2757.92747	45330.2125
2760.50515	45250.5125
2763.08123	45145.3125
2765.65573	45054.1125
2768.22863	45059.8125
2770.79994	44963.9125
2773.36967	44981.8125
2775.9378	44883.4125
2778.50435	44793.7125
2781.06932	44826.5125
2783.6327	44829.1125
2786.1945	44742.2125
2788.75471	44662.0125
2791.31335	44494.7125
2793.87041	44409.0125
2796.42589	44292.7125
2798.97979	44295.2125
2801.53212	44218.8125
2804.08288	44175.0125
2806.63206	44074.4125
2809.17967	44008.1125
2811.72571	43841.5125
2814.27018	43787.7125
2816.81308	43680.9125
2819.35442	43581.8125
2821.89419	43391.7125
2824.43239	43395.1125
2826.96904	43294.2125
2829.50412	43332.0125
2832.03763	43293.7125
2834.56959	43280.1125
2837.1	43226.9125
2839.62884	43166.0125
2842.15613	43056.3125
2844.68186	42975.4125
2847.20604	42834.4125
2849.72867	42824.8125
2852.24974	42740.4125
2854.76927	42774.8125
2857.28724	42645.5125
2859.80367	42722.2125
2862.31855	42672.3125
2864.83189	42684.3125
2867.34368	42650.3125
2869.85393	42628.5125
2872.36264	42450.9125
2874.8698	42401.9125
2877.37543	42465.1125
2879.87952	42320.7125
2882.38207	42276.7125
2884.88308	42252.9125
2887.38256	42264.5125
2889.88051	42202.9125
2892.37692	42161.9125
2894.8718	42176.2125
2897.36515	42239.0125
2899.85698	42227.2125
2902.34727	42282.0125
2904.83604	42326.4125
2907.32328	42443.1125
2909.809	42490.3125
2912.29319	42574.3125
2914.77587	42486.2125
2917.25702	42529.5125
2919.73665	42405.2125
2922.21476	42436.0125
2924.69136	42375.8125
2927.16644	42279.9125
2929.64	42195.6125
2932.11205	42015.1125
2934.58258	41900.4125
2937.05161	41917.0125
2939.51912	41851.0125
2941.98513	41736.0125
2944.44962	41732.7125
2946.91261	41642.4125
2949.37409	41712.0125
2951.83407	41637.3125
2954.29254	41663.8125
2956.74951	41634.3125
2959.20498	41611.2125
2961.65895	41517.2125
2964.11142	41568.6125
2966.56239	41485.7125
2969.01186	41489.1125
2971.45984	41369.4125
2973.90632	41392.8125
2976.35131	41275.1125
2978.7948	41235.0125
2981.23681	41139.1125
2983.67732	41116.9125
2986.11635	40993.0125
2988.55388	40944.6125
2990.98993	40869.7125
2993.4245	40715.7125
2995.85758	40630.6125
2998.28917	40554.3125
3000.71928	40484.3125
3003.14791	40441.3125
3005.57506	40334.6125
3008.00073	40122.4125
3010.42493	40058.0125
