Data from AgNPs_UA_10uM_CRN_0uM_R6G_10uM_Q_RamanShift__5__11-54-32-628.txt Node

Date: Mon Jul 18 11:54:32 BST 2022
User: TCL
Spectrometer: QEP01345
Trigger mode: 4
Integration Time (sec): 7.000000E0
Scans to average: 10
Electric dark correction enabled: true
Nonlinearity correction enabled: false
Boxcar width: 0
XAxis mode: Raman Shifts
Number of Pixels in Spectrum: 1044
>>>>>Begin Spectral Data<<<<<
46.04893	-0.35
50.45542	-1.45
54.85868	-3.05
59.25871	-1.65
63.6555	111.25
68.04907	117.35
72.43941	124.05
76.82654	129.85
81.21044	131.85
85.59113	132.05
89.96862	142.55
94.34289	145.15
98.71396	155.25
103.08183	158.95
107.4465	161.85
111.80798	159.55
116.16626	170.25
120.52136	181.55
124.87327	189.05
129.222	202.55
133.56755	211.15
137.90993	226.85
142.24913	247.85
146.58517	284.85
150.91804	334.65
155.24774	396.25
159.57429	494.75
163.89768	646.15
168.21792	854.15
172.53501	1166.45
176.84895	1629.95
181.15975	2290.85
185.46741	3224.45
189.77193	4450.45
194.07331	5958.65
198.37157	7629.95
202.6667	9378.45
206.9587	11164.85
211.24758	12944.55
215.53334	14738.05
219.81599	16651.05
224.09553	18819.25
228.37195	21179.85
232.64527	23736.55
236.91549	26277.05
241.18261	28638.85
245.44663	30715.05
249.70755	32511.55
253.96539	34090.75
258.22014	35381.45
262.4718	36546.75
266.72039	37305.75
270.96589	37709.25
275.20832	37691.35
279.44768	37379.85
283.68397	36925.65
287.91719	36602.15
292.14735	36659.25
296.37445	36963.15
300.59849	37721.75
304.81948	38534.95
309.03742	39133.15
313.25231	39210.65
317.46415	38360.75
321.67296	36974.05
325.87872	35719.45
330.08145	35059.25
334.28114	35040.25
338.47781	35406.15
342.67145	36060.55
346.86207	36878.95
351.04966	38012.05
355.23424	39075.25
359.4158	39875.55
363.59435	40248.25
367.76989	40341.15
371.94243	40216.35
376.11196	40054.45
380.27849	40032.15
384.44203	40121.95
388.60257	40180.55
392.76012	40430.95
396.91468	40971.55
401.06626	41719.75
405.21485	42039.25
409.36047	41521.35
413.50311	40423.05
417.64277	39609.85
421.77947	39346.65
425.9132	39368.75
430.04396	39481.05
434.17176	39482.35
438.2966	39864.95
442.41849	40700.65
446.53742	41864.95
450.6534	43076.45
454.76644	43762.95
458.87653	43749.95
462.98368	43331.25
467.08789	42685.45
471.18916	41963.75
475.2875	41187.85
479.38291	40560.75
483.4754	40068.85
487.56496	39641.15
491.6516	39288.25
495.73531	39118.65
499.81612	39104.25
503.89401	39393.25
507.96899	39518.25
512.04106	39524.55
516.11023	39555.15
520.1765	39607.95
524.23987	39475.95
528.30034	39306.05
532.35792	39043.15
536.41261	38556.45
540.46441	38006.65
544.51333	37933.15
548.55936	38313.75
552.60252	39290.05
556.64279	40351.95
560.6802	41017.15
564.71473	41474.85
568.7464	42366.15
572.7752	43348.25
576.80114	43826.15
580.82422	44555.15
584.84444	45845.15
588.86181	47480.95
592.87633	48789.75
596.888	48856.95
600.89682	47897.25
604.9028	49585.95
608.90594	56064.45
612.90624	62470.05
616.90371	56837.25
620.89834	45095.85
624.89015	40429.65
628.87913	39891.55
632.86528	40387.25
636.84862	40500.05
640.82913	39567.55
644.80683	38313.25
648.78172	37526.95
652.75379	37679.35
656.72306	38642.55
660.68952	39559.55
664.65319	39036.25
668.61405	38099.95
672.57211	37937.55
676.52738	38053.05
680.47986	37880.95
684.42955	37427.65
688.37646	37257.05
692.32058	37566.75
696.26192	38162.55
700.20048	38809.65
704.13626	39080.75
708.06928	38992.45
711.99952	38764.55
715.927	38736.05
719.85171	38929.45
723.77365	38744.25
727.69284	38209.95
731.60928	37776.65
735.52295	37698.85
739.43388	37786.05
743.34206	37981.55
747.24749	38202.35
751.15017	38526.95
755.05012	39272.85
758.94733	40902.95
762.8418	44318.25
766.73354	49302.75
770.62254	53185.95
774.50882	53295.45
778.39237	50197.95
782.27321	46002.15
786.15132	42200.85
790.02671	39796.65
793.89938	38574.85
797.76935	38098.55
801.6366	37847.75
805.50115	37686.15
809.36299	37403.25
813.22213	37203.95
817.07857	37084.65
820.93231	37018.85
824.78336	36982.55
828.63172	37038.95
832.47738	36973.95
836.32036	36936.95
840.16066	37062.55
843.99827	37072.85
847.8332	37054.85
851.66546	37002.05
855.49504	37008.95
859.32195	37001.25
863.1462	36885.95
866.96777	36860.55
870.78668	36795.85
874.60293	36789.45
878.41652	36925.05
882.22745	37116.25
886.03573	37288.75
889.84136	37188.25
893.64433	37011.75
897.44466	36915.65
901.24235	36827.35
905.0374	36676.55
908.8298	36498.65
912.61957	36464.45
916.40671	36746.45
920.19121	37179.35
923.97308	37705.75
927.75233	38042.75
931.52895	38059.65
935.30295	37475.75
939.07433	36668.95
942.84309	36006.05
946.60924	35702.95
950.37278	35632.05
954.13371	35601.45
957.89203	35548.15
961.64774	35541.75
965.40086	35614.95
969.15137	35615.45
972.89929	35559.45
976.64461	35592.35
980.38733	35625.65
984.12747	35777.35
987.86502	35897.85
991.59999	36225.75
995.33237	36689.85
999.06217	37407.75
1002.78939	38312.35
1006.51404	38960.65
1010.23611	39604.75
1013.95561	39938.65
1017.67255	39931.45
1021.38692	39425.95
1025.09872	38805.65
1028.80796	38611.45
1032.51465	39021.75
1036.21877	39505.75
1039.92035	39724.05
1043.61937	39495.95
1047.31584	39126.35
1051.00976	38727.15
1054.70114	38556.75
1058.38998	38646.25
1062.07627	38857.05
1065.76003	39197.05
1069.44126	39739.85
1073.11995	40475.45
1076.79611	41207.25
1080.46974	41774.05
1084.14085	42330.55
1087.80943	43013.75
1091.47549	43277.85
1095.13903	42897.55
1098.80005	41972.55
1102.45857	41000.35
1106.11456	40355.15
1109.76805	40196.15
1113.41903	40438.75
1117.06751	40949.05
1120.71348	41767.45
1124.35696	42767.45
1127.99793	43561.05
1131.63641	43433.05
1135.2724	42478.85
1138.90589	41750.65
1142.5369	41471.85
1146.16542	41364.45
1149.79145	41517.55
1153.415	41643.15
1157.03607	42241.65
1160.65467	43184.15
1164.27079	44901.35
1167.88443	47194.05
1171.49561	50315.05
1175.10432	54616.45
1178.71056	59982.25
1182.31434	64536.75
1185.91565	65974.75
1189.51451	64814.95
1193.11091	62067.15
1196.70485	59024.15
1200.29634	56394.75
1203.88538	54269.75
1207.47197	52420.45
1211.05612	50899.95
1214.63782	49730.05
1218.21708	48869.35
1221.79391	48233.05
1225.36829	48027.95
1228.94024	47652.05
1232.50976	46925.95
1236.07685	46213.75
1239.6415	45836.35
1243.20374	45782.45
1246.76355	46083.15
1250.32093	46834.75
1253.8759	47799.05
1257.42845	49153.85
1260.97859	50726.05
1264.52631	52401.05
1268.07163	54057.35
1271.61453	55592.15
1275.15503	57035.55
1278.69312	58331.75
1282.22882	59545.45
1285.76211	61205.15
1289.29301	63380.55
1292.82151	65859.95
1296.34761	68753.05
1299.87133	72599.75
1303.39266	77609.05
1306.9116	83704.85
1310.42815	89651.35
1313.94233	92337.35
1317.45412	90414.65
1320.96354	86353.35
1324.47058	82477.05
1327.97525	79150.55
1331.47754	76797.05
1334.97747	75267.55
1338.47502	74450.35
1341.97022	74460.15
1345.46305	75049.35
1348.95352	76141.85
1352.44163	78309.65
1355.92738	82051.75
1359.41078	88204.85
1362.89183	93844.05
1366.37053	91874.05
1369.84688	81532.25
1373.32088	70555.35
1376.79254	63690.15
1380.26186	60711.25
1383.72883	59557.55
1387.19347	58746.65
1390.65578	57600.05
1394.11575	56972.75
1397.57339	56959.55
1401.0287	57157.95
1404.48168	57179.85
1407.93234	56789.25
1411.38068	56042.65
1414.82669	54976.95
1418.27039	53564.35
1421.71177	52190.75
1425.15083	50973.75
1428.58758	50646.65
1432.02203	51412.35
1435.45416	52682.95
1438.88399	53723.25
1442.31151	54134.95
1445.73673	54462.75
1449.15965	54528.25
1452.58027	54503.55
1455.9986	54396.05
1459.41463	54604.75
1462.82837	55235.95
1466.23982	56278.75
1469.64898	57282.55
1473.05586	57917.55
1476.46045	58137.15
1479.86276	58213.45
1483.26279	58287.85
1486.66054	58936.85
1490.05602	60146.25
1493.44922	62080.45
1496.84016	64714.15
1500.22882	68585.75
1503.61521	73979.15
1506.99934	80076.55
1510.38121	84604.75
1513.76081	85113.65
1517.13816	80597.65
1520.51324	73853.35
1523.88607	68154.65
1527.25665	64821.35
1530.62498	63128.15
1533.99105	61992.75
1537.35488	60733.85
1540.71647	59273.15
1544.07581	57857.45
1547.4329	56492.35
1550.78776	55458.75
1554.14038	54895.95
1557.49077	54770.25
1560.83892	55072.55
1564.18484	55921.95
1567.52853	57001.55
1570.86999	57954.85
1574.20922	58817.05
1577.54624	58926.65
1580.88103	57682.35
1584.2136	56425.75
1587.54395	56659.55
1590.87208	58775.45
1594.19801	62182.65
1597.52172	65464.25
1600.84321	66086.45
1604.16251	63413.85
1607.47959	59038.35
1610.79447	54567.75
1614.10715	50436.85
1617.41763	46979.15
1620.7259	44839.85
1624.03199	43914.25
1627.33587	44141.25
1630.63757	45484.05
1633.93707	48315.45
1637.23439	53111.95
1640.52951	60248.15
1643.82246	68751.35
1647.11321	76007.75
1650.40179	78133.95
1653.68819	72949.95
1656.97241	62915.35
1660.25446	53087.65
1663.53433	46100.05
1666.81203	41768.65
1670.08756	39132.95
1673.36092	37504.75
1676.63211	36476.65
1679.90115	35754.45
1683.16801	35154.55
1686.43272	34780.95
1689.69527	34464.45
1692.95567	34222.65
1696.2139	34053.85
1699.46999	33909.25
1702.72392	33805.55
1705.97571	33695.75
1709.22535	33693.35
1712.47284	33759.45
1715.71819	33678.85
1718.96139	33631.35
1722.20246	33461.85
1725.44139	33352.35
1728.67818	33123.55
1731.91284	32882.45
1735.14537	32737.75
1738.37576	32594.05
1741.60403	32559.95
1744.83017	32452.65
1748.05418	32329.35
1751.27607	32264.75
1754.49584	32191.15
1757.71349	32165.85
1760.92903	32149.05
1764.14244	32088.65
1767.35375	32074.55
1770.56294	31953.45
1773.77002	31877.25
1776.97499	31894.15
1780.17785	31830.25
1783.37861	31742.35
1786.57727	31685.15
1789.77382	31627.85
1792.96828	31617.35
1796.16064	31505.15
1799.3509	31478.75
1802.53907	31395.35
1805.72514	31298.25
1808.90913	31178.85
1812.09102	31183.15
1815.27083	31117.65
1818.44856	31068.95
1821.6242	31033.15
1824.79776	30983.85
1827.96924	30887.05
1831.13864	30891.95
1834.30597	30896.45
1837.47122	30822.25
1840.6344	30831.25
1843.7955	30859.05
1846.95454	30834.45
1850.11151	30836.75
1853.26642	30769.95
1856.41926	30802.15
1859.57004	30797.75
1862.71876	30681.95
1865.86542	30689.45
1869.01003	30692.15
1872.15258	30694.15
1875.29308	30630.85
1878.43152	30557.15
1881.56792	30500.55
1884.70227	30492.35
1887.83457	30466.65
1890.96482	30476.65
1894.09304	30430.75
1897.21921	30384.95
1900.34335	30373.65
1903.46544	30267.35
1906.58551	30253.75
1909.70353	30202.75
1912.81953	30170.55
1915.93349	30221.35
1919.04543	30085.55
1922.15534	30091.65
1925.26322	29973.55
1928.36908	29923.55
1931.47292	29870.45
1934.57473	29760.95
1937.67453	29677.75
1940.77232	29641.45
1943.86808	29551.05
1946.96184	29515.25
1950.05358	29410.15
1953.14331	29263.45
1956.23103	29192.75
1959.31675	29163.45
1962.40046	29088.85
1965.48217	29021.05
1968.56188	28952.95
1971.63959	28885.25
1974.7153	28839.95
1977.78901	28753.75
1980.86073	28602.05
1983.93046	28541.75
1986.99819	28430.55
1990.06394	28388.55
1993.1277	28274.35
1996.18947	28204.95
1999.24925	28137.05
2002.30706	28058.65
2005.36288	28004.45
2008.41672	27939.45
2011.46859	27865.15
2014.51848	27749.15
2017.56639	27768.95
2020.61233	27670.55
2023.6563	27595.35
2026.6983	27421.05
2029.73833	27360.15
2032.7764	27329.85
2035.8125	27299.05
2038.84664	27278.95
2041.87881	27249.05
2044.90903	27162.05
2047.93729	27085.75
2050.96359	27069.35
2053.98794	27050.55
2057.01034	27040.05
2060.03078	27024.65
2063.04927	27008.85
2066.06582	26938.45
2069.08042	26955.25
2072.09307	26880.15
2075.10378	26872.75
2078.11255	26859.85
2081.11938	26888.65
2084.12426	26895.95
2087.12722	26849.45
2090.12824	26877.95
2093.12732	26855.85
2096.12447	26890.55
2099.11969	26876.55
2102.11299	26975.15
2105.10435	26883.65
2108.09379	26894.15
2111.08131	26933.25
2114.0669	26942.35
2117.05057	26921.65
2120.03233	26978.65
2123.01216	27008.55
2125.99008	27038.05
2128.96609	27045.85
2131.94018	27129.35
2134.91236	27161.45
2137.88263	27188.05
2140.851	27132.15
2143.81746	27132.05
2146.78201	27151.15
2149.74466	27182.85
2152.7054	27164.45
2155.66425	27158.65
2158.6212	27150.35
2161.57625	27101.05
2164.52941	27122.55
2167.48067	27064.05
2170.43004	27116.25
2173.37752	27102.15
2176.32311	27074.15
2179.26681	27087.25
2182.20863	27107.65
2185.14856	27114.55
2188.08661	27102.95
2191.02278	27065.85
2193.95707	27089.85
2196.88948	27077.65
2199.82001	27057.75
2202.74867	26999.75
2205.67545	26947.05
2208.60037	26917.95
2211.52341	26858.55
2214.44458	26888.05
2217.36388	26806.65
2220.28132	26867.65
2223.1969	26732.35
2226.11061	26664.85
2229.02246	26621.65
2231.93245	26619.55
2234.84058	26545.25
2237.74686	26533.45
2240.65128	26458.15
2243.55385	26430.25
2246.45456	26402.75
2249.35343	26363.85
2252.25044	26366.65
2255.14561	26299.75
2258.03893	26265.95
2260.93041	26264.85
2263.82004	26258.45
2266.70783	26168.85
2269.59378	26113.55
2272.4779	26087.65
2275.36017	25995.45
2278.24061	25995.65
2281.11922	25904.45
2283.996	25881.95
2286.87094	25846.35
2289.74405	25776.55
2292.61534	25791.25
2295.4848	25733.05
2298.35243	25779.05
2301.21824	25791.25
2304.08223	25774.25
2306.94439	25760.85
2309.80474	25764.55
2312.66327	25741.75
2315.51999	25735.25
2318.37489	25689.25
2321.22797	25700.75
2324.07925	25633.55
2326.92871	25605.85
2329.77637	25592.75
2332.62222	25583.25
2335.46626	25620.35
2338.3085	25613.65
2341.14893	25545.95
2343.98756	25561.35
2346.8244	25569.55
2349.65943	25646.85
2352.49267	25590.65
2355.32411	25546.55
2358.15376	25559.15
2360.98161	25582.75
2363.80768	25595.95
2366.63195	25586.75
2369.45444	25558.85
2372.27514	25487.35
2375.09405	25467.15
2377.91118	25388.05
2380.72652	25308.55
2383.54009	25261.75
2386.35187	25210.25
2389.16188	25170.05
2391.97011	25150.15
2394.77657	25099.35
2397.58125	25055.15
2400.38416	25011.55
2403.18529	24972.55
2405.98466	25000.25
2408.78226	24961.85
2411.57809	24923.45
2414.37216	24912.95
2417.16446	24891.45
2419.955	24843.05
2422.74378	24854.95
2425.5308	24795.05
2428.31606	24747.95
2431.09956	24776.85
2433.88131	24719.55
2436.6613	24737.95
2439.43954	24776.05
2442.21603	24718.25
2444.99077	24748.35
2447.76377	24739.15
2450.53501	24656.05
2453.30451	24704.05
2456.07226	24676.25
2458.83827	24653.95
2461.60254	24662.85
2464.36507	24632.15
2467.12586	24596.75
2469.88492	24623.95
2472.64224	24626.75
2475.39782	24613.05
2478.15167	24642.45
2480.90379	24651.75
2483.65417	24729.75
2486.40283	24768.65
2489.14976	24789.25
2491.89497	24763.35
2494.63845	24798.45
2497.3802	24722.75
2500.12024	24735.25
2502.85855	24684.15
2505.59514	24611.75
2508.33002	24583.05
2511.06318	24506.65
2513.79462	24491.15
2516.52435	24474.85
2519.25237	24415.85
2521.97867	24422.45
2524.70327	24371.15
2527.42616	24369.35
2530.14734	24330.75
2532.86681	24318.95
2535.58458	24344.25
2538.30065	24332.95
2541.01501	24338.35
2543.72768	24318.35
2546.43864	24287.55
2549.14791	24234.95
2551.85548	24212.65
2554.56136	24206.65
2557.26554	24174.65
2559.96803	24167.45
2562.66883	24119.25
2565.36794	24059.65
2568.06536	24129.85
2570.7611	24136.65
2573.45514	24063.25
2576.14751	24069.85
2578.83819	24058.65
2581.52719	24010.05
2584.21451	23956.75
2586.90015	23955.65
2589.58411	23967.25
2592.2664	23959.45
2594.94701	23898.95
2597.62594	23916.05
2600.30321	23829.65
2602.9788	23821.85
2605.65273	23758.35
2608.32498	23778.15
2610.99557	23758.15
2613.66449	23822.75
2616.33175	23782.95
2618.99734	23760.75
2621.66128	23735.15
2624.32355	23743.65
2626.98416	23748.35
2629.64311	23690.95
2632.30041	23631.65
2634.95605	23622.15
2637.61004	23580.85
2640.26238	23576.45
2642.91306	23607.05
2645.56209	23620.85
2648.20948	23536.35
2650.85521	23510.55
2653.4993	23513.45
2656.14175	23494.75
2658.78255	23584.65
2661.42171	23593.25
2664.05923	23662.05
2666.6951	23625.45
2669.32934	23630.75
2671.96194	23634.55
2674.59291	23621.65
2677.22224	23599.45
2679.84993	23628.35
2682.476	23616.05
2685.10043	23602.25
2687.72324	23555.25
2690.34441	23535.25
2692.96396	23545.75
2695.58188	23546.05
2698.19818	23477.95
2700.81285	23517.75
2703.4259	23505.95
2706.03733	23600.45
2708.64714	23592.25
2711.25533	23598.35
2713.86191	23574.45
2716.46687	23630.55
2719.07021	23628.95
2721.67194	23613.85
2724.27206	23599.15
2726.87057	23663.45
2729.46747	23663.95
2732.06276	23683.55
2734.65644	23662.35
2737.24852	23654.45
2739.83899	23619.15
2742.42786	23587.55
2745.01513	23517.25
2747.60079	23540.55
2750.18486	23533.35
2752.76733	23563.05
2755.3482	23505.95
2757.92747	23486.25
2760.50515	23430.95
2763.08123	23457.25
2765.65573	23437.15
2768.22863	23379.85
2770.79994	23360.55
2773.36967	23389.05
2775.9378	23364.15
2778.50435	23327.25
2781.06932	23341.65
2783.6327	23323.75
2786.1945	23345.85
2788.75471	23323.55
2791.31335	23259.45
2793.87041	23181.45
2796.42589	23135.45
2798.97979	23153.05
2801.53212	23167.05
2804.08288	23130.05
2806.63206	23055.85
2809.17967	23047.55
2811.72571	22985.65
2814.27018	22926.45
2816.81308	22854.85
2819.35442	22916.65
2821.89419	22825.85
2824.43239	22851.25
2826.96904	22833.45
2829.50412	22788.75
2832.03763	22743.65
2834.56959	22729.45
2837.1	22698.75
2839.62884	22726.75
2842.15613	22672.65
2844.68186	22630.15
2847.20604	22625.25
2849.72867	22608.95
2852.24974	22597.25
2854.76927	22581.05
2857.28724	22548.85
2859.80367	22582.45
2862.31855	22567.35
2864.83189	22571.65
2867.34368	22535.35
2869.85393	22511.05
2872.36264	22502.25
2874.8698	22447.45
2877.37543	22456.95
2879.87952	22445.05
2882.38207	22439.55
2884.88308	22432.35
2887.38256	22450.25
2889.88051	22412.65
2892.37692	22444.95
2894.8718	22468.65
2897.36515	22477.05
2899.85698	22476.25
2902.34727	22498.35
2904.83604	22478.45
2907.32328	22585.25
2909.809	22551.75
2912.29319	22597.95
2914.77587	22595.75
2917.25702	22596.65
2919.73665	22561.05
2922.21476	22591.95
2924.69136	22538.75
2927.16644	22512.35
2929.64	22483.95
2932.11205	22471.85
2934.58258	22371.75
2937.05161	22391.75
2939.51912	22394.95
2941.98513	22345.25
2944.44962	22314.05
2946.91261	22271.75
2949.37409	22334.95
2951.83407	22318.55
2954.29254	22286.35
2956.74951	22302.05
2959.20498	22317.45
2961.65895	22311.25
2964.11142	22332.25
2966.56239	22313.35
2969.01186	22258.55
2971.45984	22213.65
2973.90632	22214.05
2976.35131	22185.55
2978.7948	22104.75
2981.23681	22085.65
2983.67732	22103.95
2986.11635	22087.65
2988.55388	21993.65
2990.98993	21959.15
2993.4245	21922.85
2995.85758	21882.75
2998.28917	21825.65
3000.71928	21754.25
3003.14791	21703.85
3005.57506	21691.85
3008.00073	21619.55
3010.42493	21621.35
3012.84764	21610.45
3015.26888	21555.05
3017.68865	21533.35
3020.10694	21513.65
3022.52376	21443.85
3024.9391	21443.25
3027.35298	21409.25
3029.76539	21423.75
3032.17632	21386.05
3034.5858	21384.35
3036.9938	21365.35
3039.40034	21338.95
3041.80542	21311.75
3044.20903	21256.65
3046.61118	21273.15
3049.01187	21195.55
3051.4111	21179.95
3053.80888	21123.25
3056.20519	21126.75
3058.60005	21056.65
3060.99345	21021.35
3063.3854	20990.45
3065.7759	20892.35
3068.16494	20868.45
3070.55254	20823.75
3072.93868	20739.85
3075.32338	20729.75
3077.70662	20648.65
3080.08842	20618.05
3082.46878	20593.45
3084.84769	20573.95
3087.22515	20563.55
3089.60118	20553.95
3091.97576	20571.25
3094.3489	20564.15
3096.72061	20545.65
3099.09087	20534.15
3101.4597	20570.55
3103.82709	20765.85
3106.19305	20563.95
3108.55757	20545.15
3110.92066	20434.35
3113.28232	20440.65
3115.64255	20407.05
3118.00134	20362.85
3120.35871	20303.75
3122.71466	20315.95
3125.06917	20267.75
3127.42226	20188.25
3129.77393	20211.65
3132.12417	20198.85
3134.47299	20210.75
3136.82039	20153.65
3139.16636	20141.85
3141.51092	20121.15
3143.85406	20115.65
3146.19579	20101.95
3148.53609	20162.25
3150.87499	20164.85
3153.21246	20129.15
3155.54853	20139.55
3157.88318	20102.55
3160.21642	20142.35
3162.54826	20186.55
3164.87868	20172.85
3167.2077	20189.15
3169.5353	20180.25
3171.86151	20094.05
3174.18631	20088.65
3176.5097	20081.65
3178.83169	20078.55
3181.15228	20092.05
3183.47147	20060.25
3185.78926	19997.85
3188.10565	19953.55
3190.42065	19936.65
3192.73424	19943.65
3195.04645	19916.35
3197.35725	19910.75
3199.66667	19864.25
3201.97469	19873.95
3204.28132	19833.25
3206.58656	19902.95
3208.8904	19859.95
3211.19287	19850.25
3213.49394	19872.85
3215.79363	19900.25
3218.09193	19940.65
3220.38884	19914.95
3222.68438	19913.45
3224.97853	19928.05
3227.2713	19919.55
3229.56269	19938.45
3231.8527	19946.85
3234.14133	19897.95
3236.42858	19874.65
3238.71446	19806.05
3240.99896	19805.85
