Data from AgNPs_UA_100uM_CRN_0uM_R6G_10uM_Q_RamanShift__25__13-41-35-341.txt Node

Date: Tue Jul 26 13:41:35 BST 2022
User: TCL
Spectrometer: QEP01345
Trigger mode: 4
Integration Time (sec): 7.000000E0
Scans to average: 10
Electric dark correction enabled: true
Nonlinearity correction enabled: false
Boxcar width: 0
XAxis mode: Raman Shifts
Number of Pixels in Spectrum: 1044
>>>>>Begin Spectral Data<<<<<
46.04893	0.075
50.45542	0.875
54.85868	-0.825
59.25871	0.875
63.6555	50.575
68.04907	56.375
72.43941	60.475
76.82654	66.975
81.21044	68.275
85.59113	68.375
89.96862	76.175
94.34289	76.575
98.71396	83.375
103.08183	82.675
107.4465	79.675
111.80798	82.475
116.16626	83.975
120.52136	83.075
124.87327	87.475
129.222	91.675
133.56755	92.375
137.90993	89.975
142.24913	92.475
146.58517	98.975
150.91804	106.575
155.24774	124.175
159.57429	140.575
163.89768	172.175
168.21792	217.375
172.53501	277.275
176.84895	373.275
181.15975	509.175
185.46741	706.775
189.77193	964.775
194.07331	1287.775
198.37157	1644.275
202.6667	2020.775
206.9587	2396.775
211.24758	2788.675
215.53334	3162.075
219.81599	3581.475
224.09553	4068.875
228.37195	4563.075
232.64527	5127.475
236.91549	5715.675
241.18261	6241.675
245.44663	6726.175
249.70755	7117.275
253.96539	7434.775
258.22014	7722.075
262.4718	7966.075
266.72039	8135.175
270.96589	8204.975
275.20832	8175.375
279.44768	8042.975
283.68397	7902.775
287.91719	7792.175
292.14735	7758.275
296.37445	7811.975
300.59849	7998.875
304.81948	8206.575
309.03742	8345.275
313.25231	8322.275
317.46415	8086.275
321.67296	7780.175
325.87872	7503.375
330.08145	7388.075
334.28114	7429.075
338.47781	7535.975
342.67145	7686.175
346.86207	7895.075
351.04966	8199.975
355.23424	8546.375
359.4158	8807.375
363.59435	9011.175
367.76989	9111.175
371.94243	9156.475
376.11196	9177.875
380.27849	9210.175
384.44203	9234.675
388.60257	9193.675
392.76012	9182.675
396.91468	9275.675
401.06626	9433.275
405.21485	9534.875
409.36047	9405.975
413.50311	9184.975
417.64277	8930.675
421.77947	8800.475
425.9132	8747.675
430.04396	8744.375
434.17176	8829.575
438.2966	8951.275
442.41849	9112.875
446.53742	9303.675
450.6534	9498.075
454.76644	9653.475
458.87653	9667.275
462.98368	9652.275
467.08789	9598.975
471.18916	9486.175
475.2875	9334.975
479.38291	9201.275
483.4754	9100.775
487.56496	9053.875
491.6516	9032.475
495.73531	9033.275
499.81612	9070.875
503.89401	9104.075
507.96899	9148.175
512.04106	9225.575
516.11023	9324.175
520.1765	9412.175
524.23987	9422.475
528.30034	9408.375
532.35792	9349.075
536.41261	9284.275
540.46441	9211.375
544.51333	9164.375
548.55936	9170.275
552.60252	9282.975
556.64279	9410.075
560.6802	9470.375
564.71473	9566.775
568.7464	9701.175
572.7752	9774.275
576.80114	9646.375
580.82422	9518.175
584.84444	9528.275
588.86181	9631.375
592.87633	9790.775
596.888	9962.575
600.89682	10245.375
604.9028	11083.775
608.90594	13007.875
612.90624	14996.875
616.90371	14095.575
620.89834	11335.175
624.89015	10194.675
628.87913	10104.675
632.86528	10164.275
636.84862	10216.075
640.82913	10057.175
644.80683	9753.175
648.78172	9559.075
652.75379	9523.275
656.72306	9724.175
660.68952	9948.575
664.65319	9856.075
668.61405	9618.775
672.57211	9562.475
676.52738	9576.575
680.47986	9557.675
684.42955	9509.175
688.37646	9518.175
692.32058	9544.375
696.26192	9600.975
700.20048	9667.375
704.13626	9705.975
708.06928	9625.875
711.99952	9591.975
715.927	9590.075
719.85171	9634.175
723.77365	9653.975
727.69284	9623.775
731.60928	9596.075
735.52295	9600.975
739.43388	9614.775
743.34206	9629.275
747.24749	9674.375
751.15017	9696.475
755.05012	9803.275
758.94733	10078.975
762.8418	10716.575
766.73354	11812.475
770.62254	12816.575
774.50882	13327.475
778.39237	12882.675
782.27321	11750.275
786.15132	10760.275
790.02671	10121.575
793.89938	9844.975
797.76935	9730.375
801.6366	9699.575
805.50115	9713.475
809.36299	9693.275
813.22213	9655.875
817.07857	9639.075
820.93231	9627.775
824.78336	9645.975
828.63172	9652.175
832.47738	9644.775
836.32036	9668.975
840.16066	9651.875
843.99827	9704.075
847.8332	9677.975
851.66546	9655.875
855.49504	9670.775
859.32195	9657.275
863.1462	9659.075
866.96777	9626.775
870.78668	9617.975
874.60293	9651.775
878.41652	9699.275
882.22745	9767.075
886.03573	9821.075
889.84136	9826.675
893.64433	9784.475
897.44466	9723.975
901.24235	9679.375
905.0374	9649.075
908.8298	9629.175
912.61957	9581.875
916.40671	9627.675
920.19121	9688.675
923.97308	9776.075
927.75233	9872.675
931.52895	9924.475
935.30295	9857.375
939.07433	9712.175
942.84309	9613.275
946.60924	9563.575
950.37278	9527.775
954.13371	9469.075
957.89203	9438.575
961.64774	9423.775
965.40086	9380.775
969.15137	9367.375
972.89929	9350.675
976.64461	9329.575
980.38733	9393.075
984.12747	9399.075
987.86502	9483.175
991.59999	9582.975
995.33237	9750.975
999.06217	9991.075
1002.78939	10261.975
1006.51404	10403.175
1010.23611	10503.975
1013.95561	10584.875
1017.67255	10616.375
1021.38692	10583.375
1025.09872	10581.175
1028.80796	10706.675
1032.51465	10961.675
1036.21877	11143.575
1039.92035	11088.475
1043.61937	10971.275
1047.31584	10713.775
1051.00976	10456.275
1054.70114	10320.775
1058.38998	10281.675
1062.07627	10301.575
1065.76003	10294.675
1069.44126	10339.175
1073.11995	10403.075
1076.79611	10498.575
1080.46974	10601.075
1084.14085	10735.875
1087.80943	10877.575
1091.47549	10937.975
1095.13903	10796.875
1098.80005	10629.375
1102.45857	10488.175
1106.11456	10486.875
1109.76805	10578.775
1113.41903	10763.975
1117.06751	10990.975
1120.71348	11260.175
1124.35696	11536.575
1127.99793	11745.875
1131.63641	11687.275
1135.2724	11419.675
1138.90589	11163.275
1142.5369	10964.075
1146.16542	10765.275
1149.79145	10635.075
1153.415	10570.875
1157.03607	10606.475
1160.65467	10700.575
1164.27079	10946.075
1167.88443	11318.775
1171.49561	11886.075
1175.10432	12739.775
1178.71056	13910.575
1182.31434	14980.375
1185.91565	15374.975
1189.51451	15126.375
1193.11091	14465.775
1196.70485	13722.775
1200.29634	13163.475
1203.88538	12728.675
1207.47197	12281.275
1211.05612	11851.775
1214.63782	11629.675
1218.21708	11559.075
1221.79391	11578.475
1225.36829	11634.975
1228.94024	11599.975
1232.50976	11497.275
1236.07685	11417.175
1239.6415	11392.575
1243.20374	11440.075
1246.76355	11498.275
1250.32093	11621.575
1253.8759	11846.475
1257.42845	12076.475
1260.97859	12343.275
1264.52631	12613.375
1268.07163	12873.975
1271.61453	13147.775
1275.15503	13417.775
1278.69312	13613.075
1282.22882	13816.075
1285.76211	13998.175
1289.29301	14235.075
1292.82151	14524.675
1296.34761	14905.575
1299.87133	15571.475
1303.39266	16656.575
1306.9116	18075.075
1310.42815	19456.375
1313.94233	20035.175
1317.45412	19413.875
1320.96354	18292.975
1324.47058	17136.675
1327.97525	16170.075
1331.47754	15597.275
1334.97747	15369.375
1338.47502	15473.975
1341.97022	15772.575
1345.46305	16312.475
1348.95352	16930.975
1352.44163	17774.275
1355.92738	18989.975
1359.41078	20941.075
1362.89183	22508.875
1366.37053	21613.175
1369.84688	18866.475
1373.32088	16395.675
1376.79254	14892.175
1380.26186	14082.475
1383.72883	13632.075
1387.19347	13270.775
1390.65578	12932.575
1394.11575	12661.475
1397.57339	12581.975
1401.0287	12625.875
1404.48168	12636.675
1407.93234	12715.975
1411.38068	12827.075
1414.82669	12900.975
1418.27039	12824.575
1421.71177	12678.775
1425.15083	12549.075
1428.58758	12464.975
1432.02203	12541.875
1435.45416	12658.875
1438.88399	12694.375
1442.31151	12661.075
1445.73673	12665.675
1449.15965	12705.075
1452.58027	12685.575
1455.9986	12605.475
1459.41463	12581.675
1462.82837	12684.475
1466.23982	12887.875
1469.64898	13114.975
1473.05586	13293.075
1476.46045	13432.775
1479.86276	13577.675
1483.26279	13729.775
1486.66054	13968.275
1490.05602	14212.775
1493.44922	14658.675
1496.84016	15283.975
1500.22882	16283.075
1503.61521	17708.075
1506.99934	19242.475
1510.38121	20222.375
1513.76081	20056.475
1517.13816	18759.475
1520.51324	16939.075
1523.88607	15478.575
1527.25665	14566.175
1530.62498	14074.475
1533.99105	13825.975
1537.35488	13623.475
1540.71647	13546.575
1544.07581	13490.475
1547.4329	13454.575
1550.78776	13427.875
1554.14038	13458.375
1557.49077	13469.775
1560.83892	13521.075
1564.18484	13669.275
1567.52853	13894.175
1570.86999	14137.975
1574.20922	14264.575
1577.54624	14137.075
1580.88103	13772.475
1584.2136	13308.375
1587.54395	13145.475
1590.87208	13453.575
1594.19801	14144.575
1597.52172	14947.675
1600.84321	15318.675
1604.16251	14977.275
1607.47959	14300.975
1610.79447	13489.975
1614.10715	12749.975
1617.41763	12121.075
1620.7259	11736.275
1624.03199	11533.275
1627.33587	11564.375
1630.63757	11768.575
1633.93707	12226.675
1637.23439	12860.075
1640.52951	13715.575
1643.82246	14854.175
1647.11321	15921.175
1650.40179	16444.975
1653.68819	15711.375
1656.97241	14143.675
1660.25446	12606.675
1663.53433	11542.175
1666.81203	10890.175
1670.08756	10500.775
1673.36092	10235.975
1676.63211	10053.875
1679.90115	9939.975
1683.16801	9837.375
1686.43272	9756.075
1689.69527	9667.775
1692.95567	9624.975
1696.2139	9600.275
1699.46999	9570.075
1702.72392	9534.275
1705.97571	9509.575
1709.22535	9484.375
1712.47284	9484.375
1715.71819	9442.575
1718.96139	9441.175
1722.20246	9407.075
1725.44139	9353.975
1728.67818	9347.275
1731.91284	9296.275
1735.14537	9265.875
1738.37576	9223.975
1741.60403	9215.675
1744.83017	9183.475
1748.05418	9151.975
1751.27607	9139.575
1754.49584	9112.375
1757.71349	9112.775
1760.92903	9099.975
1764.14244	9107.475
1767.35375	9121.075
1770.56294	9098.075
1773.77002	9093.475
1776.97499	9037.675
1780.17785	9052.275
1783.37861	9038.575
1786.57727	9039.175
1789.77382	9032.775
1792.96828	9022.975
1796.16064	9010.875
1799.3509	8999.275
1802.53907	8986.175
1805.72514	8971.975
1808.90913	8962.275
1812.09102	8934.775
1815.27083	8939.075
1818.44856	8902.875
1821.6242	8876.575
1824.79776	8872.075
1827.96924	8867.275
1831.13864	8869.675
1834.30597	8848.775
1837.47122	8841.775
1840.6344	8828.575
1843.7955	8836.475
1846.95454	8820.175
1850.11151	8808.775
1853.26642	8813.675
1856.41926	8830.875
1859.57004	8834.375
1862.71876	8831.675
1865.86542	8839.375
1869.01003	8825.375
1872.15258	8825.275
1875.29308	8822.175
1878.43152	8814.575
1881.56792	8814.875
1884.70227	8808.075
1887.83457	8784.475
1890.96482	8800.275
1894.09304	8785.275
1897.21921	8794.475
1900.34335	8771.275
1903.46544	8776.875
1906.58551	8766.775
1909.70353	8769.075
1912.81953	8765.775
1915.93349	8758.275
1919.04543	8745.675
1922.15534	8755.275
1925.26322	8727.975
1928.36908	8736.075
1931.47292	8699.375
1934.57473	8685.975
1937.67453	8674.975
1940.77232	8673.375
1943.86808	8636.375
1946.96184	8600.875
1950.05358	8587.175
1953.14331	8595.275
1956.23103	8559.275
1959.31675	8514.275
1962.40046	8499.075
1965.48217	8486.075
1968.56188	8484.575
1971.63959	8445.975
1974.7153	8439.675
1977.78901	8400.475
1980.86073	8382.475
1983.93046	8386.775
1986.99819	8344.275
1990.06394	8324.475
1993.1277	8319.575
1996.18947	8303.475
1999.24925	8260.575
2002.30706	8233.475
2005.36288	8192.875
2008.41672	8181.275
2011.46859	8168.175
2014.51848	8139.775
2017.56639	8138.375
2020.61233	8116.875
2023.6563	8110.675
2026.6983	8090.075
2029.73833	8066.975
2032.7764	8057.975
2035.8125	8051.175
2038.84664	8039.875
2041.87881	8039.475
2044.90903	8031.575
2047.93729	8022.475
2050.96359	8003.475
2053.98794	8017.275
2057.01034	8012.675
2060.03078	8005.075
2063.04927	7990.875
2066.06582	7986.275
2069.08042	7969.475
2072.09307	7991.175
2075.10378	7979.175
2078.11255	7975.175
2081.11938	7981.675
2084.12426	7983.775
2087.12722	7991.275
2090.12824	7961.675
2093.12732	7949.375
2096.12447	7961.375
2099.11969	7948.775
2102.11299	7985.975
2105.10435	7970.375
2108.09379	7979.775
2111.08131	7994.575
2114.0669	7991.575
2117.05057	8010.875
2120.03233	8022.375
2123.01216	8037.375
2125.99008	8025.975
2128.96609	8046.875
2131.94018	8067.875
2134.91236	8062.175
2137.88263	8079.575
2140.851	8084.875
2143.81746	8085.775
2146.78201	8087.975
2149.74466	8096.675
2152.7054	8085.575
2155.66425	8099.575
2158.6212	8100.775
2161.57625	8100.075
2164.52941	8082.875
2167.48067	8075.375
2170.43004	8056.075
2173.37752	8061.575
2176.32311	8097.775
2179.26681	8085.175
2182.20863	8079.575
2185.14856	8090.875
2188.08661	8098.775
2191.02278	8104.475
2193.95707	8101.775
2196.88948	8093.775
2199.82001	8110.375
2202.74867	8111.275
2205.67545	8097.075
2208.60037	8094.975
2211.52341	8106.575
2214.44458	8090.375
2217.36388	8079.075
2220.28132	8061.675
2223.1969	8042.975
2226.11061	8037.875
2229.02246	8007.475
2231.93245	8006.475
2234.84058	8016.475
2237.74686	8004.475
2240.65128	7968.475
2243.55385	7982.375
2246.45456	7951.375
2249.35343	7963.775
2252.25044	7953.875
2255.14561	7933.475
2258.03893	7934.975
2260.93041	7942.475
2263.82004	7904.875
2266.70783	7907.875
2269.59378	7897.075
2272.4779	7887.875
2275.36017	7884.475
2278.24061	7865.375
2281.11922	7839.775
2283.996	7837.375
2286.87094	7816.975
2289.74405	7817.175
2292.61534	7804.175
2295.4848	7815.375
2298.35243	7801.775
2301.21824	7810.375
2304.08223	7816.975
2306.94439	7832.375
2309.80474	7826.075
2312.66327	7834.675
2315.51999	7829.475
2318.37489	7815.275
2321.22797	7810.275
2324.07925	7815.375
2326.92871	7814.875
2329.77637	7810.475
2332.62222	7788.375
2335.46626	7798.575
2338.3085	7793.475
2341.14893	7805.975
2343.98756	7792.275
2346.8244	7798.775
2349.65943	7791.475
2352.49267	7787.675
2355.32411	7789.075
2358.15376	7796.375
2360.98161	7785.575
2363.80768	7771.075
2366.63195	7771.375
2369.45444	7777.075
2372.27514	7754.975
2375.09405	7758.075
2377.91118	7737.475
2380.72652	7718.775
2383.54009	7697.575
2386.35187	7680.775
2389.16188	7673.275
2391.97011	7658.475
2394.77657	7663.375
2397.58125	7646.875
2400.38416	7627.675
2403.18529	7620.475
2405.98466	7597.475
2408.78226	7601.875
2411.57809	7580.375
2414.37216	7566.575
2417.16446	7571.175
2419.955	7539.375
2422.74378	7561.375
2425.5308	7555.475
2428.31606	7555.275
2431.09956	7546.575
2433.88131	7535.375
2436.6613	7545.275
2439.43954	7538.375
2442.21603	7532.575
2444.99077	7534.075
2447.76377	7556.175
2450.53501	7536.075
2453.30451	7512.275
2456.07226	7497.575
2458.83827	7513.275
2461.60254	7509.275
2464.36507	7507.275
2467.12586	7503.075
2469.88492	7508.275
2472.64224	7505.675
2475.39782	7514.575
2478.15167	7504.075
2480.90379	7529.675
2483.65417	7519.175
2486.40283	7532.675
2489.14976	7534.775
2491.89497	7520.975
2494.63845	7534.475
2497.3802	7535.375
2500.12024	7563.975
2502.85855	7518.275
2505.59514	7502.075
2508.33002	7488.175
2511.06318	7479.275
2513.79462	7479.175
2516.52435	7469.275
2519.25237	7488.275
2521.97867	7442.375
2524.70327	7438.075
2527.42616	7429.375
2530.14734	7443.475
2532.86681	7428.275
2535.58458	7419.175
2538.30065	7427.175
2541.01501	7415.975
2543.72768	7407.575
2546.43864	7417.975
2549.14791	7402.775
2551.85548	7416.975
2554.56136	7379.975
2557.26554	7387.875
2559.96803	7383.575
2562.66883	7356.675
2565.36794	7360.775
2568.06536	7349.975
2570.7611	7343.775
2573.45514	7315.375
2576.14751	7343.575
2578.83819	7347.775
2581.52719	7354.375
2584.21451	7333.575
2586.90015	7343.275
2589.58411	7311.475
2592.2664	7326.575
2594.94701	7303.575
2597.62594	7333.175
2600.30321	7279.975
2602.9788	7283.975
2605.65273	7295.075
2608.32498	7298.475
2610.99557	7280.475
2613.66449	7296.975
2616.33175	7289.275
2618.99734	7285.075
2621.66128	7290.175
2624.32355	7287.775
2626.98416	7279.275
2629.64311	7292.975
2632.30041	7280.775
2634.95605	7285.375
2637.61004	7272.175
2640.26238	7258.875
2642.91306	7241.875
2645.56209	7212.075
2648.20948	7233.475
2650.85521	7231.275
2653.4993	7211.775
2656.14175	7225.375
2658.78255	7219.075
2661.42171	7234.975
2664.05923	7242.875
2666.6951	7245.475
2669.32934	7258.875
2671.96194	7250.975
2674.59291	7253.975
2677.22224	7253.875
2679.84993	7245.475
2682.476	7251.375
2685.10043	7237.475
2687.72324	7241.375
2690.34441	7241.175
2692.96396	7210.675
2695.58188	7207.875
2698.19818	7207.775
2700.81285	7228.575
2703.4259	7216.375
2706.03733	7228.675
2708.64714	7228.575
2711.25533	7223.975
2713.86191	7208.575
2716.46687	7239.575
2719.07021	7232.875
2721.67194	7250.475
2724.27206	7234.875
2726.87057	7252.575
2729.46747	7259.675
2732.06276	7261.175
2734.65644	7243.075
2737.24852	7251.575
2739.83899	7239.775
2742.42786	7240.575
2745.01513	7215.675
2747.60079	7235.375
2750.18486	7210.175
2752.76733	7213.175
2755.3482	7214.875
2757.92747	7211.575
2760.50515	7195.575
2763.08123	7181.675
2765.65573	7184.875
2768.22863	7174.175
2770.79994	7190.975
2773.36967	7181.575
2775.9378	7162.075
2778.50435	7175.975
2781.06932	7149.675
2783.6327	7163.575
2786.1945	7161.075
2788.75471	7153.775
2791.31335	7151.575
2793.87041	7130.375
2796.42589	7128.275
2798.97979	7128.575
2801.53212	7102.475
2804.08288	7108.875
2806.63206	7088.575
2809.17967	7077.975
2811.72571	7051.175
2814.27018	7043.475
2816.81308	7055.175
2819.35442	7022.375
2821.89419	7018.875
2824.43239	7052.475
2826.96904	7036.975
2829.50412	7000.075
2832.03763	6988.675
2834.56959	6999.475
2837.1	6997.375
2839.62884	7001.475
2842.15613	6991.075
2844.68186	6985.375
2847.20604	6989.175
2849.72867	6980.175
2852.24974	6955.975
2854.76927	6959.475
2857.28724	6969.175
2859.80367	6971.575
2862.31855	6961.475
2864.83189	6951.575
2867.34368	6932.675
2869.85393	6931.175
2872.36264	6933.075
2874.8698	6938.175
2877.37543	6952.675
2879.87952	6944.075
2882.38207	6944.075
2884.88308	6945.275
2887.38256	6950.775
2889.88051	6954.075
2892.37692	6967.075
2894.8718	6958.775
2897.36515	6969.375
2899.85698	6973.875
2902.34727	6991.475
2904.83604	6990.175
2907.32328	7024.075
2909.809	7001.975
2912.29319	7017.175
2914.77587	6991.175
2917.25702	7001.075
2919.73665	6976.075
2922.21476	6999.675
2924.69136	6983.275
2927.16644	7000.275
2929.64	6987.375
2932.11205	6978.275
2934.58258	6956.275
2937.05161	6965.275
2939.51912	6956.975
2941.98513	6964.475
2944.44962	6971.875
2946.91261	6961.175
2949.37409	6970.975
2951.83407	6957.575
2954.29254	6944.875
2956.74951	6970.975
2959.20498	6955.375
2961.65895	6942.075
2964.11142	6960.975
2966.56239	6939.375
2969.01186	6959.375
2971.45984	6941.675
2973.90632	6942.075
2976.35131	6933.775
2978.7948	6917.275
2981.23681	6913.375
2983.67732	6924.075
2986.11635	6901.775
2988.55388	6888.175
2990.98993	6874.675
2993.4245	6860.975
2995.85758	6863.875
2998.28917	6840.275
3000.71928	6833.275
3003.14791	6814.975
3005.57506	6816.175
3008.00073	6789.675
3010.42493	6807.675
3012.84764	6779.775
3015.26888	6797.175
3017.68865	6778.375
3020.10694	6765.775
3022.52376	6759.375
3024.9391	6753.675
3027.35298	6746.875
3029.76539	6758.675
3032.17632	6749.975
3034.5858	6754.275
3036.9938	6729.175
3039.40034	6734.175
3041.80542	6741.075
3044.20903	6725.875
3046.61118	6736.775
3049.01187	6714.975
3051.4111	6704.575
3053.80888	6694.675
3056.20519	6670.475
3058.60005	6668.975
3060.99345	6654.375
3063.3854	6642.475
3065.7759	6653.075
3068.16494	6628.675
3070.55254	6623.175
3072.93868	6604.575
3075.32338	6604.475
3077.70662	6597.775
3080.08842	6564.875
3082.46878	6595.275
3084.84769	6565.775
3087.22515	6568.775
3089.60118	6586.375
3091.97576	6597.575
3094.3489	6576.275
3096.72061	6594.975
3099.09087	6608.775
3101.4597	6597.675
3103.82709	6615.875
3106.19305	6631.375
3108.55757	6625.675
3110.92066	6629.675
3113.28232	6630.775
3115.64255	6604.875
3118.00134	6591.875
3120.35871	6590.675
3122.71466	6611.575
3125.06917	6586.475
3127.42226	6577.475
3129.77393	6582.675
3132.12417	6571.575
3134.47299	6562.375
3136.82039	6562.875
3139.16636	6594.975
3141.51092	6585.375
3143.85406	6564.375
3146.19579	6567.375
3148.53609	6579.475
3150.87499	6610.975
3153.21246	6610.575
3155.54853	6629.775
3157.88318	6620.375
3160.21642	6664.975
3162.54826	6653.375
3164.87868	6668.675
3167.2077	6668.575
3169.5353	6670.475
3171.86151	6680.875
3174.18631	6686.275
3176.5097	6669.775
3178.83169	6668.175
3181.15228	6677.775
3183.47147	6657.975
3185.78926	6659.175
3188.10565	6644.175
3190.42065	6653.975
3192.73424	6631.875
3195.04645	6642.575
3197.35725	6654.675
3199.66667	6653.175
3201.97469	6678.375
3204.28132	6674.575
3206.58656	6654.875
3208.8904	6666.575
3211.19287	6692.075
3213.49394	6696.375
