Data from AgNPs_UA_20uM_CRN_0uM_R6G_10uM_Q_RamanShift__33__13-14-52-044.txt Node

Date: Mon Jul 18 13:14:52 BST 2022
User: TCL
Spectrometer: QEP01345
Trigger mode: 4
Integration Time (sec): 7.000000E0
Scans to average: 10
Electric dark correction enabled: true
Nonlinearity correction enabled: false
Boxcar width: 0
XAxis mode: Raman Shifts
Number of Pixels in Spectrum: 1044
>>>>>Begin Spectral Data<<<<<
46.04893	-0.275
50.45542	-0.875
54.85868	0.125
59.25871	0.025
63.6555	69.625
68.04907	77.225
72.43941	78.825
76.82654	84.925
81.21044	87.125
85.59113	90.325
89.96862	95.725
94.34289	96.725
98.71396	103.025
103.08183	106.025
107.4465	104.325
111.80798	109.725
116.16626	112.125
120.52136	114.425
124.87327	120.425
129.222	122.225
133.56755	127.125
137.90993	140.825
142.24913	147.525
146.58517	163.025
150.91804	189.625
155.24774	223.025
159.57429	271.725
163.89768	347.425
168.21792	459.625
172.53501	614.225
176.84895	845.525
181.15975	1184.525
185.46741	1644.725
189.77193	2260.325
194.07331	3010.325
198.37157	3854.625
202.6667	4752.425
206.9587	5630.825
211.24758	6518.025
215.53334	7485.925
219.81599	8546.525
224.09553	9787.625
228.37195	11127.625
232.64527	12617.125
236.91549	14043.525
241.18261	15387.825
245.44663	16433.025
249.70755	17283.825
253.96539	17939.725
258.22014	18473.925
262.4718	18925.425
266.72039	19283.325
270.96589	19438.825
275.20832	19349.525
279.44768	19093.825
283.68397	18814.925
287.91719	18661.025
292.14735	18875.825
296.37445	19408.225
300.59849	20273.325
304.81948	21220.625
309.03742	21790.925
313.25231	21619.825
317.46415	20394.025
321.67296	18652.825
325.87872	17379.825
330.08145	16848.925
334.28114	16874.625
338.47781	17219.825
342.67145	17736.525
346.86207	18622.725
351.04966	19850.225
355.23424	21173.825
359.4158	22200.625
363.59435	22672.225
367.76989	22808.925
371.94243	22725.225
376.11196	22605.525
380.27849	22457.025
384.44203	22150.725
388.60257	21815.225
392.76012	21625.825
396.91468	21818.925
401.06626	22361.825
405.21485	22641.125
409.36047	21940.525
413.50311	20616.425
417.64277	19505.725
421.77947	18889.925
425.9132	18608.625
430.04396	18610.025
434.17176	18734.125
438.2966	19075.225
442.41849	19638.925
446.53742	20353.925
450.6534	21065.325
454.76644	21324.425
458.87653	21272.025
462.98368	20925.425
467.08789	20503.725
471.18916	19913.325
475.2875	19327.025
479.38291	18861.925
483.4754	18485.825
487.56496	18192.225
491.6516	18090.525
495.73531	18036.525
499.81612	18091.725
503.89401	18384.425
507.96899	18689.625
512.04106	19036.825
516.11023	19440.725
520.1765	19663.525
524.23987	19553.525
528.30034	19226.225
532.35792	18817.825
536.41261	18394.325
540.46441	17924.925
544.51333	17735.125
548.55936	17946.525
552.60252	18397.725
556.64279	18923.725
560.6802	19180.125
564.71473	19615.025
568.7464	20546.625
572.7752	20941.025
576.80114	20226.825
580.82422	19507.325
584.84444	19259.925
588.86181	19295.425
592.87633	19486.125
596.888	19851.325
600.89682	20911.325
604.9028	24420.825
608.90594	32984.625
612.90624	41684.125
616.90371	36765.325
620.89834	24484.025
624.89015	19662.525
628.87913	18959.925
632.86528	19286.825
636.84862	19591.925
640.82913	19052.225
644.80683	17999.525
648.78172	17366.425
652.75379	17565.725
656.72306	18610.225
660.68952	19525.725
664.65319	18963.725
668.61405	17866.525
672.57211	17442.825
676.52738	17405.525
680.47986	17299.025
684.42955	17133.325
688.37646	17110.325
692.32058	17189.425
696.26192	17401.225
700.20048	17683.825
704.13626	17863.425
708.06928	17787.325
711.99952	17614.425
715.927	17595.025
719.85171	17655.425
723.77365	17676.225
727.69284	17507.725
731.60928	17398.425
735.52295	17401.525
739.43388	17510.925
743.34206	17591.925
747.24749	17672.025
751.15017	17848.525
755.05012	18364.025
758.94733	19657.525
762.8418	22594.425
766.73354	27119.625
770.62254	31374.525
774.50882	33211.025
778.39237	31032.425
782.27321	26082.225
786.15132	21759.225
790.02671	19285.225
793.89938	18240.325
797.76935	17811.425
801.6366	17626.625
805.50115	17513.025
809.36299	17420.025
813.22213	17336.825
817.07857	17284.525
820.93231	17317.525
824.78336	17365.825
828.63172	17461.225
832.47738	17461.325
836.32036	17388.625
840.16066	17285.925
843.99827	17193.625
847.8332	17114.025
851.66546	17127.725
855.49504	17143.725
859.32195	17059.925
863.1462	17016.825
866.96777	16984.625
870.78668	16975.225
874.60293	17049.725
878.41652	17116.125
882.22745	17307.025
886.03573	17403.125
889.84136	17337.325
893.64433	17224.925
897.44466	17177.125
901.24235	17173.525
905.0374	17075.225
908.8298	16957.525
912.61957	16902.725
916.40671	17002.925
920.19121	17171.925
923.97308	17382.425
927.75233	17625.025
931.52895	17808.425
935.30295	17533.925
939.07433	16922.525
942.84309	16464.125
946.60924	16178.725
950.37278	16054.625
954.13371	15978.425
957.89203	16148.725
961.64774	15992.525
965.40086	15852.825
969.15137	15815.825
972.89929	15747.425
976.64461	15791.325
980.38733	15823.725
984.12747	15863.225
987.86502	15990.125
991.59999	16107.425
995.33237	16362.025
999.06217	16800.125
1002.78939	17331.625
1006.51404	17713.325
1010.23611	18094.125
1013.95561	18341.825
1017.67255	18260.525
1021.38692	17935.125
1025.09872	17674.125
1028.80796	17608.325
1032.51465	17793.325
1036.21877	18074.125
1039.92035	18213.825
1043.61937	18154.025
1047.31584	18040.925
1051.00976	17855.125
1054.70114	17679.325
1058.38998	17668.325
1062.07627	17740.525
1065.76003	17849.025
1069.44126	18003.025
1073.11995	18244.725
1076.79611	18590.725
1080.46974	18978.325
1084.14085	19544.425
1087.80943	20132.625
1091.47549	20237.925
1095.13903	19794.525
1098.80005	18980.825
1102.45857	18372.225
1106.11456	18230.925
1109.76805	18489.425
1113.41903	19057.425
1117.06751	19930.625
1120.71348	21041.825
1124.35696	22136.225
1127.99793	22844.225
1131.63641	22360.925
1135.2724	21073.825
1138.90589	19994.125
1142.5369	19378.825
1146.16542	18879.125
1149.79145	18702.025
1153.415	18706.325
1157.03607	18957.225
1160.65467	19403.725
1164.27079	20256.825
1167.88443	21561.925
1171.49561	23746.925
1175.10432	27255.625
1178.71056	31611.525
1182.31434	34721.225
1185.91565	35261.125
1189.51451	33707.725
1193.11091	31060.325
1196.70485	28293.225
1200.29634	26423.025
1203.88538	24923.525
1207.47197	23237.125
1211.05612	21886.225
1214.63782	21221.725
1218.21708	21041.725
1221.79391	21019.725
1225.36829	20998.625
1228.94024	20929.225
1232.50976	20870.025
1236.07685	20941.325
1239.6415	21114.625
1243.20374	21250.425
1246.76355	21433.825
1250.32093	21741.425
1253.8759	22285.325
1257.42845	23050.525
1260.97859	23882.725
1264.52631	24666.025
1268.07163	25441.625
1271.61453	26114.425
1275.15503	26570.325
1278.69312	26837.225
1282.22882	27081.725
1285.76211	27809.625
1289.29301	28846.025
1292.82151	29888.525
1296.34761	31118.225
1299.87133	33063.825
1303.39266	36384.025
1306.9116	41029.825
1310.42815	45578.025
1313.94233	47311.425
1317.45412	45313.425
1320.96354	41642.225
1324.47058	38043.825
1327.97525	35077.425
1331.47754	33403.225
1334.97747	32973.025
1338.47502	33391.725
1341.97022	34460.725
1345.46305	36106.225
1348.95352	38456.925
1352.44163	41795.425
1355.92738	46774.625
1359.41078	53943.125
1362.89183	59445.425
1366.37053	56244.825
1369.84688	46855.825
1373.32088	38285.625
1376.79254	32882.325
1380.26186	30103.125
1383.72883	28581.425
1387.19347	27410.825
1390.65578	26229.225
1394.11575	25367.725
1397.57339	25008.725
1401.0287	25091.825
1404.48168	25370.825
1407.93234	25886.325
1411.38068	26215.525
1414.82669	26215.225
1418.27039	25797.925
1421.71177	25048.725
1425.15083	24426.325
1428.58758	24131.225
1432.02203	24305.025
1435.45416	24587.225
1438.88399	24779.625
1442.31151	24818.825
1445.73673	25099.925
1449.15965	25270.425
1452.58027	25168.825
1455.9986	24883.625
1459.41463	24786.725
1462.82837	25157.225
1466.23982	25774.825
1469.64898	26440.225
1473.05586	26984.225
1476.46045	27397.625
1479.86276	27916.225
1483.26279	28653.225
1486.66054	29600.525
1490.05602	30779.525
1493.44922	32453.925
1496.84016	35096.925
1500.22882	39278.625
1503.61521	44829.125
1506.99934	50829.925
1510.38121	55123.025
1513.76081	55333.425
1517.13816	50687.025
1520.51324	43638.525
1523.88607	37426.125
1527.25665	33472.525
1530.62498	31411.625
1533.99105	30134.125
1537.35488	29337.525
1540.71647	28892.225
1544.07581	28693.825
1547.4329	28502.025
1550.78776	28246.125
1554.14038	28059.925
1557.49077	28157.825
1560.83892	28507.625
1564.18484	29350.325
1567.52853	30350.625
1570.86999	31314.725
1574.20922	31907.525
1577.54624	31475.025
1580.88103	29592.225
1584.2136	27486.825
1587.54395	26511.925
1590.87208	27085.125
1594.19801	28931.425
1597.52172	31275.925
1600.84321	32066.925
1604.16251	30975.325
1607.47959	28767.725
1610.79447	26261.625
1614.10715	23969.625
1617.41763	22319.825
1620.7259	21289.825
1624.03199	20857.425
1627.33587	20952.625
1630.63757	21523.025
1633.93707	22646.125
1637.23439	24532.525
1640.52951	27418.125
1643.82246	31289.025
1647.11321	35725.925
1650.40179	38284.825
1653.68819	36465.525
1656.97241	31266.725
1660.25446	25760.425
1663.53433	22027.225
1666.81203	19768.325
1670.08756	18430.425
1673.36092	17622.925
1676.63211	17100.425
1679.90115	16716.425
1683.16801	16416.725
1686.43272	16214.025
1689.69527	16107.425
1692.95567	15947.025
1696.2139	15891.225
1699.46999	15833.725
1702.72392	15812.225
1705.97571	15792.025
1709.22535	15788.725
1712.47284	15809.725
1715.71819	15793.625
1718.96139	15775.325
1722.20246	15717.425
1725.44139	15626.225
1728.67818	15478.425
1731.91284	15381.625
1735.14537	15277.925
1738.37576	15220.825
1741.60403	15139.225
1744.83017	15049.925
1748.05418	15055.725
1751.27607	15002.325
1754.49584	14950.425
1757.71349	14952.525
1760.92903	14945.925
1764.14244	14916.625
1767.35375	14905.125
1770.56294	14846.725
1773.77002	14833.625
1776.97499	14819.025
1780.17785	14735.825
1783.37861	14697.525
1786.57727	14652.725
1789.77382	14638.925
1792.96828	14619.725
1796.16064	14587.625
1799.3509	14593.125
1802.53907	14554.525
1805.72514	14516.325
1808.90913	14448.325
1812.09102	14424.625
1815.27083	14402.425
1818.44856	14379.225
1821.6242	14347.925
1824.79776	14321.425
1827.96924	14314.125
1831.13864	14273.325
1834.30597	14304.225
1837.47122	14223.425
1840.6344	14209.525
1843.7955	14230.225
1846.95454	14200.625
1850.11151	14250.225
1853.26642	14235.025
1856.41926	14210.225
1859.57004	14206.625
1862.71876	14202.625
1865.86542	14215.525
1869.01003	14256.925
1872.15258	14214.725
1875.29308	14227.125
1878.43152	14200.925
1881.56792	14186.625
1884.70227	14167.925
1887.83457	14169.025
1890.96482	14198.025
1894.09304	14127.825
1897.21921	14154.025
1900.34335	14166.125
1903.46544	14144.325
1906.58551	14129.825
1909.70353	14151.025
1912.81953	14136.525
1915.93349	14103.725
1919.04543	14084.425
1922.15534	14052.825
1925.26322	14035.725
1928.36908	14009.725
1931.47292	13969.125
1934.57473	13898.725
1937.67453	13866.725
1940.77232	13808.225
1943.86808	13789.725
1946.96184	13730.925
1950.05358	13679.625
1953.14331	13668.625
1956.23103	13601.125
1959.31675	13544.325
1962.40046	13497.625
1965.48217	13495.325
1968.56188	13463.925
1971.63959	13433.725
1974.7153	13417.025
1977.78901	13349.725
1980.86073	13308.325
1983.93046	13256.525
1986.99819	13204.725
1990.06394	13167.225
1993.1277	13107.025
1996.18947	13063.625
1999.24925	13050.125
2002.30706	12997.725
2005.36288	12974.125
2008.41672	12974.325
2011.46859	12913.225
2014.51848	12891.525
2017.56639	12865.325
2020.61233	12845.925
2023.6563	12796.425
2026.6983	12726.125
2029.73833	12716.525
2032.7764	12676.325
2035.8125	12636.925
2038.84664	12613.725
2041.87881	12645.125
2044.90903	12595.325
2047.93729	12563.525
2050.96359	12533.725
2053.98794	12498.425
2057.01034	12531.025
2060.03078	12514.725
2063.04927	12495.325
2066.06582	12480.125
2069.08042	12481.625
2072.09307	12505.325
2075.10378	12461.525
2078.11255	12474.025
2081.11938	12427.625
2084.12426	12440.125
2087.12722	12450.925
2090.12824	12427.225
2093.12732	12404.325
2096.12447	12412.825
2099.11969	12423.425
2102.11299	12433.225
2105.10435	12395.525
2108.09379	12401.025
2111.08131	12422.125
2114.0669	12435.625
2117.05057	12422.225
2120.03233	12448.225
2123.01216	12444.325
2125.99008	12436.925
2128.96609	12473.625
2131.94018	12520.425
2134.91236	12528.125
2137.88263	12518.925
2140.851	12528.225
2143.81746	12527.625
2146.78201	12527.125
2149.74466	12505.625
2152.7054	12485.225
2155.66425	12493.525
2158.6212	12458.725
2161.57625	12435.125
2164.52941	12433.025
2167.48067	12466.525
2170.43004	12441.925
2173.37752	12460.825
2176.32311	12417.425
2179.26681	12452.825
2182.20863	12435.025
2185.14856	12424.925
2188.08661	12420.125
2191.02278	12397.325
2193.95707	12397.825
2196.88948	12409.025
2199.82001	12393.325
2202.74867	12380.625
2205.67545	12348.225
2208.60037	12340.125
2211.52341	12347.425
2214.44458	12308.925
2217.36388	12324.425
2220.28132	12266.725
2223.1969	12211.125
2226.11061	12212.825
2229.02246	12144.825
2231.93245	12179.525
2234.84058	12114.025
2237.74686	12124.525
2240.65128	12102.325
2243.55385	12086.125
2246.45456	12080.725
2249.35343	12035.325
2252.25044	12044.425
2255.14561	12048.125
2258.03893	12057.225
2260.93041	12033.725
2263.82004	11999.925
2266.70783	11983.425
2269.59378	11960.625
2272.4779	11941.225
2275.36017	11930.025
2278.24061	11912.425
2281.11922	11890.025
2283.996	11872.025
2286.87094	11829.825
2289.74405	11776.825
2292.61534	11780.025
2295.4848	11777.525
2298.35243	11785.325
2301.21824	11778.525
2304.08223	11760.125
2306.94439	11722.625
2309.80474	11716.825
2312.66327	11717.425
2315.51999	11740.825
2318.37489	11736.125
2321.22797	11736.625
2324.07925	11693.025
2326.92871	11690.125
2329.77637	11670.425
2332.62222	11678.725
2335.46626	11614.425
2338.3085	11621.325
2341.14893	11634.725
2343.98756	11623.025
2346.8244	11640.325
2349.65943	11668.325
2352.49267	11652.925
2355.32411	11696.225
2358.15376	11686.125
2360.98161	11702.625
2363.80768	11718.625
2366.63195	11732.025
2369.45444	11732.125
2372.27514	11729.425
2375.09405	11694.025
2377.91118	11613.825
2380.72652	11588.025
2383.54009	11528.825
2386.35187	11482.225
2389.16188	11445.725
2391.97011	11448.125
2394.77657	11384.825
2397.58125	11393.925
2400.38416	11349.725
2403.18529	11333.225
2405.98466	11312.225
2408.78226	11279.025
2411.57809	11274.625
2414.37216	11206.725
2417.16446	11199.925
2419.955	11184.625
2422.74378	11179.925
2425.5308	11198.425
2428.31606	11194.525
2431.09956	11168.125
2433.88131	11153.525
2436.6613	11154.725
2439.43954	11146.325
2442.21603	11177.025
2444.99077	11157.625
2447.76377	11165.725
2450.53501	11148.425
2453.30451	11171.725
2456.07226	11146.025
2458.83827	11137.425
2461.60254	11166.625
2464.36507	11118.425
2467.12586	11097.725
2469.88492	11118.225
2472.64224	11115.025
2475.39782	11147.025
2478.15167	11160.025
2480.90379	11182.925
2483.65417	11216.425
2486.40283	11246.225
2489.14976	11268.625
2491.89497	11256.025
2494.63845	11267.625
2497.3802	11253.525
2500.12024	11241.925
2502.85855	11245.625
2505.59514	11183.425
2508.33002	11159.725
2511.06318	11079.925
2513.79462	11039.925
2516.52435	11000.925
2519.25237	10988.925
2521.97867	10956.325
2524.70327	10947.225
2527.42616	10913.825
2530.14734	10898.825
2532.86681	10879.225
2535.58458	10889.625
2538.30065	10893.625
2541.01501	10919.325
2543.72768	10908.325
2546.43864	10888.525
2549.14791	10850.025
2551.85548	10879.125
2554.56136	10866.725
2557.26554	10831.525
2559.96803	10819.925
2562.66883	10791.025
2565.36794	10762.325
2568.06536	10776.825
2570.7611	10751.625
2573.45514	10718.825
2576.14751	10710.425
2578.83819	10710.925
2581.52719	10693.525
2584.21451	10672.425
2586.90015	10644.925
2589.58411	10643.625
2592.2664	10645.425
2594.94701	10643.925
2597.62594	10649.125
2600.30321	10619.025
2602.9788	10621.525
2605.65273	10604.625
2608.32498	10629.125
2610.99557	10587.825
2613.66449	10590.225
2616.33175	10575.325
2618.99734	10596.925
2621.66128	10593.525
2624.32355	10571.725
2626.98416	10559.525
2629.64311	10523.125
2632.30041	10549.725
2634.95605	10527.425
2637.61004	10500.825
2640.26238	10484.925
2642.91306	10472.125
2645.56209	10432.725
2648.20948	10445.825
2650.85521	10418.925
2653.4993	10432.925
2656.14175	10440.425
2658.78255	10422.825
2661.42171	10474.025
2664.05923	10498.425
2666.6951	10503.125
2669.32934	10533.525
2671.96194	10504.625
2674.59291	10525.425
2677.22224	10527.925
2679.84993	10534.625
2682.476	10516.425
2685.10043	10512.625
2687.72324	10511.925
2690.34441	10489.825
2692.96396	10494.125
2695.58188	10515.525
2698.19818	10483.125
2700.81285	10472.925
2703.4259	10478.725
2706.03733	10468.325
2708.64714	10471.725
2711.25533	10481.925
2713.86191	10470.925
2716.46687	10517.225
2719.07021	10524.325
2721.67194	10534.225
2724.27206	10527.925
2726.87057	10552.025
2729.46747	10523.925
2732.06276	10529.425
2734.65644	10518.925
2737.24852	10538.425
2739.83899	10503.625
2742.42786	10488.925
2745.01513	10428.025
2747.60079	10450.125
2750.18486	10469.725
2752.76733	10450.925
2755.3482	10423.825
2757.92747	10420.025
2760.50515	10402.325
2763.08123	10386.025
2765.65573	10366.025
2768.22863	10364.425
2770.79994	10358.025
2773.36967	10368.525
2775.9378	10330.525
2778.50435	10327.525
2781.06932	10294.425
2783.6327	10319.825
2786.1945	10300.225
2788.75471	10318.625
2791.31335	10312.425
2793.87041	10308.025
2796.42589	10268.625
2798.97979	10297.725
2801.53212	10265.925
2804.08288	10288.525
2806.63206	10269.925
2809.17967	10231.325
2811.72571	10203.425
2814.27018	10229.925
2816.81308	10230.225
2819.35442	10190.125
2821.89419	10197.825
2824.43239	10231.325
2826.96904	10229.425
2829.50412	10238.325
2832.03763	10215.925
2834.56959	10219.325
2837.1	10208.225
2839.62884	10196.325
2842.15613	10207.325
2844.68186	10205.725
2847.20604	10217.425
2849.72867	10252.625
2852.24974	10252.925
2854.76927	10242.925
2857.28724	10253.725
2859.80367	10238.125
2862.31855	10234.825
2864.83189	10219.125
2867.34368	10224.925
2869.85393	10204.625
2872.36264	10185.325
2874.8698	10178.425
2877.37543	10207.125
2879.87952	10168.425
2882.38207	10171.625
2884.88308	10157.025
2887.38256	10172.425
2889.88051	10146.825
2892.37692	10163.525
2894.8718	10116.225
2897.36515	10150.925
2899.85698	10165.425
2902.34727	10174.625
2904.83604	10185.525
2907.32328	10196.625
2909.809	10210.225
2912.29319	10218.925
2914.77587	10207.025
2917.25702	10185.625
2919.73665	10168.825
2922.21476	10206.825
2924.69136	10173.325
2927.16644	10158.025
2929.64	10105.025
2932.11205	10076.925
2934.58258	10045.025
2937.05161	10051.925
2939.51912	10027.625
2941.98513	10017.725
2944.44962	9971.525
2946.91261	9932.625
2949.37409	9965.925
2951.83407	9962.625
2954.29254	9951.025
2956.74951	9947.625
2959.20498	9935.825
2961.65895	9936.725
2964.11142	9923.125
2966.56239	9901.725
2969.01186	9877.625
2971.45984	9840.725
2973.90632	9827.825
2976.35131	9814.925
2978.7948	9799.425
2981.23681	9768.425
2983.67732	9741.825
2986.11635	9756.825
2988.55388	9711.825
2990.98993	9695.825
2993.4245	9667.925
2995.85758	9649.725
2998.28917	9605.325
3000.71928	9600.525
3003.14791	9586.825
3005.57506	9538.525
3008.00073	9528.825
3010.42493	9541.425
3012.84764	9529.525
3015.26888	9470.925
3017.68865	9435.825
3020.10694	9441.525
3022.52376	9439.025
3024.9391	9431.125
3027.35298	9424.925
3029.76539	9391.325
3032.17632	9394.625
3034.5858	9385.625
3036.9938	9377.225
3039.40034	9353.425
3041.80542	9350.425
3044.20903	9321.725
3046.61118	9328.425
3049.01187	9279.225
3051.4111	9284.425
3053.80888	9292.325
3056.20519	9251.925
3058.60005	9245.625
3060.99345	9230.425
3063.3854	9189.125
3065.7759	9165.825
3068.16494	9159.725
3070.55254	9116.525
3072.93868	9091.625
3075.32338	9065.425
3077.70662	9023.025
3080.08842	9012.325
3082.46878	9004.425
3084.84769	8979.425
3087.22515	8993.425
3089.60118	8994.625
3091.97576	8946.325
3094.3489	8940.425
3096.72061	8954.525
3099.09087	8948.025
3101.4597	8930.725
3103.82709	8928.025
3106.19305	8917.725
3108.55757	8927.625
3110.92066	8900.225
3113.28232	8903.225
3115.64255	8879.625
3118.00134	8843.225
3120.35871	8842.625
3122.71466	8824.925
3125.06917	8830.125
3127.42226	8785.025
3129.77393	8802.625
3132.12417	8781.525
3134.47299	8806.125
3136.82039	8773.525
3139.16636	8772.725
