Data from AgNPs_UA_200uM_CRN_0uM_R6G_10uM_Q_RamanShift__21__14-24-24-162.txt Node

Date: Tue Jul 26 14:24:24 BST 2022
User: TCL
Spectrometer: QEP01345
Trigger mode: 4
Integration Time (sec): 7.000000E0
Scans to average: 10
Electric dark correction enabled: true
Nonlinearity correction enabled: false
Boxcar width: 0
XAxis mode: Raman Shifts
Number of Pixels in Spectrum: 1044
>>>>>Begin Spectral Data<<<<<
46.04893	-1.3625
50.45542	1.5375
54.85868	-0.4625
59.25871	0.5375
63.6555	43.1375
68.04907	47.8375
72.43941	48.4375
76.82654	53.3375
81.21044	53.0375
85.59113	58.6375
89.96862	58.3375
94.34289	61.7375
98.71396	59.9375
103.08183	64.7375
107.4465	68.2375
111.80798	66.3375
116.16626	64.7375
120.52136	67.6375
124.87327	67.5375
129.222	70.8375
133.56755	66.8375
137.90993	72.5375
142.24913	74.1375
146.58517	73.1375
150.91804	78.4375
155.24774	87.4375
159.57429	103.1375
163.89768	115.4375
168.21792	141.5375
172.53501	188.9375
176.84895	243.0375
181.15975	336.6375
185.46741	458.2375
189.77193	628.8375
194.07331	822.9375
198.37157	1063.1375
202.6667	1309.5375
206.9587	1547.7375
211.24758	1796.1375
215.53334	2057.7375
219.81599	2332.3375
224.09553	2646.8375
228.37195	2987.0375
232.64527	3346.3375
236.91549	3706.2375
241.18261	4045.9375
245.44663	4316.2375
249.70755	4542.4375
253.96539	4751.6375
258.22014	4913.1375
262.4718	5030.3375
266.72039	5122.5375
270.96589	5124.2375
275.20832	5101.0375
279.44768	4993.3375
283.68397	4893.1375
287.91719	4820.5375
292.14735	4788.3375
296.37445	4846.6375
300.59849	4949.6375
304.81948	5069.4375
309.03742	5178.4375
313.25231	5170.6375
317.46415	5000.4375
321.67296	4770.7375
325.87872	4602.6375
330.08145	4531.0375
334.28114	4543.2375
338.47781	4623.4375
342.67145	4706.2375
346.86207	4845.3375
351.04966	5044.6375
355.23424	5258.5375
359.4158	5448.7375
363.59435	5564.3375
367.76989	5632.0375
371.94243	5659.2375
376.11196	5664.1375
380.27849	5696.0375
384.44203	5684.2375
388.60257	5674.2375
392.76012	5674.4375
396.91468	5708.8375
401.06626	5801.5375
405.21485	5871.5375
409.36047	5802.7375
413.50311	5628.4375
417.64277	5461.4375
421.77947	5354.7375
425.9132	5315.3375
430.04396	5307.2375
434.17176	5327.7375
438.2966	5417.0375
442.41849	5499.3375
446.53742	5598.6375
450.6534	5682.2375
454.76644	5766.7375
458.87653	5818.8375
462.98368	5806.0375
467.08789	5790.0375
471.18916	5701.2375
475.2875	5638.3375
479.38291	5579.4375
483.4754	5552.4375
487.56496	5538.7375
491.6516	5547.7375
495.73531	5556.8375
499.81612	5565.9375
503.89401	5600.1375
507.96899	5620.6375
512.04106	5641.8375
516.11023	5716.6375
520.1765	5775.0375
524.23987	5783.5375
528.30034	5778.6375
532.35792	5752.6375
536.41261	5705.8375
540.46441	5639.3375
544.51333	5615.2375
548.55936	5602.8375
552.60252	5668.0375
556.64279	5733.9375
560.6802	5787.8375
564.71473	5833.7375
568.7464	5961.7375
572.7752	5974.8375
576.80114	5882.6375
580.82422	5754.9375
584.84444	5731.5375
588.86181	5787.6375
592.87633	5856.1375
596.888	5960.3375
600.89682	6135.3375
604.9028	6700.6375
608.90594	8027.0375
612.90624	9401.7375
616.90371	8854.5375
620.89834	7081.1375
624.89015	6398.6375
628.87913	6371.5375
632.86528	6509.4375
636.84862	6599.3375
640.82913	6507.6375
644.80683	6229.7375
648.78172	6015.6375
652.75379	5979.9375
656.72306	6074.5375
660.68952	6202.2375
664.65319	6163.4375
668.61405	6003.8375
672.57211	5961.9375
676.52738	5956.9375
680.47986	5932.2375
684.42955	5891.3375
688.37646	5923.6375
692.32058	5911.0375
696.26192	5905.4375
700.20048	5942.2375
704.13626	5962.7375
708.06928	5892.7375
711.99952	5857.9375
715.927	5866.4375
719.85171	5878.4375
723.77365	5907.5375
727.69284	5919.1375
731.60928	5935.6375
735.52295	5908.8375
739.43388	5898.1375
743.34206	5882.0375
747.24749	5882.8375
751.15017	5884.5375
755.05012	5922.1375
758.94733	6112.0375
762.8418	6545.4375
766.73354	7228.9375
770.62254	7902.4375
774.50882	8205.9375
778.39237	7965.1375
782.27321	7268.5375
786.15132	6612.4375
790.02671	6226.8375
793.89938	6052.0375
797.76935	5965.3375
801.6366	5966.2375
805.50115	5990.1375
809.36299	6013.5375
813.22213	6000.0375
817.07857	5988.9375
820.93231	5952.9375
824.78336	5895.7375
828.63172	5875.1375
832.47738	5839.7375
836.32036	5856.5375
840.16066	5854.4375
843.99827	5863.2375
847.8332	5847.4375
851.66546	5828.8375
855.49504	5839.0375
859.32195	5839.0375
863.1462	5825.1375
866.96777	5827.2375
870.78668	5834.4375
874.60293	5870.8375
878.41652	5905.5375
882.22745	5966.1375
886.03573	6008.5375
889.84136	6035.9375
893.64433	5990.1375
897.44466	5961.3375
901.24235	5896.3375
905.0374	5849.9375
908.8298	5801.0375
912.61957	5770.4375
916.40671	5772.2375
920.19121	5792.6375
923.97308	5830.6375
927.75233	5886.8375
931.52895	5932.2375
935.30295	5911.4375
939.07433	5806.8375
942.84309	5737.7375
946.60924	5728.7375
950.37278	5692.0375
954.13371	5664.0375
957.89203	5658.3375
961.64774	5634.0375
965.40086	5612.8375
969.15137	5616.2375
972.89929	5601.6375
976.64461	5588.0375
980.38733	5599.1375
984.12747	5599.5375
987.86502	5670.9375
991.59999	5692.7375
995.33237	5815.1375
999.06217	5961.5375
1002.78939	6091.5375
1006.51404	6186.4375
1010.23611	6234.5375
1013.95561	6288.6375
1017.67255	6329.8375
1021.38692	6324.0375
1025.09872	6315.9375
1028.80796	6345.4375
1032.51465	6482.0375
1036.21877	6553.8375
1039.92035	6512.3375
1043.61937	6437.3375
1047.31584	6294.0375
1051.00976	6193.3375
1054.70114	6135.0375
1058.38998	6131.1375
1062.07627	6107.6375
1065.76003	6140.3375
1069.44126	6162.2375
1073.11995	6209.8375
1076.79611	6271.5375
1080.46974	6348.6375
1084.14085	6422.7375
1087.80943	6491.0375
1091.47549	6504.7375
1095.13903	6416.6375
1098.80005	6312.1375
1102.45857	6253.4375
1106.11456	6276.5375
1109.76805	6344.6375
1113.41903	6451.6375
1117.06751	6617.7375
1120.71348	6837.0375
1124.35696	7044.0375
1127.99793	7276.8375
1131.63641	7279.2375
1135.2724	7130.6375
1138.90589	6968.4375
1142.5369	6811.1375
1146.16542	6605.1375
1149.79145	6485.0375
1153.415	6361.9375
1157.03607	6324.5375
1160.65467	6386.0375
1164.27079	6483.2375
1167.88443	6695.1375
1171.49561	7013.2375
1175.10432	7554.0375
1178.71056	8267.4375
1182.31434	8902.0375
1185.91565	9150.1375
1189.51451	9016.2375
1193.11091	8599.9375
1196.70485	8204.4375
1200.29634	7886.3375
1203.88538	7653.1375
1207.47197	7373.8375
1211.05612	7113.7375
1214.63782	6902.5375
1218.21708	6804.2375
1221.79391	6767.3375
1225.36829	6794.6375
1228.94024	6751.5375
1232.50976	6689.5375
1236.07685	6658.7375
1239.6415	6637.8375
1243.20374	6648.7375
1246.76355	6721.4375
1250.32093	6809.9375
1253.8759	6907.6375
1257.42845	7042.4375
1260.97859	7211.7375
1264.52631	7358.6375
1268.07163	7524.3375
1271.61453	7669.4375
1275.15503	7803.8375
1278.69312	7928.9375
1282.22882	8006.7375
1285.76211	8083.0375
1289.29301	8226.5375
1292.82151	8401.2375
1296.34761	8633.9375
1299.87133	9013.4375
1303.39266	9682.9375
1306.9116	10623.9375
1310.42815	11503.9375
1313.94233	11775.6375
1317.45412	11376.2375
1320.96354	10664.7375
1324.47058	9949.1375
1327.97525	9346.5375
1331.47754	8991.0375
1334.97747	8861.4375
1338.47502	8937.2375
1341.97022	9156.1375
1345.46305	9527.1375
1348.95352	10028.8375
1352.44163	10650.5375
1355.92738	11555.5375
1359.41078	12772.5375
1362.89183	13866.8375
1366.37053	13242.0375
1369.84688	11428.2375
1373.32088	9839.5375
1376.79254	8943.1375
1380.26186	8408.5375
1383.72883	8079.4375
1387.19347	7789.2375
1390.65578	7546.6375
1394.11575	7358.4375
1397.57339	7266.7375
1401.0287	7244.2375
1404.48168	7257.1375
1407.93234	7255.9375
1411.38068	7264.4375
1414.82669	7308.1375
1418.27039	7284.9375
1421.71177	7233.8375
1425.15083	7163.8375
1428.58758	7127.4375
1432.02203	7157.6375
1435.45416	7201.6375
1438.88399	7174.6375
1442.31151	7175.9375
1445.73673	7156.1375
1449.15965	7155.7375
1452.58027	7135.0375
1455.9986	7091.9375
1459.41463	7089.1375
1462.82837	7160.1375
1466.23982	7252.8375
1469.64898	7381.6375
1473.05586	7495.9375
1476.46045	7556.2375
1479.86276	7651.5375
1483.26279	7780.8375
1486.66054	7909.7375
1490.05602	8106.4375
1493.44922	8426.8375
1496.84016	8909.4375
1500.22882	9658.9375
1503.61521	10689.3375
1506.99934	11764.1375
1510.38121	12464.5375
1513.76081	12344.6375
1517.13816	11434.6375
1520.51324	10186.5375
1523.88607	9171.5375
1527.25665	8539.8375
1530.62498	8190.0375
1533.99105	7994.1375
1537.35488	7903.7375
1540.71647	7807.1375
1544.07581	7774.8375
1547.4329	7760.7375
1550.78776	7759.7375
1554.14038	7790.6375
1557.49077	7842.7375
1560.83892	7907.1375
1564.18484	8034.1375
1567.52853	8243.2375
1570.86999	8381.4375
1574.20922	8464.5375
1577.54624	8390.3375
1580.88103	8087.4375
1584.2136	7745.5375
1587.54395	7590.7375
1590.87208	7697.6375
1594.19801	8019.4375
1597.52172	8464.6375
1600.84321	8666.8375
1604.16251	8481.2375
1607.47959	8134.8375
1610.79447	7727.7375
1614.10715	7352.6375
1617.41763	7045.9375
1620.7259	6850.7375
1624.03199	6731.9375
1627.33587	6729.5375
1630.63757	6835.5375
1633.93707	7071.6375
1637.23439	7454.5375
1640.52951	7977.6375
1643.82246	8630.6375
1647.11321	9373.0375
1650.40179	9755.5375
1653.68819	9393.5375
1656.97241	8415.0375
1660.25446	7484.4375
1663.53433	6855.0375
1666.81203	6458.4375
1670.08756	6220.4375
1673.36092	6072.4375
1676.63211	5983.7375
1679.90115	5911.3375
1683.16801	5862.3375
1686.43272	5797.1375
1689.69527	5753.9375
1692.95567	5736.5375
1696.2139	5684.5375
1699.46999	5649.9375
1702.72392	5586.3375
1705.97571	5555.3375
1709.22535	5523.5375
1712.47284	5497.7375
1715.71819	5488.1375
1718.96139	5475.0375
1722.20246	5430.9375
1725.44139	5392.4375
1728.67818	5345.0375
1731.91284	5305.6375
1735.14537	5290.4375
1738.37576	5275.0375
1741.60403	5231.2375
1744.83017	5218.5375
1748.05418	5209.6375
1751.27607	5179.4375
1754.49584	5181.6375
1757.71349	5181.6375
1760.92903	5165.5375
1764.14244	5150.9375
1767.35375	5160.9375
1770.56294	5130.5375
1773.77002	5120.9375
1776.97499	5106.9375
1780.17785	5126.5375
1783.37861	5079.0375
1786.57727	5077.0375
1789.77382	5078.7375
1792.96828	5075.2375
1796.16064	5059.5375
1799.3509	5057.2375
1802.53907	5051.4375
1805.72514	5023.6375
1808.90913	5028.4375
1812.09102	5015.3375
1815.27083	4997.4375
1818.44856	4980.7375
1821.6242	4990.0375
1824.79776	4986.9375
1827.96924	4966.6375
1831.13864	4952.0375
1834.30597	4963.5375
1837.47122	4955.7375
1840.6344	4940.3375
1843.7955	4935.9375
1846.95454	4922.8375
1850.11151	4938.9375
1853.26642	4924.5375
1856.41926	4914.2375
1859.57004	4943.3375
1862.71876	4913.8375
1865.86542	4918.4375
1869.01003	4916.0375
1872.15258	4900.7375
1875.29308	4918.0375
1878.43152	4911.2375
1881.56792	4903.3375
1884.70227	4890.0375
1887.83457	4900.2375
1890.96482	4894.8375
1894.09304	4881.1375
1897.21921	4884.8375
1900.34335	4871.8375
1903.46544	4880.9375
1906.58551	4885.2375
1909.70353	4878.3375
1912.81953	4868.6375
1915.93349	4849.3375
1919.04543	4846.3375
1922.15534	4846.1375
1925.26322	4836.2375
1928.36908	4837.7375
1931.47292	4841.3375
1934.57473	4821.6375
1937.67453	4800.8375
1940.77232	4781.2375
1943.86808	4764.0375
1946.96184	4763.8375
1950.05358	4760.9375
1953.14331	4752.2375
1956.23103	4730.9375
1959.31675	4727.7375
1962.40046	4717.2375
1965.48217	4703.3375
1968.56188	4687.1375
1971.63959	4677.3375
1974.7153	4647.0375
1977.78901	4663.2375
1980.86073	4640.7375
1983.93046	4618.6375
1986.99819	4598.8375
1990.06394	4588.9375
1993.1277	4579.3375
1996.18947	4573.6375
1999.24925	4573.1375
2002.30706	4542.9375
2005.36288	4514.0375
2008.41672	4515.5375
2011.46859	4506.1375
2014.51848	4504.4375
2017.56639	4477.3375
2020.61233	4472.7375
2023.6563	4453.3375
2026.6983	4455.1375
2029.73833	4450.4375
2032.7764	4426.2375
2035.8125	4427.0375
2038.84664	4425.2375
2041.87881	4429.4375
2044.90903	4407.7375
2047.93729	4394.0375
2050.96359	4390.5375
2053.98794	4389.9375
2057.01034	4398.3375
2060.03078	4389.0375
2063.04927	4400.6375
2066.06582	4385.1375
2069.08042	4391.7375
2072.09307	4373.6375
2075.10378	4373.0375
2078.11255	4377.3375
2081.11938	4371.1375
2084.12426	4365.9375
2087.12722	4372.5375
2090.12824	4362.6375
2093.12732	4356.8375
2096.12447	4360.6375
2099.11969	4365.5375
2102.11299	4369.1375
2105.10435	4385.5375
2108.09379	4374.2375
2111.08131	4366.5375
2114.0669	4392.7375
2117.05057	4396.9375
2120.03233	4398.7375
2123.01216	4391.2375
2125.99008	4401.3375
2128.96609	4408.8375
2131.94018	4395.0375
2134.91236	4395.8375
2137.88263	4401.8375
2140.851	4407.8375
2143.81746	4406.9375
2146.78201	4408.1375
2149.74466	4413.3375
2152.7054	4399.2375
2155.66425	4424.8375
2158.6212	4412.0375
2161.57625	4405.6375
2164.52941	4401.5375
2167.48067	4414.8375
2170.43004	4399.3375
2173.37752	4394.4375
2176.32311	4421.3375
2179.26681	4409.9375
2182.20863	4396.0375
2185.14856	4416.9375
2188.08661	4421.8375
2191.02278	4426.3375
2193.95707	4393.3375
2196.88948	4413.4375
2199.82001	4415.6375
2202.74867	4390.9375
2205.67545	4420.0375
2208.60037	4405.6375
2211.52341	4402.0375
2214.44458	4385.9375
2217.36388	4384.1375
2220.28132	4387.2375
2223.1969	4367.8375
2226.11061	4359.8375
2229.02246	4353.6375
2231.93245	4357.1375
2234.84058	4343.9375
2237.74686	4331.8375
2240.65128	4343.5375
2243.55385	4320.9375
2246.45456	4327.6375
2249.35343	4321.2375
2252.25044	4322.2375
2255.14561	4313.6375
2258.03893	4319.8375
2260.93041	4305.3375
2263.82004	4310.6375
2266.70783	4305.8375
2269.59378	4276.4375
2272.4779	4259.8375
2275.36017	4263.7375
2278.24061	4252.1375
2281.11922	4242.7375
2283.996	4252.3375
2286.87094	4230.5375
2289.74405	4236.7375
2292.61534	4230.4375
2295.4848	4216.0375
2298.35243	4221.6375
2301.21824	4224.3375
2304.08223	4228.8375
2306.94439	4218.6375
2309.80474	4220.8375
2312.66327	4214.8375
2315.51999	4215.5375
2318.37489	4219.2375
2321.22797	4218.1375
2324.07925	4207.2375
2326.92871	4193.2375
2329.77637	4223.8375
2332.62222	4195.6375
2335.46626	4184.7375
2338.3085	4179.3375
2341.14893	4190.6375
2343.98756	4183.1375
2346.8244	4206.6375
2349.65943	4184.9375
2352.49267	4197.8375
2355.32411	4219.1375
2358.15376	4198.0375
2360.98161	4203.9375
2363.80768	4195.6375
2366.63195	4201.2375
2369.45444	4182.5375
2372.27514	4166.8375
2375.09405	4171.9375
2377.91118	4171.9375
2380.72652	4173.6375
2383.54009	4133.2375
2386.35187	4133.5375
2389.16188	4133.6375
2391.97011	4125.7375
2394.77657	4108.2375
2397.58125	4114.5375
2400.38416	4101.5375
2403.18529	4101.4375
2405.98466	4081.4375
2408.78226	4080.2375
2411.57809	4062.4375
2414.37216	4081.6375
2417.16446	4070.4375
2419.955	4048.6375
2422.74378	4057.3375
2425.5308	4036.9375
2428.31606	4047.3375
2431.09956	4042.1375
2433.88131	4040.6375
2436.6613	4026.0375
2439.43954	4051.0375
2442.21603	4041.1375
2444.99077	4039.2375
2447.76377	4037.2375
2450.53501	4031.2375
2453.30451	4026.1375
2456.07226	4022.7375
2458.83827	4022.1375
2461.60254	4029.0375
2464.36507	4015.4375
2467.12586	4019.0375
2469.88492	4017.6375
2472.64224	4021.2375
2475.39782	4027.8375
2478.15167	4025.5375
2480.90379	4029.6375
2483.65417	4029.9375
2486.40283	4030.5375
2489.14976	4037.9375
2491.89497	4044.3375
2494.63845	4058.2375
2497.3802	4029.7375
2500.12024	4032.9375
2502.85855	4021.9375
2505.59514	4029.3375
2508.33002	4024.6375
2511.06318	3996.5375
2513.79462	4004.0375
2516.52435	3991.6375
2519.25237	3987.7375
2521.97867	3976.8375
2524.70327	3962.5375
2527.42616	3965.7375
2530.14734	3972.3375
2532.86681	3965.9375
2535.58458	3967.9375
2538.30065	3953.0375
2541.01501	3965.1375
2543.72768	3940.5375
2546.43864	3976.7375
2549.14791	3949.6375
2551.85548	3940.0375
2554.56136	3947.5375
2557.26554	3929.0375
2559.96803	3946.1375
2562.66883	3932.5375
2565.36794	3917.8375
2568.06536	3927.7375
2570.7611	3922.2375
2573.45514	3907.6375
2576.14751	3911.5375
2578.83819	3891.3375
2581.52719	3905.4375
2584.21451	3883.2375
2586.90015	3884.3375
2589.58411	3892.9375
2592.2664	3879.0375
2594.94701	3884.3375
2597.62594	3871.2375
2600.30321	3878.4375
2602.9788	3868.5375
2605.65273	3865.9375
2608.32498	3864.6375
2610.99557	3873.7375
2613.66449	3873.6375
2616.33175	3864.4375
2618.99734	3866.2375
2621.66128	3858.4375
2624.32355	3865.0375
2626.98416	3848.5375
2629.64311	3845.8375
2632.30041	3860.6375
2634.95605	3852.5375
2637.61004	3842.7375
2640.26238	3832.8375
2642.91306	3840.5375
2645.56209	3843.8375
2648.20948	3834.6375
2650.85521	3825.3375
2653.4993	3822.3375
2656.14175	3818.0375
2658.78255	3835.2375
2661.42171	3836.6375
2664.05923	3824.8375
2666.6951	3836.1375
2669.32934	3832.2375
2671.96194	3852.8375
2674.59291	3853.7375
2677.22224	3850.0375
2679.84993	3855.9375
2682.476	3842.2375
2685.10043	3828.4375
2687.72324	3821.8375
2690.34441	3820.9375
2692.96396	3823.0375
2695.58188	3829.9375
2698.19818	3813.7375
2700.81285	3820.2375
2703.4259	3800.2375
2706.03733	3818.9375
2708.64714	3799.0375
2711.25533	3821.0375
2713.86191	3824.3375
2716.46687	3830.9375
2719.07021	3818.0375
2721.67194	3832.7375
2724.27206	3835.3375
2726.87057	3826.3375
2729.46747	3832.4375
2732.06276	3832.6375
2734.65644	3824.3375
2737.24852	3837.8375
2739.83899	3833.9375
2742.42786	3833.3375
2745.01513	3822.5375
2747.60079	3821.2375
2750.18486	3799.4375
2752.76733	3802.8375
2755.3482	3798.2375
2757.92747	3782.1375
2760.50515	3789.3375
2763.08123	3796.6375
2765.65573	3776.9375
2768.22863	3787.3375
2770.79994	3785.5375
2773.36967	3774.5375
2775.9378	3773.8375
2778.50435	3789.3375
2781.06932	3774.9375
2783.6327	3784.6375
2786.1945	3779.1375
2788.75471	3763.2375
2791.31335	3752.5375
2793.87041	3753.3375
2796.42589	3755.8375
2798.97979	3759.5375
2801.53212	3743.3375
2804.08288	3736.2375
2806.63206	3726.2375
2809.17967	3729.5375
2811.72571	3712.7375
2814.27018	3720.0375
2816.81308	3725.7375
2819.35442	3720.4375
2821.89419	3694.0375
2824.43239	3697.7375
2826.96904	3698.5375
2829.50412	3703.1375
2832.03763	3702.4375
2834.56959	3705.1375
2837.1	3684.7375
2839.62884	3685.4375
2842.15613	3685.2375
2844.68186	3688.0375
2847.20604	3676.5375
2849.72867	3689.1375
2852.24974	3680.7375
2854.76927	3667.5375
2857.28724	3666.0375
2859.80367	3683.3375
2862.31855	3673.7375
2864.83189	3666.4375
2867.34368	3657.2375
2869.85393	3668.1375
2872.36264	3657.7375
2874.8698	3660.8375
2877.37543	3669.6375
2879.87952	3671.9375
2882.38207	3670.7375
2884.88308	3674.0375
2887.38256	3685.3375
2889.88051	3668.8375
2892.37692	3680.4375
2894.8718	3673.3375
2897.36515	3679.4375
2899.85698	3674.2375
2902.34727	3668.4375
2904.83604	3681.7375
2907.32328	3707.4375
2909.809	3675.9375
2912.29319	3696.3375
2914.77587	3697.5375
2917.25702	3691.3375
2919.73665	3700.3375
2922.21476	3685.1375
2924.69136	3683.1375
2927.16644	3686.8375
2929.64	3688.1375
2932.11205	3681.7375
2934.58258	3665.4375
2937.05161	3677.9375
2939.51912	3676.2375
2941.98513	3667.4375
2944.44962	3671.7375
2946.91261	3659.2375
2949.37409	3666.6375
2951.83407	3665.4375
2954.29254	3670.6375
2956.74951	3671.7375
2959.20498	3676.5375
2961.65895	3662.5375
2964.11142	3684.3375
2966.56239	3678.3375
2969.01186	3672.0375
2971.45984	3674.4375
2973.90632	3658.7375
2976.35131	3668.8375
2978.7948	3643.5375
2981.23681	3642.5375
2983.67732	3652.6375
2986.11635	3633.4375
2988.55388	3620.3375
2990.98993	3638.8375
2993.4245	3623.7375
2995.85758	3614.9375
2998.28917	3606.9375
3000.71928	3611.2375
3003.14791	3587.8375
3005.57506	3590.6375
3008.00073	3593.4375
3010.42493	3602.8375
3012.84764	3588.1375
3015.26888	3584.9375
3017.68865	3584.4375
3020.10694	3586.9375
3022.52376	3583.7375
3024.9391	3576.3375
3027.35298	3575.2375
3029.76539	3570.8375
3032.17632	3564.2375
3034.5858	3563.6375
3036.9938	3560.8375
3039.40034	3556.2375
3041.80542	3559.3375
3044.20903	3551.3375
3046.61118	3563.7375
3049.01187	3544.6375
3051.4111	3553.2375
3053.80888	3551.0375
3056.20519	3562.9375
3058.60005	3533.0375
3060.99345	3541.1375
3063.3854	3526.5375
3065.7759	3520.2375
3068.16494	3518.7375
3070.55254	3497.6375
3072.93868	3508.8375
3075.32338	3512.5375
3077.70662	3496.0375
3080.08842	3490.9375
3082.46878	3515.5375
3084.84769	3508.9375
3087.22515	3505.1375
3089.60118	3531.3375
3091.97576	3522.8375
3094.3489	3534.4375
3096.72061	3511.6375
3099.09087	3528.8375
3101.4597	3536.1375
3103.82709	3549.4375
3106.19305	3556.9375
3108.55757	3541.2375
3110.92066	3537.3375
3113.28232	3548.7375
3115.64255	3539.7375
3118.00134	3545.5375
3120.35871	3554.0375
3122.71466	3549.3375
3125.06917	3532.5375
