Data from AgNPs_UA_200uM_CRN_0uM_R6G_10uM_Q_RamanShift__11__14-12-44-147.txt Node

Date: Tue Jul 26 14:12:44 BST 2022
User: TCL
Spectrometer: QEP01345
Trigger mode: 4
Integration Time (sec): 7.000000E0
Scans to average: 10
Electric dark correction enabled: true
Nonlinearity correction enabled: false
Boxcar width: 0
XAxis mode: Raman Shifts
Number of Pixels in Spectrum: 1044
>>>>>Begin Spectral Data<<<<<
46.04893	0.55
50.45542	-0.15
54.85868	-1.35
59.25871	-0.05
63.6555	47.25
68.04907	50.15
72.43941	54.65
76.82654	52.95
81.21044	57.45
85.59113	61.35
89.96862	64.55
94.34289	62.95
98.71396	67.05
103.08183	73.35
107.4465	71.15
111.80798	70.65
116.16626	72.45
120.52136	71.55
124.87327	73.85
129.222	74.55
133.56755	74.45
137.90993	74.85
142.24913	79.35
146.58517	84.85
150.91804	85.15
155.24774	94.75
159.57429	110.85
163.89768	127.25
168.21792	159.45
172.53501	204.45
176.84895	277.85
181.15975	371.75
185.46741	518.45
189.77193	705.65
194.07331	928.75
198.37157	1190.65
202.6667	1458.65
206.9587	1714.05
211.24758	1976.05
215.53334	2237.55
219.81599	2503.15
224.09553	2781.65
228.37195	3102.95
232.64527	3461.65
236.91549	3824.85
241.18261	4236.65
245.44663	4620.85
249.70755	5002.45
253.96539	5295.15
258.22014	5535.25
262.4718	5700.05
266.72039	5805.55
270.96589	5823.35
275.20832	5787.65
279.44768	5729.15
283.68397	5617.65
287.91719	5524.05
292.14735	5447.95
296.37445	5388.65
300.59849	5358.55
304.81948	5299.15
309.03742	5278.25
313.25231	5252.05
317.46415	5243.25
321.67296	5214.85
325.87872	5194.15
330.08145	5199.75
334.28114	5245.95
338.47781	5284.25
342.67145	5356.05
346.86207	5418.45
351.04966	5498.25
355.23424	5591.55
359.4158	5647.85
363.59435	5725.75
367.76989	5787.85
371.94243	5851.75
376.11196	5916.85
380.27849	5987.35
384.44203	6040.55
388.60257	6103.85
392.76012	6153.35
396.91468	6224.05
401.06626	6309.05
405.21485	6403.25
409.36047	6422.95
413.50311	6432.15
417.64277	6409.55
421.77947	6405.95
425.9132	6399.75
430.04396	6446.55
434.17176	6465.95
438.2966	6531.45
442.41849	6551.15
446.53742	6615.25
450.6534	6663.55
454.76644	6726.05
458.87653	6753.95
462.98368	6786.45
467.08789	6801.15
471.18916	6814.65
475.2875	6804.05
479.38291	6808.75
483.4754	6835.45
487.56496	6852.85
491.6516	6876.25
495.73531	6891.75
499.81612	6896.35
503.89401	6951.25
507.96899	6982.95
512.04106	6989.65
516.11023	7008.55
520.1765	6973.05
524.23987	6995.65
528.30034	7007.15
532.35792	7001.65
536.41261	7009.85
540.46441	7007.45
544.51333	7014.55
548.55936	7019.05
552.60252	7054.85
556.64279	7096.05
560.6802	7128.35
564.71473	7147.95
568.7464	7137.95
572.7752	7150.25
576.80114	7161.65
580.82422	7171.45
584.84444	7221.25
588.86181	7229.95
592.87633	7254.55
596.888	7289.25
600.89682	7370.55
604.9028	7493.35
608.90594	7784.85
612.90624	8042.65
616.90371	7909.55
620.89834	7580.05
624.89015	7443.15
628.87913	7454.85
632.86528	7498.95
636.84862	7554.95
640.82913	7570.75
644.80683	7572.25
648.78172	7515.45
652.75379	7531.35
656.72306	7550.65
660.68952	7597.05
664.65319	7593.05
668.61405	7609.45
672.57211	7620.25
676.52738	7627.65
680.47986	7644.45
684.42955	7627.85
688.37646	7611.05
692.32058	7643.15
696.26192	7639.25
700.20048	7661.85
704.13626	7682.45
708.06928	7682.35
711.99952	7667.05
715.927	7660.05
719.85171	7655.05
723.77365	7670.95
727.69284	7680.25
731.60928	7717.85
735.52295	7724.25
739.43388	7733.75
743.34206	7741.65
747.24749	7780.25
751.15017	7797.85
755.05012	7839.55
758.94733	7870.75
762.8418	7962.25
766.73354	8082.65
770.62254	8234.05
774.50882	8317.45
778.39237	8237.55
782.27321	8111.35
786.15132	7979.45
790.02671	7897.95
793.89938	7824.55
797.76935	7818.05
801.6366	7818.85
805.50115	7817.05
809.36299	7867.85
813.22213	7865.25
817.07857	7874.45
820.93231	7850.25
824.78336	7822.75
828.63172	7830.05
832.47738	7823.35
836.32036	7826.05
840.16066	7814.15
843.99827	7843.55
847.8332	7859.55
851.66546	7861.85
855.49504	7863.15
859.32195	7892.95
863.1462	7870.15
866.96777	7886.95
870.78668	7913.15
874.60293	7945.05
878.41652	7966.15
882.22745	7984.05
886.03573	8016.45
889.84136	8012.65
893.64433	8005.85
897.44466	7999.85
901.24235	8001.55
905.0374	7999.45
908.8298	7973.15
912.61957	7975.45
916.40671	7956.55
920.19121	7962.45
923.97308	7939.75
927.75233	7936.75
931.52895	7938.55
935.30295	7932.95
939.07433	7933.25
942.84309	7905.25
946.60924	7903.75
950.37278	7900.25
954.13371	7880.45
957.89203	7865.75
961.64774	7869.35
965.40086	7869.75
969.15137	7860.35
972.89929	7834.05
976.64461	7831.65
980.38733	7850.15
984.12747	7851.65
987.86502	7860.95
991.59999	7899.55
995.33237	7901.65
999.06217	7945.55
1002.78939	7945.55
1006.51404	7985.05
1010.23611	8012.25
1013.95561	8054.65
1017.67255	8077.25
1021.38692	8078.75
1025.09872	8059.35
1028.80796	8056.15
1032.51465	8044.85
1036.21877	8020.35
1039.92035	8016.35
1043.61937	8031.95
1047.31584	8040.15
1051.00976	8054.15
1054.70114	8068.95
1058.38998	8072.15
1062.07627	8094.35
1065.76003	8107.85
1069.44126	8124.45
1073.11995	8198.45
1076.79611	8204.25
1080.46974	8248.95
1084.14085	8215.65
1087.80943	8223.85
1091.47549	8236.15
1095.13903	8235.55
1098.80005	8214.25
1102.45857	8190.65
1106.11456	8192.95
1109.76805	8183.15
1113.41903	8194.25
1117.06751	8218.05
1120.71348	8261.15
1124.35696	8282.85
1127.99793	8357.85
1131.63641	8381.15
1135.2724	8378.35
1138.90589	8348.15
1142.5369	8301.55
1146.16542	8284.35
1149.79145	8229.95
1153.415	8161.45
1157.03607	8146.95
1160.65467	8104.05
1164.27079	8108.35
1167.88443	8186.15
1171.49561	8244.95
1175.10432	8353.05
1178.71056	8527.45
1182.31434	8642.65
1185.91565	8738.25
1189.51451	8804.65
1193.11091	8779.85
1196.70485	8763.95
1200.29634	8715.65
1203.88538	8673.65
1207.47197	8575.75
1211.05612	8530.65
1214.63782	8502.15
1218.21708	8453.15
1221.79391	8411.95
1225.36829	8415.15
1228.94024	8366.65
1232.50976	8379.55
1236.07685	8374.05
1239.6415	8390.45
1243.20374	8402.85
1246.76355	8434.75
1250.32093	8458.25
1253.8759	8492.15
1257.42845	8560.05
1260.97859	8614.85
1264.52631	8649.35
1268.07163	8663.05
1271.61453	8689.55
1275.15503	8685.95
1278.69312	8674.35
1282.22882	8636.25
1285.76211	8647.95
1289.29301	8632.05
1292.82151	8671.05
1296.34761	8733.15
1299.87133	8800.05
1303.39266	8896.65
1306.9116	9020.55
1310.42815	9160.35
1313.94233	9211.35
1317.45412	9200.55
1320.96354	9152.65
1324.47058	9051.65
1327.97525	8954.05
1331.47754	8856.85
1334.97747	8862.45
1338.47502	8890.35
1341.97022	8975.65
1345.46305	9083.05
1348.95352	9219.45
1352.44163	9346.25
1355.92738	9482.85
1359.41078	9597.25
1362.89183	9730.45
1366.37053	9609.55
1369.84688	9310.45
1373.32088	8976.35
1376.79254	8721.45
1380.26186	8581.55
1383.72883	8472.65
1387.19347	8361.55
1390.65578	8270.65
1394.11575	8170.45
1397.57339	8096.55
1401.0287	8069.05
1404.48168	8056.15
1407.93234	8022.65
1411.38068	8002.75
1414.82669	8025.75
1418.27039	8013.35
1421.71177	7979.15
1425.15083	7956.75
1428.58758	7918.45
1432.02203	7906.95
1435.45416	7911.75
1438.88399	7886.05
1442.31151	7885.45
1445.73673	7876.75
1449.15965	7891.45
1452.58027	7881.25
1455.9986	7878.95
1459.41463	7892.65
1462.82837	7923.75
1466.23982	7984.65
1469.64898	8022.65
1473.05586	8061.75
1476.46045	8092.15
1479.86276	8139.35
1483.26279	8154.85
1486.66054	8164.85
1490.05602	8211.45
1493.44922	8299.35
1496.84016	8400.95
1500.22882	8588.15
1503.61521	8776.65
1506.99934	8973.85
1510.38121	9086.05
1513.76081	9061.95
1517.13816	8930.15
1520.51324	8747.85
1523.88607	8596.45
1527.25665	8475.65
1530.62498	8436.15
1533.99105	8391.15
1537.35488	8421.95
1540.71647	8434.65
1544.07581	8430.95
1547.4329	8453.95
1550.78776	8425.75
1554.14038	8442.65
1557.49077	8422.95
1560.83892	8418.95
1564.18484	8451.25
1567.52853	8458.25
1570.86999	8511.85
1574.20922	8537.95
1577.54624	8520.75
1580.88103	8487.35
1584.2136	8397.35
1587.54395	8358.95
1590.87208	8387.45
1594.19801	8418.45
1597.52172	8462.95
1600.84321	8511.95
1604.16251	8493.25
1607.47959	8470.45
1610.79447	8402.55
1614.10715	8279.75
1617.41763	8151.65
1620.7259	8063.05
1624.03199	7992.15
1627.33587	7921.65
1630.63757	7916.95
1633.93707	7932.95
1637.23439	7987.05
1640.52951	8079.55
1643.82246	8225.15
1647.11321	8362.25
1650.40179	8446.85
1653.68819	8384.65
1656.97241	8205.15
1660.25446	8030.45
1663.53433	7899.75
1666.81203	7777.95
1670.08756	7704.45
1673.36092	7653.25
1676.63211	7581.65
1679.90115	7575.45
1683.16801	7517.95
1686.43272	7494.25
1689.69527	7471.75
1692.95567	7433.95
1696.2139	7449.25
1699.46999	7413.55
1702.72392	7407.15
1705.97571	7381.25
1709.22535	7378.15
1712.47284	7377.35
1715.71819	7335.95
1718.96139	7345.25
1722.20246	7323.65
1725.44139	7308.15
1728.67818	7256.95
1731.91284	7230.25
1735.14537	7213.85
1738.37576	7186.25
1741.60403	7173.05
1744.83017	7147.15
1748.05418	7154.95
1751.27607	7100.15
1754.49584	7119.65
1757.71349	7114.55
1760.92903	7110.95
1764.14244	7115.65
1767.35375	7107.65
1770.56294	7089.25
1773.77002	7074.25
1776.97499	7074.85
1780.17785	7067.35
1783.37861	7071.35
1786.57727	7053.75
1789.77382	7052.45
1792.96828	7017.75
1796.16064	7017.85
1799.3509	6982.85
1802.53907	6994.55
1805.72514	6978.25
1808.90913	6974.55
1812.09102	6951.65
1815.27083	6934.95
1818.44856	6937.25
1821.6242	6923.15
1824.79776	6890.75
1827.96924	6908.85
1831.13864	6889.05
1834.30597	6882.75
1837.47122	6864.45
1840.6344	6846.05
1843.7955	6841.65
1846.95454	6842.55
1850.11151	6841.45
1853.26642	6848.95
1856.41926	6846.75
1859.57004	6829.65
1862.71876	6819.15
1865.86542	6816.65
1869.01003	6783.95
1872.15258	6810.55
1875.29308	6788.65
1878.43152	6775.45
1881.56792	6760.95
1884.70227	6755.65
1887.83457	6735.95
1890.96482	6751.55
1894.09304	6718.15
1897.21921	6720.05
1900.34335	6709.25
1903.46544	6696.95
1906.58551	6718.75
1909.70353	6705.85
1912.81953	6683.55
1915.93349	6686.85
1919.04543	6663.25
1922.15534	6660.05
1925.26322	6625.65
1928.36908	6626.15
1931.47292	6626.95
1934.57473	6593.75
1937.67453	6580.65
1940.77232	6578.05
1943.86808	6549.65
1946.96184	6546.75
1950.05358	6528.65
1953.14331	6515.85
1956.23103	6494.95
1959.31675	6477.45
1962.40046	6464.85
1965.48217	6452.45
1968.56188	6419.15
1971.63959	6378.75
1974.7153	6357.95
1977.78901	6363.85
1980.86073	6340.75
1983.93046	6320.75
1986.99819	6309.25
1990.06394	6278.65
1993.1277	6258.25
1996.18947	6251.35
1999.24925	6241.65
2002.30706	6218.25
2005.36288	6185.55
2008.41672	6207.35
2011.46859	6157.65
2014.51848	6144.15
2017.56639	6133.35
2020.61233	6114.05
2023.6563	6086.05
2026.6983	6090.35
2029.73833	6062.85
2032.7764	6040.95
2035.8125	6032.35
2038.84664	6017.45
2041.87881	6016.05
2044.90903	5995.55
2047.93729	5992.85
2050.96359	5982.85
2053.98794	5969.65
2057.01034	5962.25
2060.03078	5956.45
2063.04927	5954.25
2066.06582	5951.95
2069.08042	5937.75
2072.09307	5930.05
2075.10378	5936.45
2078.11255	5918.55
2081.11938	5930.05
2084.12426	5920.45
2087.12722	5933.05
2090.12824	5927.45
2093.12732	5914.15
2096.12447	5905.15
2099.11969	5919.45
2102.11299	5939.55
2105.10435	5934.85
2108.09379	5934.25
2111.08131	5925.25
2114.0669	5930.45
2117.05057	5935.65
2120.03233	5939.85
2123.01216	5943.45
2125.99008	5930.05
2128.96609	5936.95
2131.94018	5942.85
2134.91236	5945.05
2137.88263	5938.25
2140.851	5954.55
2143.81746	5969.65
2146.78201	5941.75
2149.74466	5959.75
2152.7054	5954.25
2155.66425	5955.95
2158.6212	5961.65
2161.57625	5941.35
2164.52941	5946.55
2167.48067	5930.65
2170.43004	5938.55
2173.37752	5934.45
2176.32311	5939.05
2179.26681	5925.35
2182.20863	5958.25
2185.14856	5926.55
2188.08661	5920.95
2191.02278	5927.75
2193.95707	5916.65
2196.88948	5926.95
2199.82001	5917.05
2202.74867	5908.35
2205.67545	5894.95
2208.60037	5889.75
2211.52341	5872.85
2214.44458	5875.55
2217.36388	5849.15
2220.28132	5838.85
2223.1969	5819.45
2226.11061	5817.15
2229.02246	5798.65
2231.93245	5772.15
2234.84058	5774.45
2237.74686	5776.45
2240.65128	5762.95
2243.55385	5747.85
2246.45456	5748.05
2249.35343	5750.25
2252.25044	5736.75
2255.14561	5737.55
2258.03893	5721.95
2260.93041	5705.95
2263.82004	5698.75
2266.70783	5685.25
2269.59378	5668.55
2272.4779	5660.15
2275.36017	5648.25
2278.24061	5617.05
2281.11922	5608.15
2283.996	5613.55
2286.87094	5602.45
2289.74405	5591.85
2292.61534	5565.95
2295.4848	5578.05
2298.35243	5554.65
2301.21824	5572.95
2304.08223	5564.95
2306.94439	5552.55
2309.80474	5542.75
2312.66327	5530.15
2315.51999	5513.15
2318.37489	5511.25
2321.22797	5507.75
2324.07925	5492.45
2326.92871	5489.65
2329.77637	5478.65
2332.62222	5472.95
2335.46626	5447.95
2338.3085	5423.85
2341.14893	5416.15
2343.98756	5418.45
2346.8244	5427.55
2349.65943	5410.65
2352.49267	5398.75
2355.32411	5427.85
2358.15376	5413.65
2360.98161	5384.55
2363.80768	5386.85
2366.63195	5397.65
2369.45444	5377.55
2372.27514	5377.85
2375.09405	5356.15
2377.91118	5356.25
2380.72652	5349.65
2383.54009	5327.25
2386.35187	5324.95
2389.16188	5316.85
2391.97011	5290.45
2394.77657	5299.25
2397.58125	5265.35
2400.38416	5288.55
2403.18529	5264.05
2405.98466	5263.75
2408.78226	5244.45
2411.57809	5243.75
2414.37216	5233.25
2417.16446	5218.45
2419.955	5206.45
2422.74378	5218.15
2425.5308	5200.25
2428.31606	5195.65
2431.09956	5192.55
2433.88131	5178.45
2436.6613	5176.25
2439.43954	5170.15
2442.21603	5170.55
2444.99077	5178.65
2447.76377	5155.85
2450.53501	5138.65
2453.30451	5135.25
2456.07226	5122.35
2458.83827	5127.95
2461.60254	5115.05
2464.36507	5095.95
2467.12586	5110.25
2469.88492	5087.75
2472.64224	5099.15
2475.39782	5102.35
2478.15167	5096.45
2480.90379	5082.45
2483.65417	5073.95
2486.40283	5059.55
2489.14976	5085.45
2491.89497	5066.65
2494.63845	5045.55
2497.3802	5047.85
2500.12024	5045.65
2502.85855	5040.65
2505.59514	5038.15
2508.33002	5019.15
2511.06318	5011.15
2513.79462	5000.45
2516.52435	4996.35
2519.25237	4988.95
2521.97867	4984.95
2524.70327	4970.35
2527.42616	4948.45
2530.14734	4968.05
2532.86681	4954.85
2535.58458	4940.55
2538.30065	4932.15
2541.01501	4938.55
2543.72768	4916.45
2546.43864	4904.65
2549.14791	4876.55
2551.85548	4889.25
2554.56136	4885.05
2557.26554	4861.55
2559.96803	4863.75
2562.66883	4841.45
2565.36794	4822.55
2568.06536	4826.85
2570.7611	4829.65
2573.45514	4815.25
2576.14751	4792.05
2578.83819	4795.55
2581.52719	4768.05
2584.21451	4770.75
2586.90015	4754.45
2589.58411	4766.45
2592.2664	4751.15
2594.94701	4749.85
2597.62594	4735.15
2600.30321	4704.95
2602.9788	4708.45
2605.65273	4691.65
2608.32498	4687.15
2610.99557	4691.15
2613.66449	4676.05
2616.33175	4669.95
2618.99734	4658.65
2621.66128	4652.05
2624.32355	4645.75
2626.98416	4645.25
2629.64311	4635.75
2632.30041	4612.35
2634.95605	4609.65
2637.61004	4604.05
2640.26238	4587.15
2642.91306	4598.25
2645.56209	4590.75
2648.20948	4572.15
2650.85521	4573.75
2653.4993	4578.45
2656.14175	4562.25
2658.78255	4591.15
2661.42171	4575.15
2664.05923	4569.45
2666.6951	4560.95
2669.32934	4565.45
2671.96194	4569.85
2674.59291	4567.25
2677.22224	4556.85
2679.84993	4569.05
2682.476	4557.35
2685.10043	4547.95
2687.72324	4533.85
2690.34441	4539.55
2692.96396	4533.15
2695.58188	4538.65
2698.19818	4523.05
2700.81285	4533.85
2703.4259	4528.15
2706.03733	4522.45
2708.64714	4523.15
2711.25533	4535.05
2713.86191	4528.25
2716.46687	4527.95
2719.07021	4508.35
2721.67194	4513.55
2724.27206	4512.55
2726.87057	4509.65
2729.46747	4518.95
2732.06276	4518.45
2734.65644	4504.65
2737.24852	4505.75
2739.83899	4506.65
2742.42786	4509.75
2745.01513	4483.05
2747.60079	4483.55
2750.18486	4461.65
2752.76733	4457.65
2755.3482	4440.75
2757.92747	4449.75
2760.50515	4439.95
2763.08123	4427.05
2765.65573	4417.85
2768.22863	4426.05
2770.79994	4409.65
2773.36967	4402.75
2775.9378	4398.85
2778.50435	4389.75
2781.06932	4387.55
2783.6327	4377.45
2786.1945	4363.55
2788.75471	4365.35
2791.31335	4345.65
2793.87041	4336.75
2796.42589	4342.35
2798.97979	4329.45
2801.53212	4333.85
2804.08288	4306.05
2806.63206	4294.65
2809.17967	4288.35
2811.72571	4266.95
2814.27018	4265.95
2816.81308	4255.55
2819.35442	4241.95
2821.89419	4232.05
2824.43239	4227.05
2826.96904	4211.35
2829.50412	4217.75
2832.03763	4191.95
2834.56959	4205.45
2837.1	4199.45
2839.62884	4173.85
2842.15613	4174.95
2844.68186	4190.05
2847.20604	4156.95
2849.72867	4168.75
2852.24974	4167.85
2854.76927	4142.35
2857.28724	4146.45
2859.80367	4130.25
2862.31855	4137.95
2864.83189	4126.55
2867.34368	4114.35
2869.85393	4102.75
2872.36264	4095.95
2874.8698	4104.65
2877.37543	4107.15
2879.87952	4119.95
2882.38207	4103.15
2884.88308	4087.75
2887.38256	4080.95
2889.88051	4071.55
2892.37692	4094.25
2894.8718	4082.25
2897.36515	4090.05
2899.85698	4078.55
2902.34727	4101.85
2904.83604	4090.35
2907.32328	4100.95
2909.809	4091.75
2912.29319	4103.75
2914.77587	4097.35
2917.25702	4080.75
2919.73665	4087.55
2922.21476	4092.85
2924.69136	4084.95
2927.16644	4070.35
2929.64	4081.05
2932.11205	4061.45
2934.58258	4067.95
2937.05161	4051.85
2939.51912	4061.85
2941.98513	4048.15
2944.44962	4053.05
2946.91261	4030.75
2949.37409	4051.15
2951.83407	4054.55
2954.29254	4042.85
2956.74951	4047.65
2959.20498	4030.35
2961.65895	4026.55
2964.11142	4031.75
2966.56239	4041.25
2969.01186	4048.25
2971.45984	4048.95
2973.90632	4033.75
2976.35131	4033.55
2978.7948	4034.85
2981.23681	4009.85
2983.67732	4012.15
2986.11635	3994.15
2988.55388	3995.05
2990.98993	3996.95
2993.4245	3981.65
2995.85758	3971.15
2998.28917	3967.85
3000.71928	3970.35
3003.14791	3962.55
3005.57506	3951.25
3008.00073	3928.25
3010.42493	3930.55
3012.84764	3924.05
3015.26888	3925.15
3017.68865	3913.35
3020.10694	3918.15
3022.52376	3916.75
3024.9391	3897.55
3027.35298	3900.15
3029.76539	3901.25
3032.17632	3893.75
3034.5858	3890.55
3036.9938	3892.75
3039.40034	3889.85
3041.80542	3894.55
3044.20903	3881.05
3046.61118	3889.65
3049.01187	3865.85
3051.4111	3883.75
3053.80888	3873.05
3056.20519	3868.15
3058.60005	3842.15
3060.99345	3851.15
3063.3854	3849.55
3065.7759	3826.65
3068.16494	3817.15
3070.55254	3829.15
3072.93868	3821.75
3075.32338	3817.55
3077.70662	3811.85
3080.08842	3808.25
3082.46878	3804.15
3084.84769	3803.75
3087.22515	3815.75
3089.60118	3817.45
3091.97576	3813.85
3094.3489	3806.15
3096.72061	3830.25
3099.09087	3832.05
3101.4597	3820.45
3103.82709	3820.45
3106.19305	3832.75
3108.55757	3832.25
3110.92066	3827.45
3113.28232	3836.15
3115.64255	3822.85
3118.00134	3819.35
3120.35871	3815.15
3122.71466	3816.05
3125.06917	3808.85
3127.42226	3786.05
3129.77393	3804.75
3132.12417	3808.95
3134.47299	3807.15
3136.82039	3795.35
3139.16636	3804.95
3141.51092	3806.95
3143.85406	3809.15
3146.19579	3820.35
3148.53609	3817.25
3150.87499	3826.45
3153.21246	3839.55
3155.54853	3841.95
3157.88318	3858.55
3160.21642	3854.75
3162.54826	3859.85
3164.87868	3861.05
3167.2077	3872.45
3169.5353	3870.65
3171.86151	3874.95
3174.18631	3862.45
3176.5097	3861.85
3178.83169	3870.65
3181.15228	3860.15
3183.47147	3881.45
3185.78926	3863.15
3188.10565	3851.35
3190.42065	3840.35
3192.73424	3868.85
3195.04645	3876.45
3197.35725	3879.25
3199.66667	3864.05
3201.97469	3871.25
3204.28132	3861.15
3206.58656	3877.85
3208.8904	3877.65
3211.19287	3883.05
3213.49394	3896.95
3215.79363	3890.75
3218.09193	3890.85
3220.38884	3887.45
3222.68438	3894.45
3224.97853	3892.15
3227.2713	3895.75
3229.56269	3889.45
3231.8527	3887.55
3234.14133	3884.85
3236.42858	3880.05
3238.71446	3871.05
3240.99896	3863.35
3243.28209	3850.55
3245.56384	3827.95
3247.84423	3830.75
3250.12324	3852.05
3252.40088	3846.65
3254.67715	3836.85
3256.95205	3827.15
3259.22558	3838.75
3261.49775	3832.45
3263.76855	3819.45
3266.03799	3824.05
3268.30606	3834.45
3270.57277	3812.85
3272.83812	3811.55
3275.10211	3804.75
3277.36474	3789.95
3279.62601	3781.65
3281.88593	3790.65
3284.14448	3778.55
3286.40168	3789.35
3288.65753	3781.45
3290.91202	3773.95
3293.16516	3761.95
3295.41695	3734.75
3297.66738	3728.85
3299.91647	3726.85
3302.16421	3713.05
3304.4106	3685.05
3306.65564	3665.55
3308.89933	3621.85
3311.14169	3610.55
3313.38269	3580.45
3315.62236	3562.85
3317.86068	3533.25
3320.09766	3521.15
3322.3333	3497.75
3324.5676	3480.35
3326.80056	3411.25
3329.03219	3405.55
3331.26248	0.95
3333.49143	-0.15
3335.71905	0.55
