Data from AgNPs_UA_5uM_CRN_0uM_R6G_10uM_Q_RamanShift__35__11-30-05-334.txt Node

Date: Mon Jul 18 11:30:05 BST 2022
User: TCL
Spectrometer: QEP01345
Trigger mode: 4
Integration Time (sec): 7.000000E0
Scans to average: 10
Electric dark correction enabled: true
Nonlinearity correction enabled: false
Boxcar width: 0
XAxis mode: Raman Shifts
Number of Pixels in Spectrum: 1044
>>>>>Begin Spectral Data<<<<<
46.04893	-1.225
50.45542	-2.025
54.85868	-2.325
59.25871	-2.525
63.6555	156.875
68.04907	166.875
72.43941	171.375
76.82654	174.775
81.21044	182.375
85.59113	185.975
89.96862	197.775
94.34289	196.575
98.71396	213.375
103.08183	214.675
107.4465	218.575
111.80798	228.775
116.16626	235.375
120.52136	248.175
124.87327	255.575
129.222	275.375
133.56755	291.275
137.90993	319.175
142.24913	351.475
146.58517	404.975
150.91804	475.675
155.24774	566.075
159.57429	715.975
163.89768	931.575
168.21792	1237.575
172.53501	1705.575
176.84895	2391.675
181.15975	3378.075
185.46741	4737.975
189.77193	6525.275
194.07331	8708.275
198.37157	11185.275
202.6667	13790.075
206.9587	16342.275
211.24758	18874.675
215.53334	21427.475
219.81599	24174.475
224.09553	27259.975
228.37195	30716.475
232.64527	34538.075
236.91549	38368.575
241.18261	42091.675
245.44663	45366.675
249.70755	48204.075
253.96539	50555.975
258.22014	52590.375
262.4718	54324.775
266.72039	55478.375
270.96589	55922.875
275.20832	55819.675
279.44768	55284.275
283.68397	54589.075
287.91719	54026.675
292.14735	53649.275
296.37445	53854.275
300.59849	54546.475
304.81948	55513.475
309.03742	56321.575
313.25231	56614.375
317.46415	56235.675
321.67296	55408.275
325.87872	54650.875
330.08145	54420.375
334.28114	54472.175
338.47781	55064.375
342.67145	56034.375
346.86207	57217.275
351.04966	58502.175
355.23424	59700.575
359.4158	60647.575
363.59435	61285.975
367.76989	61678.375
371.94243	61838.775
376.11196	62064.475
380.27849	62383.775
384.44203	62859.675
388.60257	63263.875
392.76012	63650.075
396.91468	64301.775
401.06626	65116.375
405.21485	65533.475
409.36047	65002.075
413.50311	63910.975
417.64277	63222.775
421.77947	63056.175
425.9132	63381.675
430.04396	63882.375
434.17176	64621.875
438.2966	65888.775
442.41849	68021.375
446.53742	71041.475
450.6534	73961.175
454.76644	75379.475
458.87653	74912.775
462.98368	73233.775
467.08789	71396.975
471.18916	69474.175
475.2875	67394.575
479.38291	65661.175
483.4754	64293.975
487.56496	63498.775
491.6516	62905.175
495.73531	62750.275
499.81612	62949.875
503.89401	63400.875
507.96899	63571.475
512.04106	63525.175
516.11023	63742.575
520.1765	63983.075
524.23987	64443.675
528.30034	64893.175
532.35792	64790.175
536.41261	64008.375
540.46441	62721.975
544.51333	62375.775
548.55936	63006.175
552.60252	64529.875
556.64279	66416.675
560.6802	67586.275
564.71473	67665.975
568.7464	67937.675
572.7752	68981.875
576.80114	69848.575
580.82422	71223.475
584.84444	74507.575
588.86181	80064.375
592.87633	86580.175
596.888	88699.875
600.89682	84505.575
604.9028	82794.375
608.90594	89318.975
612.90624	96371.475
616.90371	88909.175
620.89834	73967.675
624.89015	67904.675
628.87913	67092.075
632.86528	67139.175
636.84862	66608.875
640.82913	65266.475
644.80683	63496.475
648.78172	62627.475
652.75379	63001.475
656.72306	64484.575
660.68952	65900.675
664.65319	65198.475
668.61405	63918.675
672.57211	63859.975
676.52738	64096.375
680.47986	63673.875
684.42955	62940.275
688.37646	62804.075
692.32058	63455.875
696.26192	64579.075
700.20048	65682.875
704.13626	65987.975
708.06928	65630.775
711.99952	65182.575
715.927	65324.975
719.85171	65740.075
723.77365	65475.375
727.69284	64589.975
731.60928	64083.075
735.52295	64230.975
739.43388	64552.875
743.34206	64970.975
747.24749	65332.975
751.15017	65857.875
755.05012	66944.575
758.94733	68958.675
762.8418	73042.075
766.73354	79347.775
770.62254	85144.375
774.50882	86175.875
778.39237	82137.575
782.27321	76165.775
786.15132	70968.975
790.02671	67796.975
793.89938	66279.875
797.76935	65563.975
801.6366	65175.075
805.50115	64874.475
809.36299	64549.275
813.22213	64173.375
817.07857	63825.975
820.93231	63553.675
824.78336	63566.375
828.63172	63716.875
832.47738	63819.975
836.32036	63966.475
840.16066	64314.875
843.99827	64451.275
847.8332	64297.575
851.66546	64246.775
855.49504	64386.275
859.32195	64438.075
863.1462	64166.675
866.96777	64022.675
870.78668	63974.075
874.60293	64060.575
878.41652	64266.675
882.22745	64609.475
886.03573	64844.075
889.84136	64724.275
893.64433	64379.775
897.44466	64067.275
901.24235	63915.475
905.0374	63789.775
908.8298	63703.175
912.61957	63739.075
916.40671	64201.275
920.19121	64964.275
923.97308	65810.775
927.75233	66490.175
931.52895	66395.375
935.30295	65505.475
939.07433	64378.975
942.84309	63622.875
946.60924	63344.975
950.37278	63237.675
954.13371	63088.875
957.89203	62958.475
961.64774	62823.075
965.40086	62784.075
969.15137	62700.575
972.89929	62852.875
976.64461	62969.175
980.38733	63329.775
984.12747	63780.875
987.86502	64443.175
991.59999	65159.575
995.33237	66380.975
999.06217	68293.675
1002.78939	70451.975
1006.51404	72006.375
1010.23611	73139.675
1013.95561	74115.575
1017.67255	74343.475
1021.38692	73458.675
1025.09872	71961.775
1028.80796	71504.375
1032.51465	72564.075
1036.21877	73794.275
1039.92035	73976.675
1043.61937	73151.475
1047.31584	71691.375
1051.00976	70232.075
1054.70114	69481.275
1058.38998	69465.475
1062.07627	69672.875
1065.76003	70179.575
1069.44126	70891.475
1073.11995	72092.175
1076.79611	73327.475
1080.46974	74145.375
1084.14085	74970.475
1087.80943	75865.875
1091.47549	76368.875
1095.13903	75948.175
1098.80005	74540.175
1102.45857	73267.675
1106.11456	72671.775
1109.76805	72851.975
1113.41903	73341.875
1117.06751	74159.675
1120.71348	75170.475
1124.35696	76122.875
1127.99793	77035.475
1131.63641	77032.375
1135.2724	76094.575
1138.90589	75231.675
1142.5369	75028.775
1146.16542	75237.175
1149.79145	75588.675
1153.415	75917.375
1157.03607	76318.675
1160.65467	77839.275
1164.27079	80744.375
1167.88443	85019.375
1171.49561	90659.175
1175.10432	98307.875
1178.71056	107718.875
1182.31434	115932.375
1185.91565	118585.275
1189.51451	115582.775
1193.11091	109880.975
1196.70485	104333.575
1200.29634	99799.375
1203.88538	96516.475
1207.47197	93917.075
1211.05612	91736.875
1214.63782	90404.975
1218.21708	89980.875
1221.79391	90493.775
1225.36829	91398.575
1228.94024	91462.875
1232.50976	89776.675
1236.07685	87438.775
1239.6415	85857.075
1243.20374	85513.375
1246.76355	86295.875
1250.32093	87624.875
1253.8759	89495.575
1257.42845	91967.175
1260.97859	94692.375
1264.52631	97472.575
1268.07163	100300.175
1271.61453	103247.175
1275.15503	105951.575
1278.69312	108566.175
1282.22882	110984.675
1285.76211	114177.775
1289.29301	118390.075
1292.82151	123273.275
1296.34761	129022.975
1299.87133	136344.575
1303.39266	145545.475
1306.9116	155848.875
1310.42815	165652.775
1313.94233	170970.375
1317.45412	168527.475
1320.96354	160854.975
1324.47058	152267.575
1327.97525	144849.975
1331.47754	139662.375
1334.97747	136652.175
1338.47502	134778.875
1341.97022	133534.675
1345.46305	133081.175
1348.95352	134679.175
1352.44163	139672.675
1355.92738	148990.675
1359.41078	161279.575
1362.89183	170575.075
1366.37053	167630.975
1369.84688	150972.875
1373.32088	131221.475
1376.79254	118719.375
1380.26186	114355.975
1383.72883	113673.975
1387.19347	112817.075
1390.65578	110325.175
1394.11575	108774.175
1397.57339	108864.675
1401.0287	109826.375
1404.48168	110591.375
1407.93234	110582.475
1411.38068	109919.275
1414.82669	108399.475
1418.27039	105929.975
1421.71177	103316.475
1425.15083	101338.375
1428.58758	100809.475
1432.02203	102557.675
1435.45416	105448.275
1438.88399	107607.475
1442.31151	108249.575
1445.73673	108083.375
1449.15965	107648.175
1452.58027	106343.075
1455.9986	104835.875
1459.41463	104652.675
1462.82837	105869.075
1466.23982	108234.575
1469.64898	110519.475
1473.05586	112092.475
1476.46045	113146.075
1479.86276	113487.675
1483.26279	113254.575
1486.66054	113419.075
1490.05602	114336.775
1493.44922	115833.375
1496.84016	117806.575
1500.22882	120957.075
1503.61521	125827.075
1506.99934	131548.575
1510.38121	135642.675
1513.76081	135602.775
1517.13816	130663.875
1520.51324	123819.175
1523.88607	118596.875
1527.25665	116373.275
1530.62498	116096.375
1533.99105	115716.175
1537.35488	114331.775
1540.71647	112144.875
1544.07581	109606.775
1547.4329	107042.775
1550.78776	104582.475
1554.14038	102659.975
1557.49077	101651.675
1560.83892	101314.475
1564.18484	101830.575
1567.52853	103026.975
1570.86999	104480.775
1574.20922	106060.575
1577.54624	106447.875
1580.88103	105124.375
1584.2136	104189.875
1587.54395	106099.775
1590.87208	111730.375
1594.19801	120547.875
1597.52172	129935.675
1600.84321	134193.575
1604.16251	129609.375
1607.47959	119027.775
1610.79447	107116.475
1614.10715	96895.875
1617.41763	89866.675
1620.7259	85541.175
1624.03199	83913.075
1627.33587	84610.375
1630.63757	87502.575
1633.93707	93229.575
1637.23439	102364.775
1640.52951	115881.375
1643.82246	132102.075
1647.11321	144175.175
1650.40179	144691.075
1653.68819	131917.175
1656.97241	112695.375
1660.25446	95945.375
1663.53433	84790.975
1666.81203	78082.175
1670.08756	74056.275
1673.36092	71439.475
1676.63211	69779.975
1679.90115	68631.175
1683.16801	67604.275
1686.43272	66864.875
1689.69527	66381.275
1692.95567	65986.175
1696.2139	65713.875
1699.46999	65570.775
1702.72392	65520.875
1705.97571	65447.475
1709.22535	65310.475
1712.47284	65452.475
1715.71819	65408.475
1718.96139	65381.175
1722.20246	65096.675
1725.44139	64718.475
1728.67818	64408.475
1731.91284	64153.275
1735.14537	63794.375
1738.37576	63652.475
1741.60403	63439.175
1744.83017	63285.575
1748.05418	63135.775
1751.27607	63106.475
1754.49584	62920.275
1757.71349	62841.775
1760.92903	62842.775
1764.14244	62851.975
1767.35375	62747.675
1770.56294	62649.375
1773.77002	62608.275
1776.97499	62568.875
1780.17785	62391.475
1783.37861	62338.375
1786.57727	62259.875
1789.77382	62225.175
1792.96828	62059.075
1796.16064	62020.175
1799.3509	61962.775
1802.53907	61779.275
1805.72514	61752.575
1808.90913	61685.075
1812.09102	61586.675
1815.27083	61446.875
1818.44856	61373.575
1821.6242	61391.575
1824.79776	61297.375
1827.96924	61226.475
1831.13864	61110.275
1834.30597	61101.375
1837.47122	61041.575
1840.6344	61040.075
1843.7955	61141.575
1846.95454	61173.875
1850.11151	60981.775
1853.26642	60964.075
1856.41926	60933.975
1859.57004	60993.275
1862.71876	60985.775
1865.86542	60976.075
1869.01003	61013.975
1872.15258	61047.775
1875.29308	60993.575
1878.43152	60852.675
1881.56792	60830.875
1884.70227	60750.875
1887.83457	60694.075
1890.96482	60671.175
1894.09304	60720.975
1897.21921	60678.675
1900.34335	60686.475
1903.46544	60656.275
1906.58551	60645.275
1909.70353	60606.975
1912.81953	60522.975
1915.93349	60396.975
1919.04543	60354.175
1922.15534	60280.175
1925.26322	60135.775
1928.36908	60013.675
1931.47292	60005.575
1934.57473	59807.575
1937.67453	59679.375
1940.77232	59572.775
1943.86808	59378.975
1946.96184	59233.775
1950.05358	59041.775
1953.14331	58953.875
1956.23103	58846.275
1959.31675	58671.975
1962.40046	58549.275
1965.48217	58516.275
1968.56188	58303.275
1971.63959	58147.375
1974.7153	58034.775
1977.78901	57935.775
1980.86073	57756.475
1983.93046	57539.175
1986.99819	57352.675
1990.06394	57292.775
1993.1277	57130.875
1996.18947	56862.775
1999.24925	56909.975
2002.30706	56782.475
2005.36288	56692.775
2008.41672	56609.675
2011.46859	56450.375
2014.51848	56306.075
2017.56639	56299.475
2020.61233	56205.575
2023.6563	56068.575
2026.6983	55870.075
2029.73833	55750.175
2032.7764	55583.175
2035.8125	55573.175
2038.84664	55460.875
2041.87881	55453.775
2044.90903	55311.875
2047.93729	55163.675
2050.96359	55358.575
2053.98794	55255.475
2057.01034	55208.375
2060.03078	55154.775
2063.04927	55036.175
2066.06582	55016.875
2069.08042	54961.775
2072.09307	54989.975
2075.10378	54928.275
2078.11255	54957.875
2081.11938	54991.175
2084.12426	54934.675
2087.12722	54793.275
2090.12824	54813.775
2093.12732	54867.475
2096.12447	54973.975
2099.11969	55028.075
2102.11299	55091.175
2105.10435	55099.575
2108.09379	55167.775
2111.08131	55194.375
2114.0669	55183.775
2117.05057	55145.275
2120.03233	55216.075
2123.01216	55281.175
2125.99008	55310.275
2128.96609	55498.775
2131.94018	55495.675
2134.91236	55570.275
2137.88263	55619.675
2140.851	55659.375
2143.81746	55669.175
2146.78201	55710.475
2149.74466	55818.975
2152.7054	55780.075
2155.66425	55802.775
2158.6212	55799.975
2161.57625	55755.275
2164.52941	55741.575
2167.48067	55825.575
2170.43004	55805.775
2173.37752	55826.675
2176.32311	55741.375
2179.26681	55781.275
2182.20863	55828.975
2185.14856	55937.975
2188.08661	55970.075
2191.02278	56000.575
2193.95707	55976.075
2196.88948	56078.175
2199.82001	56003.475
2202.74867	55989.675
2205.67545	55922.075
2208.60037	55875.375
2211.52341	55744.175
2214.44458	55658.175
2217.36388	55476.075
2220.28132	55517.575
2223.1969	55388.475
2226.11061	55289.275
2229.02246	55303.975
2231.93245	55281.775
2234.84058	55250.275
2237.74686	55154.875
2240.65128	55081.575
2243.55385	55020.275
2246.45456	54956.575
2249.35343	54895.275
2252.25044	54888.375
2255.14561	54817.975
2258.03893	54778.775
2260.93041	54679.075
2263.82004	54553.775
2266.70783	54388.775
2269.59378	54316.975
2272.4779	54277.875
2275.36017	54182.075
2278.24061	54030.975
2281.11922	54008.875
2283.996	53956.975
2286.87094	53888.675
2289.74405	53754.675
2292.61534	53733.475
2295.4848	53725.475
2298.35243	53754.575
2301.21824	53770.975
2304.08223	53767.775
2306.94439	53792.375
2309.80474	53809.675
2312.66327	53848.775
2315.51999	53817.575
2318.37489	53942.175
2321.22797	53908.975
2324.07925	53790.675
2326.92871	53739.175
2329.77637	53698.775
2332.62222	53696.375
2335.46626	53642.675
2338.3085	53645.075
2341.14893	53714.875
2343.98756	53637.775
2346.8244	53678.975
2349.65943	53730.075
2352.49267	53710.675
2355.32411	53761.675
2358.15376	53679.175
2360.98161	53618.475
2363.80768	53669.875
2366.63195	53589.575
2369.45444	53442.875
2372.27514	53376.075
2375.09405	53366.075
2377.91118	53262.975
2380.72652	53189.675
2383.54009	53100.875
2386.35187	53092.875
2389.16188	52957.575
2391.97011	52889.175
2394.77657	52835.275
2397.58125	52804.475
2400.38416	52697.975
2403.18529	52580.375
2405.98466	52618.075
2408.78226	52590.775
2411.57809	52514.575
2414.37216	52414.675
2417.16446	52400.675
2419.955	52273.675
2422.74378	52313.675
2425.5308	52315.675
2428.31606	52277.875
2431.09956	52343.375
2433.88131	52216.475
2436.6613	52255.875
2439.43954	52294.775
2442.21603	52338.275
2444.99077	52247.875
2447.76377	52264.475
2450.53501	52176.875
2453.30451	52243.375
2456.07226	52179.475
2458.83827	52121.375
2461.60254	52079.275
2464.36507	52128.975
2467.12586	52207.175
2469.88492	52173.275
2472.64224	52093.675
2475.39782	52040.175
2478.15167	52175.675
2480.90379	52257.375
2483.65417	52366.075
2486.40283	52426.375
2489.14976	52477.875
2491.89497	52465.075
2494.63845	52416.475
2497.3802	52313.775
2500.12024	52381.775
2502.85855	52333.175
2505.59514	52312.675
2508.33002	52232.875
2511.06318	52159.975
2513.79462	52142.175
2516.52435	52148.675
2519.25237	52071.975
2521.97867	52052.075
2524.70327	52051.575
2527.42616	51992.575
2530.14734	52045.775
2532.86681	51925.275
2535.58458	51908.375
2538.30065	51965.975
2541.01501	52016.875
2543.72768	51951.075
2546.43864	51900.175
2549.14791	51836.375
2551.85548	51861.775
2554.56136	51771.175
2557.26554	51694.675
2559.96803	51672.275
2562.66883	51619.275
2565.36794	51623.875
2568.06536	51538.575
2570.7611	51471.275
2573.45514	51415.975
2576.14751	51390.675
2578.83819	51334.775
2581.52719	51366.675
2584.21451	51360.775
2586.90015	51354.775
2589.58411	51288.275
2592.2664	51319.475
2594.94701	51200.875
2597.62594	51327.175
2600.30321	51236.275
2602.9788	51266.475
2605.65273	51105.075
2608.32498	51092.275
2610.99557	51088.875
2613.66449	51143.175
2616.33175	51153.375
2618.99734	51133.275
2621.66128	51140.075
2624.32355	51095.075
2626.98416	51121.675
2629.64311	51106.475
2632.30041	51066.575
2634.95605	50961.975
2637.61004	50895.575
2640.26238	50875.675
2642.91306	50875.675
2645.56209	50823.475
2648.20948	50813.875
2650.85521	50798.475
2653.4993	50854.375
2656.14175	50777.575
2658.78255	50873.775
2661.42171	50977.675
2664.05923	51137.575
2666.6951	51130.675
2669.32934	51184.075
2671.96194	51154.075
2674.59291	51179.275
2677.22224	51054.575
2679.84993	51053.675
2682.476	50905.675
2685.10043	50982.975
2687.72324	50914.375
2690.34441	50863.975
2692.96396	50834.275
2695.58188	50866.275
2698.19818	50789.175
2700.81285	50961.975
2703.4259	50859.175
2706.03733	51004.875
2708.64714	50968.575
2711.25533	51045.375
2713.86191	51071.075
2716.46687	51284.275
2719.07021	51245.375
2721.67194	51223.175
2724.27206	51224.575
2726.87057	51276.875
2729.46747	51250.175
2732.06276	51308.175
2734.65644	51287.075
2737.24852	51358.775
2739.83899	51265.675
2742.42786	51244.575
2745.01513	51110.275
2747.60079	51098.675
2750.18486	51104.875
2752.76733	51204.075
2755.3482	51208.975
2757.92747	51238.275
2760.50515	51197.175
2763.08123	51077.075
2765.65573	50975.575
2768.22863	50985.575
2770.79994	51018.075
2773.36967	51090.075
2775.9378	51058.075
2778.50435	50992.675
2781.06932	51014.475
2783.6327	51041.375
2786.1945	50957.075
2788.75471	50948.175
2791.31335	50725.875
2793.87041	50657.775
2796.42589	50534.775
2798.97979	50626.275
2801.53212	50505.675
2804.08288	50512.275
2806.63206	50423.775
2809.17967	50366.975
2811.72571	50267.675
2814.27018	50168.775
2816.81308	49980.475
2819.35442	49867.575
2821.89419	49695.875
2824.43239	49766.975
2826.96904	49686.775
2829.50412	49726.875
2832.03763	49708.975
2834.56959	49774.575
2837.1	49633.675
2839.62884	49734.575
2842.15613	49634.875
2844.68186	49521.175
2847.20604	49445.575
2849.72867	49463.275
2852.24974	49400.675
2854.76927	49356.375
2857.28724	49284.475
2859.80367	49282.875
2862.31855	49327.175
2864.83189	49395.075
2867.34368	49333.075
2869.85393	49322.875
2872.36264	49212.475
2874.8698	49143.175
2877.37543	49149.375
2879.87952	49126.875
2882.38207	49088.375
2884.88308	49076.075
2887.38256	49121.575
2889.88051	49007.875
2892.37692	49093.875
2894.8718	49185.075
2897.36515	49281.075
2899.85698	49320.575
2902.34727	49426.675
2904.83604	49381.975
2907.32328	49590.475
2909.809	49745.375
2912.29319	49780.175
2914.77587	49714.975
2917.25702	49791.575
2919.73665	49675.475
2922.21476	49708.575
2924.69136	49642.875
2927.16644	49611.275
2929.64	49530.975
2932.11205	49487.775
2934.58258	49256.875
2937.05161	49290.275
2939.51912	49263.775
2941.98513	49302.975
2944.44962	49255.275
2946.91261	49132.875
2949.37409	49238.175
2951.83407	49155.075
2954.29254	49238.575
2956.74951	49268.475
2959.20498	49204.275
2961.65895	49151.675
2964.11142	49179.875
2966.56239	49108.575
2969.01186	49166.275
2971.45984	49088.575
2973.90632	49039.875
2976.35131	48888.275
2978.7948	48841.875
2981.23681	48654.275
2983.67732	48581.175
2986.11635	48507.775
2988.55388	48416.375
2990.98993	48376.875
2993.4245	48203.575
2995.85758	48113.975
2998.28917	48070.275
3000.71928	48040.475
3003.14791	47915.075
3005.57506	47828.075
3008.00073	47594.275
3010.42493	47544.575
3012.84764	47464.375
3015.26888	47482.875
3017.68865	47405.675
3020.10694	47378.775
3022.52376	47254.075
3024.9391	47209.075
3027.35298	47208.275
3029.76539	47189.475
3032.17632	47212.775
3034.5858	47053.575
3036.9938	47124.475
3039.40034	47067.275
3041.80542	47067.475
3044.20903	46897.575
3046.61118	46872.775
3049.01187	46742.475
3051.4111	46767.875
3053.80888	46653.075
3056.20519	46615.775
3058.60005	46466.375
3060.99345	46373.375
3063.3854	46301.775
3065.7759	46172.875
3068.16494	46095.975
3070.55254	45884.275
3072.93868	45820.375
3075.32338	45662.975
3077.70662	45605.975
3080.08842	45486.275
3082.46878	45454.175
3084.84769	45451.175
3087.22515	45484.475
3089.60118	45417.175
3091.97576	45348.775
3094.3489	45412.075
3096.72061	45374.275
3099.09087	45398.575
3101.4597	45291.675
3103.82709	45234.375
3106.19305	45206.775
3108.55757	45185.475
3110.92066	45124.575
3113.28232	45118.675
3115.64255	45066.375
