Data from AgNPs_UA_100uM_CRN_0uM_R6G_10uM_Q_RamanShift__35__13-53-15-354.txt Node

Date: Tue Jul 26 13:53:15 BST 2022
User: TCL
Spectrometer: QEP01345
Trigger mode: 4
Integration Time (sec): 7.000000E0
Scans to average: 10
Electric dark correction enabled: true
Nonlinearity correction enabled: false
Boxcar width: 0
XAxis mode: Raman Shifts
Number of Pixels in Spectrum: 1044
>>>>>Begin Spectral Data<<<<<
46.04893	-0.6125
50.45542	1.0875
54.85868	-0.8125
59.25871	-0.7125
63.6555	54.9875
68.04907	58.1875
72.43941	60.1875
76.82654	65.0875
81.21044	70.0875
85.59113	70.2875
89.96862	74.8875
94.34289	81.0875
98.71396	81.2875
103.08183	82.4875
107.4465	82.4875
111.80798	83.0875
116.16626	85.5875
120.52136	86.2875
124.87327	87.1875
129.222	93.2875
133.56755	96.0875
137.90993	98.7875
142.24913	103.0875
146.58517	109.0875
150.91804	120.1875
155.24774	134.0875
159.57429	156.3875
163.89768	188.7875
168.21792	248.3875
172.53501	316.1875
176.84895	427.4875
181.15975	595.8875
185.46741	825.2875
189.77193	1128.2875
194.07331	1497.2875
198.37157	1921.6875
202.6667	2371.9875
206.9587	2807.1875
211.24758	3271.6875
215.53334	3740.4875
219.81599	4269.9875
224.09553	4831.7875
228.37195	5490.7875
232.64527	6179.1875
236.91549	6873.5875
241.18261	7505.4875
245.44663	7993.7875
249.70755	8412.0875
253.96539	8783.7875
258.22014	9076.9875
262.4718	9360.3875
266.72039	9578.7875
270.96589	9644.0875
275.20832	9573.7875
279.44768	9374.7875
283.68397	9138.5875
287.91719	9010.7875
292.14735	8979.3875
296.37445	9137.3875
300.59849	9453.8875
304.81948	9811.4875
309.03742	10090.6875
313.25231	10096.9875
317.46415	9794.0875
321.67296	9297.8875
325.87872	8890.6875
330.08145	8726.8875
334.28114	8768.0875
338.47781	8908.6875
342.67145	9121.2875
346.86207	9436.3875
351.04966	9894.8875
355.23424	10358.1875
359.4158	10703.6875
363.59435	10880.2875
367.76989	10923.6875
371.94243	10915.1875
376.11196	10923.6875
380.27849	10933.6875
384.44203	10900.9875
388.60257	10856.8875
392.76012	10858.0875
396.91468	10887.6875
401.06626	11048.5875
405.21485	11164.4875
409.36047	10959.8875
413.50311	10457.6875
417.64277	10047.4875
421.77947	9820.1875
425.9132	9723.0875
430.04396	9725.7875
434.17176	9873.0875
438.2966	10070.1875
442.41849	10358.7875
446.53742	10719.8875
450.6534	10989.5875
454.76644	11128.1875
458.87653	11150.9875
462.98368	10974.9875
467.08789	10784.3875
471.18916	10625.5875
475.2875	10411.4875
479.38291	10198.2875
483.4754	10054.5875
487.56496	9972.5875
491.6516	9929.1875
495.73531	9936.6875
499.81612	9973.9875
503.89401	10080.8875
507.96899	10168.9875
512.04106	10283.9875
516.11023	10414.9875
520.1765	10558.6875
524.23987	10588.0875
528.30034	10607.2875
532.35792	10541.6875
536.41261	10452.0875
540.46441	10291.4875
544.51333	10215.9875
548.55936	10255.1875
552.60252	10383.4875
556.64279	10569.3875
560.6802	10707.1875
564.71473	10834.6875
568.7464	11052.7875
572.7752	11136.7875
576.80114	10866.3875
580.82422	10624.8875
584.84444	10690.0875
588.86181	10988.9875
592.87633	11557.0875
596.888	12176.9875
600.89682	12658.5875
604.9028	13586.2875
608.90594	16128.7875
612.90624	19082.4875
616.90371	17623.4875
620.89834	13236.7875
624.89015	11400.8875
628.87913	11131.1875
632.86528	11369.8875
636.84862	11490.0875
640.82913	11347.2875
644.80683	10902.4875
648.78172	10621.0875
652.75379	10638.7875
656.72306	10899.4875
660.68952	11196.6875
664.65319	10981.8875
668.61405	10524.2875
672.57211	10366.7875
676.52738	10390.0875
680.47986	10333.7875
684.42955	10233.5875
688.37646	10165.1875
692.32058	10220.0875
696.26192	10343.7875
700.20048	10467.1875
704.13626	10552.7875
708.06928	10472.9875
711.99952	10425.0875
715.927	10442.3875
719.85171	10548.6875
723.77365	10587.3875
727.69284	10560.9875
731.60928	10513.8875
735.52295	10510.9875
739.43388	10557.2875
743.34206	10608.5875
747.24749	10604.4875
751.15017	10611.2875
755.05012	10717.4875
758.94733	11154.7875
762.8418	12204.3875
766.73354	13801.0875
770.62254	15399.8875
774.50882	16116.8875
778.39237	15451.6875
782.27321	13806.9875
786.15132	12199.4875
790.02671	11254.1875
793.89938	10847.1875
797.76935	10664.8875
801.6366	10596.0875
805.50115	10586.2875
809.36299	10597.9875
813.22213	10573.4875
817.07857	10577.1875
820.93231	10557.3875
824.78336	10555.8875
828.63172	10573.5875
832.47738	10576.8875
836.32036	10535.6875
840.16066	10525.3875
843.99827	10476.9875
847.8332	10478.4875
851.66546	10481.9875
855.49504	10518.4875
859.32195	10518.8875
863.1462	10499.6875
866.96777	10473.1875
870.78668	10468.5875
874.60293	10557.4875
878.41652	10628.3875
882.22745	10716.0875
886.03573	10788.3875
889.84136	10826.6875
893.64433	10778.2875
897.44466	10746.6875
901.24235	10668.3875
905.0374	10587.9875
908.8298	10556.3875
912.61957	10503.4875
916.40671	10500.1875
920.19121	10537.9875
923.97308	10610.2875
927.75233	10744.5875
931.52895	10829.6875
935.30295	10765.0875
939.07433	10542.3875
942.84309	10378.1875
946.60924	10276.2875
950.37278	10240.6875
954.13371	10225.5875
957.89203	10239.6875
961.64774	10190.9875
965.40086	10200.1875
969.15137	10188.3875
972.89929	10170.9875
976.64461	10166.2875
980.38733	10207.1875
984.12747	10230.8875
987.86502	10341.4875
991.59999	10453.2875
995.33237	10575.7875
999.06217	10784.7875
1002.78939	11017.4875
1006.51404	11168.6875
1010.23611	11345.9875
1013.95561	11444.4875
1017.67255	11472.0875
1021.38692	11341.9875
1025.09872	11180.2875
1028.80796	11122.0875
1032.51465	11191.8875
1036.21877	11282.4875
1039.92035	11246.2875
1043.61937	11240.2875
1047.31584	11149.1875
1051.00976	11057.2875
1054.70114	10966.8875
1058.38998	10950.7875
1062.07627	10966.3875
1065.76003	10978.6875
1069.44126	11013.5875
1073.11995	11125.7875
1076.79611	11322.2875
1080.46974	11527.7875
1084.14085	11792.2875
1087.80943	12013.0875
1091.47549	12061.8875
1095.13903	11889.7875
1098.80005	11630.5875
1102.45857	11431.4875
1106.11456	11440.2875
1109.76805	11597.8875
1113.41903	11815.2875
1117.06751	12174.2875
1120.71348	12598.7875
1124.35696	13046.4875
1127.99793	13405.0875
1131.63641	13324.1875
1135.2724	12875.8875
1138.90589	12418.6875
1142.5369	12131.7875
1146.16542	11895.4875
1149.79145	11719.8875
1153.415	11642.1875
1157.03607	11630.0875
1160.65467	11747.7875
1164.27079	12046.9875
1167.88443	12554.2875
1171.49561	13351.6875
1175.10432	14654.7875
1178.71056	16452.9875
1182.31434	18060.6875
1185.91565	18448.6875
1189.51451	17823.6875
1193.11091	16665.0875
1196.70485	15560.4875
1200.29634	14769.1875
1203.88538	14151.8875
1207.47197	13518.7875
1211.05612	12962.6875
1214.63782	12657.3875
1218.21708	12551.7875
1221.79391	12629.1875
1225.36829	12745.1875
1228.94024	12753.8875
1232.50976	12617.2875
1236.07685	12439.3875
1239.6415	12395.8875
1243.20374	12431.7875
1246.76355	12540.3875
1250.32093	12638.7875
1253.8759	12808.2875
1257.42845	13096.2875
1260.97859	13505.9875
1264.52631	13905.8875
1268.07163	14298.0875
1271.61453	14604.3875
1275.15503	14813.7875
1278.69312	14880.7875
1282.22882	15006.8875
1285.76211	15305.2875
1289.29301	15789.8875
1292.82151	16384.2875
1296.34761	17038.1875
1299.87133	17976.2875
1303.39266	19444.1875
1306.9116	21510.7875
1310.42815	23576.5875
1313.94233	24327.9875
1317.45412	23377.2875
1320.96354	21557.3875
1324.47058	19664.4875
1327.97525	18085.4875
1331.47754	17029.0875
1334.97747	16557.5875
1338.47502	16536.3875
1341.97022	16879.3875
1345.46305	17552.6875
1348.95352	18692.7875
1352.44163	20258.4875
1355.92738	22572.6875
1359.41078	25914.6875
1362.89183	28630.4875
1366.37053	27555.0875
1369.84688	23400.7875
1373.32088	19539.1875
1376.79254	17264.7875
1380.26186	16239.7875
1383.72883	15660.4875
1387.19347	15077.0875
1390.65578	14487.8875
1394.11575	14053.6875
1397.57339	13891.1875
1401.0287	13848.3875
1404.48168	13878.3875
1407.93234	13864.9875
1411.38068	13841.4875
1414.82669	13871.7875
1418.27039	13851.6875
1421.71177	13743.3875
1425.15083	13531.3875
1428.58758	13507.1875
1432.02203	13747.2875
1435.45416	14033.9875
1438.88399	14174.8875
1442.31151	14184.0875
1445.73673	14165.9875
1449.15965	14136.7875
1452.58027	14009.5875
1455.9986	13710.1875
1459.41463	13606.5875
1462.82837	13717.7875
1466.23982	13993.1875
1469.64898	14336.0875
1473.05586	14672.8875
1476.46045	14934.9875
1479.86276	15187.3875
1483.26279	15456.7875
1486.66054	15801.5875
1490.05602	16254.8875
1493.44922	16922.6875
1496.84016	17828.6875
1500.22882	19280.6875
1503.61521	21342.1875
1506.99934	23647.0875
1510.38121	25245.0875
1513.76081	25045.9875
1517.13816	22977.1875
1520.51324	20152.7875
1523.88607	17805.3875
1527.25665	16451.5875
1530.62498	15779.6875
1533.99105	15391.3875
1537.35488	15129.1875
1540.71647	14930.7875
1544.07581	14785.3875
1547.4329	14697.2875
1550.78776	14613.7875
1554.14038	14566.2875
1557.49077	14569.3875
1560.83892	14664.7875
1564.18484	14980.6875
1567.52853	15494.1875
1570.86999	15967.8875
1574.20922	16265.2875
1577.54624	16123.1875
1580.88103	15398.1875
1584.2136	14559.8875
1587.54395	14180.3875
1590.87208	14433.7875
1594.19801	15300.9875
1597.52172	16370.9875
1600.84321	16954.3875
1604.16251	16586.3875
1607.47959	15616.4875
1610.79447	14472.7875
1614.10715	13423.5875
1617.41763	12734.4875
1620.7259	12305.4875
1624.03199	12127.9875
1627.33587	12179.5875
1630.63757	12444.8875
1633.93707	12999.9875
1637.23439	13920.4875
1640.52951	15496.9875
1643.82246	17630.3875
1647.11321	19796.9875
1650.40179	20757.5875
1653.68819	19606.5875
1656.97241	17022.9875
1660.25446	14574.8875
1663.53433	12921.9875
1666.81203	12015.2875
1670.08756	11488.5875
1673.36092	11167.4875
1676.63211	10977.8875
1679.90115	10835.4875
1683.16801	10721.8875
1686.43272	10597.1875
1689.69527	10480.6875
1692.95567	10407.6875
1696.2139	10393.5875
1699.46999	10344.4875
1702.72392	10290.8875
1705.97571	10249.9875
1709.22535	10223.6875
1712.47284	10203.4875
1715.71819	10176.0875
1718.96139	10131.5875
1722.20246	10134.3875
1725.44139	10052.0875
1728.67818	10027.1875
1731.91284	9966.2875
1735.14537	9913.8875
1738.37576	9908.8875
1741.60403	9856.9875
1744.83017	9828.1875
1748.05418	9781.1875
1751.27607	9759.4875
1754.49584	9772.1875
1757.71349	9754.5875
1760.92903	9721.8875
1764.14244	9746.9875
1767.35375	9724.3875
1770.56294	9712.2875
1773.77002	9713.0875
1776.97499	9667.7875
1780.17785	9669.8875
1783.37861	9646.3875
1786.57727	9643.3875
1789.77382	9625.9875
1792.96828	9613.9875
1796.16064	9626.7875
1799.3509	9600.1875
1802.53907	9569.8875
1805.72514	9562.9875
1808.90913	9525.5875
1812.09102	9489.0875
1815.27083	9491.5875
1818.44856	9472.7875
1821.6242	9464.4875
1824.79776	9458.3875
1827.96924	9413.0875
1831.13864	9405.6875
1834.30597	9395.6875
1837.47122	9381.8875
1840.6344	9376.5875
1843.7955	9371.1875
1846.95454	9371.8875
1850.11151	9346.1875
1853.26642	9340.6875
1856.41926	9360.8875
1859.57004	9357.4875
1862.71876	9348.0875
1865.86542	9362.9875
1869.01003	9341.1875
1872.15258	9331.7875
1875.29308	9331.3875
1878.43152	9345.2875
1881.56792	9343.2875
1884.70227	9314.3875
1887.83457	9307.8875
1890.96482	9301.1875
1894.09304	9297.2875
1897.21921	9288.8875
1900.34335	9280.9875
1903.46544	9280.1875
1906.58551	9268.5875
1909.70353	9269.0875
1912.81953	9269.9875
1915.93349	9243.2875
1919.04543	9241.2875
1922.15534	9257.0875
1925.26322	9234.9875
1928.36908	9215.2875
1931.47292	9196.5875
1934.57473	9169.9875
1937.67453	9156.2875
1940.77232	9133.8875
1943.86808	9098.3875
1946.96184	9081.4875
1950.05358	9036.3875
1953.14331	9046.8875
1956.23103	9012.1875
1959.31675	8970.4875
1962.40046	8960.4875
1965.48217	8940.3875
1968.56188	8960.0875
1971.63959	8908.7875
1974.7153	8863.5875
1977.78901	8856.5875
1980.86073	8819.9875
1983.93046	8782.0875
1986.99819	8782.0875
1990.06394	8763.1875
1993.1277	8727.4875
1996.18947	8699.0875
1999.24925	8664.0875
2002.30706	8640.8875
2005.36288	8620.9875
2008.41672	8593.9875
2011.46859	8550.5875
2014.51848	8546.3875
2017.56639	8527.0875
2020.61233	8501.6875
2023.6563	8484.4875
2026.6983	8469.4875
2029.73833	8483.3875
2032.7764	8431.0875
2035.8125	8437.7875
2038.84664	8417.6875
2041.87881	8430.0875
2044.90903	8407.2875
2047.93729	8395.5875
2050.96359	8385.9875
2053.98794	8369.9875
2057.01034	8369.6875
2060.03078	8368.2875
2063.04927	8352.4875
2066.06582	8343.2875
2069.08042	8331.7875
2072.09307	8349.8875
2075.10378	8312.1875
2078.11255	8321.7875
2081.11938	8339.0875
2084.12426	8321.8875
2087.12722	8317.8875
2090.12824	8332.8875
2093.12732	8323.5875
2096.12447	8315.7875
2099.11969	8311.5875
2102.11299	8309.8875
2105.10435	8328.5875
2108.09379	8325.3875
2111.08131	8330.4875
2114.0669	8330.0875
2117.05057	8333.1875
2120.03233	8334.0875
2123.01216	8359.6875
2125.99008	8380.8875
2128.96609	8381.2875
2131.94018	8378.3875
2134.91236	8400.1875
2137.88263	8398.0875
2140.851	8405.3875
2143.81746	8414.8875
2146.78201	8416.6875
2149.74466	8410.9875
2152.7054	8428.5875
2155.66425	8398.7875
2158.6212	8387.1875
2161.57625	8422.4875
2164.52941	8397.5875
2167.48067	8387.5875
2170.43004	8384.3875
2173.37752	8365.6875
2176.32311	8381.8875
2179.26681	8395.0875
2182.20863	8380.8875
2185.14856	8373.2875
2188.08661	8377.2875
2191.02278	8398.4875
2193.95707	8379.7875
2196.88948	8379.3875
2199.82001	8370.7875
2202.74867	8391.5875
2205.67545	8367.6875
2208.60037	8373.9875
2211.52341	8360.8875
2214.44458	8357.4875
2217.36388	8319.3875
2220.28132	8302.2875
2223.1969	8294.2875
2226.11061	8272.6875
2229.02246	8247.9875
2231.93245	8256.7875
2234.84058	8247.0875
2237.74686	8227.8875
2240.65128	8232.3875
2243.55385	8207.0875
2246.45456	8216.8875
2249.35343	8169.7875
2252.25044	8215.1875
2255.14561	8180.6875
2258.03893	8162.1875
2260.93041	8187.0875
2263.82004	8164.1875
2266.70783	8145.4875
2269.59378	8117.7875
2272.4779	8136.6875
2275.36017	8087.6875
2278.24061	8073.3875
2281.11922	8061.2875
2283.996	8077.6875
2286.87094	8039.5875
2289.74405	8012.4875
2292.61534	8007.2875
2295.4848	7994.5875
2298.35243	8001.0875
2301.21824	7987.3875
2304.08223	8003.7875
2306.94439	7988.3875
2309.80474	7996.3875
2312.66327	7979.2875
2315.51999	7993.3875
2318.37489	7982.6875
2321.22797	7953.7875
2324.07925	7946.7875
2326.92871	7939.8875
2329.77637	7948.2875
2332.62222	7948.2875
2335.46626	7918.0875
2338.3085	7893.8875
2341.14893	7892.1875
2343.98756	7924.3875
2346.8244	7911.5875
2349.65943	7915.9875
2352.49267	7909.7875
2355.32411	7879.2875
2358.15376	7893.0875
2360.98161	7884.2875
2363.80768	7868.9875
2366.63195	7886.0875
2369.45444	7888.6875
2372.27514	7881.4875
2375.09405	7878.0875
2377.91118	7855.8875
2380.72652	7850.8875
2383.54009	7823.6875
2386.35187	7807.9875
2389.16188	7780.3875
2391.97011	7778.4875
2394.77657	7749.9875
2397.58125	7728.1875
2400.38416	7731.7875
2403.18529	7710.0875
2405.98466	7693.1875
2408.78226	7688.0875
2411.57809	7697.7875
2414.37216	7669.8875
2417.16446	7675.1875
2419.955	7632.1875
2422.74378	7641.4875
2425.5308	7638.5875
2428.31606	7653.6875
2431.09956	7628.2875
2433.88131	7634.8875
2436.6613	7617.3875
2439.43954	7629.2875
2442.21603	7636.7875
2444.99077	7624.4875
2447.76377	7622.4875
2450.53501	7628.0875
2453.30451	7622.7875
2456.07226	7594.4875
2458.83827	7595.3875
2461.60254	7598.8875
2464.36507	7593.9875
2467.12586	7582.3875
2469.88492	7586.5875
2472.64224	7578.9875
2475.39782	7575.7875
2478.15167	7592.7875
2480.90379	7596.3875
2483.65417	7610.0875
2486.40283	7610.8875
2489.14976	7610.5875
2491.89497	7612.4875
2494.63845	7595.6875
2497.3802	7599.5875
2500.12024	7600.2875
2502.85855	7569.8875
2505.59514	7580.1875
2508.33002	7547.1875
2511.06318	7542.0875
2513.79462	7512.1875
2516.52435	7505.8875
2519.25237	7494.0875
2521.97867	7472.4875
2524.70327	7446.9875
2527.42616	7417.6875
2530.14734	7445.4875
2532.86681	7442.3875
2535.58458	7439.0875
2538.30065	7423.2875
2541.01501	7417.7875
2543.72768	7402.9875
2546.43864	7415.2875
2549.14791	7374.8875
2551.85548	7393.5875
2554.56136	7380.4875
2557.26554	7383.2875
2559.96803	7372.6875
2562.66883	7363.5875
2565.36794	7331.1875
2568.06536	7338.3875
2570.7611	7316.6875
2573.45514	7302.8875
2576.14751	7316.0875
2578.83819	7318.6875
2581.52719	7308.5875
2584.21451	7278.4875
2586.90015	7281.5875
2589.58411	7284.6875
2592.2664	7255.6875
2594.94701	7263.4875
2597.62594	7263.4875
2600.30321	7236.5875
2602.9788	7219.0875
2605.65273	7221.9875
2608.32498	7200.8875
2610.99557	7215.2875
2613.66449	7219.7875
2616.33175	7207.1875
2618.99734	7214.9875
2621.66128	7203.0875
2624.32355	7185.1875
2626.98416	7163.5875
2629.64311	7187.3875
2632.30041	7170.4875
2634.95605	7142.4875
2637.61004	7141.6875
2640.26238	7131.2875
2642.91306	7129.6875
2645.56209	7102.2875
2648.20948	7099.8875
2650.85521	7103.6875
2653.4993	7102.9875
2656.14175	7084.6875
2658.78255	7108.9875
2661.42171	7089.5875
2664.05923	7120.5875
2666.6951	7104.5875
2669.32934	7113.7875
2671.96194	7130.4875
2674.59291	7121.8875
2677.22224	7123.0875
2679.84993	7133.0875
2682.476	7106.7875
2685.10043	7125.3875
2687.72324	7089.7875
2690.34441	7074.9875
2692.96396	7089.7875
2695.58188	7096.9875
2698.19818	7092.4875
2700.81285	7066.7875
2703.4259	7075.1875
2706.03733	7095.4875
2708.64714	7068.5875
2711.25533	7090.7875
2713.86191	7112.8875
2716.46687	7112.4875
2719.07021	7097.8875
2721.67194	7112.9875
2724.27206	7101.2875
2726.87057	7119.9875
2729.46747	7101.9875
2732.06276	7098.9875
2734.65644	7107.5875
2737.24852	7104.7875
2739.83899	7088.3875
2742.42786	7099.9875
2745.01513	7054.1875
2747.60079	7056.6875
2750.18486	7037.7875
2752.76733	7036.3875
2755.3482	7029.5875
2757.92747	7030.4875
2760.50515	7035.0875
2763.08123	7030.0875
2765.65573	7015.0875
2768.22863	7016.8875
2770.79994	7012.1875
2773.36967	6989.3875
2775.9378	6964.5875
2778.50435	6965.3875
2781.06932	6979.8875
2783.6327	6963.2875
2786.1945	6966.1875
2788.75471	6978.1875
2791.31335	6956.7875
2793.87041	6942.1875
2796.42589	6948.4875
2798.97979	6915.3875
2801.53212	6924.7875
2804.08288	6911.6875
2806.63206	6891.8875
2809.17967	6880.1875
2811.72571	6864.6875
2814.27018	6870.2875
2816.81308	6835.6875
2819.35442	6828.8875
2821.89419	6829.5875
2824.43239	6819.1875
2826.96904	6833.0875
2829.50412	6817.6875
2832.03763	6783.7875
2834.56959	6800.4875
2837.1	6789.1875
2839.62884	6808.4875
2842.15613	6784.8875
2844.68186	6797.1875
2847.20604	6775.6875
2849.72867	6764.7875
2852.24974	6747.4875
2854.76927	6755.2875
2857.28724	6748.2875
2859.80367	6737.2875
2862.31855	6740.7875
2864.83189	6759.9875
2867.34368	6739.0875
2869.85393	6734.6875
2872.36264	6707.4875
2874.8698	6745.3875
2877.37543	6720.9875
2879.87952	6701.3875
2882.38207	6719.6875
2884.88308	6716.9875
2887.38256	6737.0875
2889.88051	6731.7875
2892.37692	6732.0875
2894.8718	6738.6875
2897.36515	6736.2875
2899.85698	6726.9875
2902.34727	6724.6875
2904.83604	6741.4875
2907.32328	6785.9875
2909.809	6757.8875
2912.29319	6744.8875
2914.77587	6757.6875
2917.25702	6744.8875
2919.73665	6744.5875
2922.21476	6753.4875
2924.69136	6720.5875
2927.16644	6747.8875
2929.64	6712.9875
2932.11205	6724.9875
2934.58258	6683.3875
2937.05161	6697.7875
2939.51912	6701.7875
2941.98513	6700.2875
2944.44962	6689.8875
2946.91261	6677.6875
2949.37409	6683.1875
2951.83407	6652.9875
2954.29254	6662.1875
2956.74951	6673.0875
2959.20498	6659.6875
2961.65895	6670.8875
2964.11142	6673.6875
2966.56239	6642.1875
2969.01186	6645.7875
2971.45984	6646.0875
2973.90632	6651.3875
2976.35131	6638.5875
2978.7948	6621.7875
2981.23681	6596.1875
2983.67732	6601.2875
2986.11635	6590.7875
2988.55388	6594.2875
2990.98993	6552.4875
2993.4245	6544.3875
2995.85758	6520.8875
2998.28917	6522.3875
3000.71928	6528.6875
3003.14791	6499.1875
3005.57506	6515.3875
3008.00073	6490.6875
3010.42493	6480.7875
3012.84764	6463.0875
3015.26888	6471.0875
3017.68865	6453.6875
3020.10694	6460.5875
3022.52376	6442.4875
3024.9391	6443.4875
3027.35298	6439.9875
3029.76539	6405.8875
3032.17632	6413.8875
3034.5858	6402.2875
3036.9938	6405.9875
3039.40034	6404.7875
3041.80542	6401.4875
3044.20903	6379.6875
3046.61118	6373.8875
3049.01187	6371.9875
3051.4111	6349.3875
3053.80888	6356.1875
3056.20519	6362.7875
3058.60005	6336.0875
3060.99345	6339.1875
3063.3854	6325.8875
3065.7759	6309.2875
3068.16494	6302.4875
3070.55254	6270.3875
3072.93868	6260.9875
3075.32338	6264.1875
3077.70662	6272.0875
3080.08842	6241.3875
3082.46878	6227.6875
3084.84769	6228.7875
