Data from AgNPs_UA_100uM_CRN_0uM_R6G_10uM_Q_RamanShift__0__13-12-25-316.txt Node

Date: Tue Jul 26 13:12:25 BST 2022
User: TCL
Spectrometer: QEP01345
Trigger mode: 4
Integration Time (sec): 7.000000E0
Scans to average: 10
Electric dark correction enabled: true
Nonlinearity correction enabled: false
Boxcar width: 0
XAxis mode: Raman Shifts
Number of Pixels in Spectrum: 1044
>>>>>Begin Spectral Data<<<<<
46.04893	-0.7125
50.45542	0.1875
54.85868	-0.0125
59.25871	-1.3125
63.6555	79.3875
68.04907	82.4875
72.43941	86.4875
76.82654	89.7875
81.21044	96.5875
85.59113	95.9875
89.96862	108.9875
94.34289	109.5875
98.71396	115.3875
103.08183	112.9875
107.4465	113.9875
111.80798	115.8875
116.16626	121.8875
120.52136	124.7875
124.87327	132.2875
129.222	138.3875
133.56755	146.2875
137.90993	151.5875
142.24913	163.0875
146.58517	173.3875
150.91804	198.0875
155.24774	232.0875
159.57429	280.0875
163.89768	351.6875
168.21792	464.7875
172.53501	619.3875
176.84895	854.0875
181.15975	1197.6875
185.46741	1679.6875
189.77193	2309.3875
194.07331	3067.2875
198.37157	3949.0875
202.6667	4880.2875
206.9587	5788.0875
211.24758	6703.9875
215.53334	7605.5875
219.81599	8585.0875
224.09553	9681.3875
228.37195	10855.9875
232.64527	12194.9875
236.91549	13553.4875
241.18261	14908.2875
245.44663	16083.3875
249.70755	17144.4875
253.96539	17986.0875
258.22014	18753.9875
262.4718	19363.5875
266.72039	19752.4875
270.96589	19979.0875
275.20832	19920.8875
279.44768	19736.2875
283.68397	19486.0875
287.91719	19306.0875
292.14735	19234.4875
296.37445	19289.4875
300.59849	19536.7875
304.81948	19872.4875
309.03742	20129.8875
313.25231	20200.1875
317.46415	19987.3875
321.67296	19521.2875
325.87872	19098.3875
330.08145	18907.1875
334.28114	18988.5875
338.47781	19220.7875
342.67145	19483.7875
346.86207	19907.0875
351.04966	20451.3875
355.23424	20925.0875
359.4158	21365.7875
363.59435	21635.7875
367.76989	21803.6875
371.94243	21905.9875
376.11196	21927.1875
380.27849	22013.3875
384.44203	22077.4875
388.60257	22162.5875
392.76012	22326.6875
396.91468	22541.1875
401.06626	22879.6875
405.21485	23128.6875
409.36047	22970.6875
413.50311	22543.9875
417.64277	22175.1875
421.77947	22060.9875
425.9132	22082.5875
430.04396	22210.4875
434.17176	22388.5875
438.2966	22607.6875
442.41849	22963.4875
446.53742	23399.1875
450.6534	23857.3875
454.76644	24147.4875
458.87653	24176.0875
462.98368	24104.5875
467.08789	23927.3875
471.18916	23704.9875
475.2875	23397.3875
479.38291	23080.1875
483.4754	22804.0875
487.56496	22693.6875
491.6516	22672.2875
495.73531	22687.3875
499.81612	22795.7875
503.89401	22958.3875
507.96899	23086.8875
512.04106	23188.0875
516.11023	23271.0875
520.1765	23298.5875
524.23987	23407.8875
528.30034	23405.7875
532.35792	23365.3875
536.41261	23218.5875
540.46441	23002.0875
544.51333	23003.1875
548.55936	23105.7875
552.60252	23419.1875
556.64279	23761.4875
560.6802	23918.5875
564.71473	23998.4875
568.7464	24139.4875
572.7752	24385.6875
576.80114	24398.3875
580.82422	24644.9875
584.84444	25019.7875
588.86181	25509.7875
592.87633	25946.1875
596.888	26261.5875
600.89682	26490.4875
604.9028	27592.1875
608.90594	30601.0875
612.90624	33740.8875
616.90371	31818.8875
620.89834	26827.4875
624.89015	24585.6875
628.87913	24308.3875
632.86528	24602.6875
636.84862	24815.3875
640.82913	24575.0875
644.80683	24071.0875
648.78172	23716.6875
652.75379	23820.1875
656.72306	24192.1875
660.68952	24674.5875
664.65319	24470.4875
668.61405	24065.9875
672.57211	23990.5875
676.52738	24085.8875
680.47986	24003.0875
684.42955	23866.5875
688.37646	23789.9875
692.32058	23903.0875
696.26192	24152.0875
700.20048	24433.8875
704.13626	24566.9875
708.06928	24564.4875
711.99952	24419.8875
715.927	24378.4875
719.85171	24436.7875
723.77365	24468.6875
727.69284	24344.3875
731.60928	24240.2875
735.52295	24266.3875
739.43388	24292.0875
743.34206	24384.4875
747.24749	24441.9875
751.15017	24566.3875
755.05012	24768.9875
758.94733	25424.7875
762.8418	26716.4875
766.73354	28822.9875
770.62254	30754.7875
774.50882	31264.1875
778.39237	30159.0875
782.27321	28269.9875
786.15132	26561.7875
790.02671	25446.6875
793.89938	24903.3875
797.76935	24635.3875
801.6366	24524.1875
805.50115	24443.3875
809.36299	24395.4875
813.22213	24274.9875
817.07857	24209.0875
820.93231	24273.3875
824.78336	24315.7875
828.63172	24341.3875
832.47738	24297.4875
836.32036	24310.2875
840.16066	24309.9875
843.99827	24324.5875
847.8332	24344.3875
851.66546	24370.9875
855.49504	24451.2875
859.32195	24457.2875
863.1462	24429.9875
866.96777	24414.0875
870.78668	24449.9875
874.60293	24503.6875
878.41652	24605.9875
882.22745	24765.4875
886.03573	24864.7875
889.84136	24847.1875
893.64433	24781.1875
897.44466	24693.2875
901.24235	24657.0875
905.0374	24621.3875
908.8298	24534.6875
912.61957	24516.6875
916.40671	24564.0875
920.19121	24697.4875
923.97308	24821.6875
927.75233	24960.5875
931.52895	24967.4875
935.30295	24832.7875
939.07433	24468.5875
942.84309	24296.0875
946.60924	24209.2875
950.37278	24194.6875
954.13371	24123.4875
957.89203	24100.0875
961.64774	24142.4875
965.40086	24095.3875
969.15137	24080.9875
972.89929	24084.4875
976.64461	24099.1875
980.38733	24126.5875
984.12747	24245.3875
987.86502	24356.9875
991.59999	24498.3875
995.33237	24712.9875
999.06217	24940.3875
1002.78939	25335.3875
1006.51404	25692.9875
1010.23611	26073.3875
1013.95561	26273.5875
1017.67255	26273.3875
1021.38692	26079.8875
1025.09872	25811.7875
1028.80796	25612.1875
1032.51465	25571.8875
1036.21877	25719.8875
1039.92035	25752.5875
1043.61937	25796.9875
1047.31584	25789.6875
1051.00976	25726.7875
1054.70114	25700.1875
1058.38998	25714.1875
1062.07627	25878.4875
1065.76003	26112.9875
1069.44126	26351.9875
1073.11995	26733.4875
1076.79611	27185.2875
1080.46974	27477.9875
1084.14085	27701.2875
1087.80943	27912.2875
1091.47549	28033.8875
1095.13903	27921.5875
1098.80005	27604.8875
1102.45857	27223.1875
1106.11456	26960.9875
1109.76805	26916.5875
1113.41903	26904.0875
1117.06751	27134.0875
1120.71348	27521.6875
1124.35696	27941.3875
1127.99793	28303.4875
1131.63641	28250.7875
1135.2724	27882.7875
1138.90589	27500.5875
1142.5369	27322.5875
1146.16542	27183.1875
1149.79145	27130.4875
1153.415	27052.9875
1157.03607	27013.3875
1160.65467	27224.8875
1164.27079	27728.3875
1167.88443	28526.0875
1171.49561	29657.7875
1175.10432	31309.3875
1178.71056	33441.2875
1182.31434	35404.0875
1185.91565	36272.4875
1189.51451	36180.0875
1193.11091	35518.1875
1196.70485	34515.6875
1200.29634	33499.9875
1203.88538	32540.2875
1207.47197	31594.4875
1211.05612	30740.6875
1214.63782	30079.6875
1218.21708	29708.9875
1221.79391	29474.3875
1225.36829	29351.8875
1228.94024	29316.1875
1232.50976	29232.0875
1236.07685	29069.6875
1239.6415	28978.3875
1243.20374	29019.7875
1246.76355	29087.9875
1250.32093	29382.0875
1253.8759	29766.5875
1257.42845	30320.2875
1260.97859	31061.1875
1264.52631	31727.1875
1268.07163	32338.9875
1271.61453	32850.0875
1275.15503	33203.5875
1278.69312	33491.8875
1282.22882	33688.5875
1285.76211	34129.6875
1289.29301	34706.7875
1292.82151	35437.9875
1296.34761	36310.6875
1299.87133	37555.2875
1303.39266	39227.5875
1306.9116	41450.9875
1310.42815	43712.5875
1313.94233	44669.0875
1317.45412	43826.6875
1320.96354	42137.2875
1324.47058	40475.7875
1327.97525	39059.6875
1331.47754	38139.1875
1334.97747	37852.3875
1338.47502	38055.0875
1341.97022	38610.3875
1345.46305	39502.9875
1348.95352	40827.2875
1352.44163	42394.9875
1355.92738	44214.1875
1359.41078	46772.7875
1362.89183	48917.3875
1366.37053	47745.9875
1369.84688	43346.3875
1373.32088	38549.5875
1376.79254	35620.7875
1380.26186	34147.0875
1383.72883	33449.3875
1387.19347	32858.4875
1390.65578	32228.0875
1394.11575	31612.4875
1397.57339	31134.9875
1401.0287	30912.8875
1404.48168	30769.7875
1407.93234	30805.4875
1411.38068	30913.1875
1414.82669	30874.5875
1418.27039	30717.0875
1421.71177	30418.0875
1425.15083	30165.0875
1428.58758	30005.3875
1432.02203	30194.3875
1435.45416	30512.7875
1438.88399	30679.8875
1442.31151	30801.5875
1445.73673	30852.7875
1449.15965	30922.1875
1452.58027	30864.8875
1455.9986	30757.1875
1459.41463	30842.0875
1462.82837	31233.6875
1466.23982	31753.7875
1469.64898	32374.6875
1473.05586	32853.2875
1476.46045	33197.9875
1479.86276	33441.6875
1483.26279	33630.4875
1486.66054	34008.6875
1490.05602	34578.7875
1493.44922	35521.7875
1496.84016	36887.1875
1500.22882	38893.5875
1503.61521	41453.1875
1506.99934	44008.7875
1510.38121	45469.9875
1513.76081	45000.3875
1517.13816	42560.6875
1520.51324	39447.3875
1523.88607	36925.1875
1527.25665	35498.2875
1530.62498	34760.1875
1533.99105	34373.2875
1537.35488	34056.5875
1540.71647	33654.9875
1544.07581	33345.2875
1547.4329	32979.0875
1550.78776	32692.4875
1554.14038	32537.2875
1557.49077	32473.7875
1560.83892	32599.3875
1564.18484	32946.7875
1567.52853	33415.8875
1570.86999	33835.0875
1574.20922	34126.7875
1577.54624	33943.6875
1580.88103	33201.7875
1584.2136	32248.9875
1587.54395	31923.0875
1590.87208	32408.1875
1594.19801	33521.4875
1597.52172	34915.7875
1600.84321	35598.1875
1604.16251	35092.1875
1607.47959	33951.6875
1610.79447	32422.4875
1614.10715	30851.4875
1617.41763	29503.1875
1620.7259	28519.2875
1624.03199	27949.5875
1627.33587	27878.7875
1630.63757	28157.7875
1633.93707	28909.1875
1637.23439	30455.5875
1640.52951	32634.2875
1643.82246	35516.8875
1647.11321	38165.3875
1650.40179	39253.2875
1653.68819	37740.5875
1656.97241	34351.3875
1660.25446	30915.2875
1663.53433	28422.1875
1666.81203	26920.8875
1670.08756	25995.1875
1673.36092	25447.5875
1676.63211	25034.0875
1679.90115	24799.5875
1683.16801	24525.5875
1686.43272	24293.9875
1689.69527	24092.2875
1692.95567	24042.9875
1696.2139	23898.9875
1699.46999	23848.0875
1702.72392	23762.3875
1705.97571	23743.9875
1709.22535	23722.7875
1712.47284	23720.0875
1715.71819	23697.7875
1718.96139	23669.2875
1722.20246	23632.9875
1725.44139	23531.0875
1728.67818	23491.0875
1731.91284	23394.7875
1735.14537	23313.7875
1738.37576	23222.3875
1741.60403	23139.0875
1744.83017	23090.2875
1748.05418	23054.6875
1751.27607	23025.4875
1754.49584	22985.9875
1757.71349	22994.1875
1760.92903	22947.1875
1764.14244	22975.6875
1767.35375	22932.0875
1770.56294	22893.4875
1773.77002	22907.4875
1776.97499	22801.5875
1780.17785	22845.8875
1783.37861	22799.3875
1786.57727	22750.4875
1789.77382	22744.7875
1792.96828	22718.3875
1796.16064	22705.3875
1799.3509	22663.9875
1802.53907	22634.9875
1805.72514	22597.2875
1808.90913	22503.9875
1812.09102	22469.9875
1815.27083	22449.9875
1818.44856	22392.3875
1821.6242	22386.2875
1824.79776	22383.0875
1827.96924	22313.2875
1831.13864	22267.1875
1834.30597	22288.8875
1837.47122	22280.5875
1840.6344	22217.1875
1843.7955	22265.6875
1846.95454	22249.1875
1850.11151	22216.5875
1853.26642	22211.2875
1856.41926	22230.1875
1859.57004	22205.8875
1862.71876	22160.9875
1865.86542	22181.2875
1869.01003	22146.2875
1872.15258	22131.7875
1875.29308	22140.9875
1878.43152	22121.9875
1881.56792	22044.4875
1884.70227	22006.8875
1887.83457	21995.7875
1890.96482	21979.6875
1894.09304	21964.0875
1897.21921	21968.3875
1900.34335	21916.1875
1903.46544	21918.2875
1906.58551	21922.6875
1909.70353	21911.8875
1912.81953	21882.5875
1915.93349	21858.7875
1919.04543	21802.4875
1922.15534	21803.7875
1925.26322	21738.3875
1928.36908	21703.5875
1931.47292	21674.8875
1934.57473	21615.8875
1937.67453	21604.9875
1940.77232	21571.0875
1943.86808	21472.9875
1946.96184	21415.4875
1950.05358	21381.9875
1953.14331	21338.0875
1956.23103	21275.0875
1959.31675	21211.5875
1962.40046	21154.5875
1965.48217	21112.5875
1968.56188	21060.3875
1971.63959	20986.3875
1974.7153	20898.2875
1977.78901	20851.6875
1980.86073	20829.7875
1983.93046	20783.0875
1986.99819	20700.4875
1990.06394	20684.6875
1993.1277	20611.2875
1996.18947	20524.8875
1999.24925	20485.7875
2002.30706	20436.9875
2005.36288	20378.0875
2008.41672	20309.9875
2011.46859	20250.0875
2014.51848	20161.7875
2017.56639	20151.0875
2020.61233	20137.9875
2023.6563	20066.2875
2026.6983	20018.6875
2029.73833	19967.8875
2032.7764	19907.9875
2035.8125	19879.7875
2038.84664	19834.6875
2041.87881	19831.3875
2044.90903	19800.5875
2047.93729	19760.8875
2050.96359	19770.2875
2053.98794	19738.9875
2057.01034	19751.5875
2060.03078	19710.7875
2063.04927	19680.7875
2066.06582	19653.0875
2069.08042	19669.6875
2072.09307	19652.9875
2075.10378	19645.4875
2078.11255	19620.7875
2081.11938	19603.3875
2084.12426	19623.8875
2087.12722	19613.1875
2090.12824	19627.9875
2093.12732	19626.0875
2096.12447	19638.4875
2099.11969	19580.9875
2102.11299	19599.7875
2105.10435	19627.9875
2108.09379	19673.7875
2111.08131	19673.0875
2114.0669	19655.0875
2117.05057	19717.4875
2120.03233	19712.1875
2123.01216	19767.4875
2125.99008	19780.9875
2128.96609	19789.3875
2131.94018	19812.7875
2134.91236	19819.4875
2137.88263	19837.4875
2140.851	19820.1875
2143.81746	19840.3875
2146.78201	19834.8875
2149.74466	19870.5875
2152.7054	19868.2875
2155.66425	19881.2875
2158.6212	19880.9875
2161.57625	19863.2875
2164.52941	19867.6875
2167.48067	19856.7875
2170.43004	19816.1875
2173.37752	19809.4875
2176.32311	19829.9875
2179.26681	19817.9875
2182.20863	19822.5875
2185.14856	19812.8875
2188.08661	19842.9875
2191.02278	19810.0875
2193.95707	19824.9875
2196.88948	19790.5875
2199.82001	19818.5875
2202.74867	19846.7875
2205.67545	19768.4875
2208.60037	19777.2875
2211.52341	19737.8875
2214.44458	19710.5875
2217.36388	19664.8875
2220.28132	19622.2875
2223.1969	19523.2875
2226.11061	19546.3875
2229.02246	19513.1875
2231.93245	19509.7875
2234.84058	19505.7875
2237.74686	19440.0875
2240.65128	19377.4875
2243.55385	19400.7875
2246.45456	19396.3875
2249.35343	19345.7875
2252.25044	19338.5875
2255.14561	19287.2875
2258.03893	19291.3875
2260.93041	19271.3875
2263.82004	19209.5875
2266.70783	19195.8875
2269.59378	19140.3875
2272.4779	19161.7875
2275.36017	19119.4875
2278.24061	19040.7875
2281.11922	19035.0875
2283.996	19033.9875
2286.87094	18973.7875
2289.74405	18941.0875
2292.61534	18918.4875
2295.4848	18906.3875
2298.35243	18908.3875
2301.21824	18892.4875
2304.08223	18893.5875
2306.94439	18891.2875
2309.80474	18885.6875
2312.66327	18864.9875
2315.51999	18850.0875
2318.37489	18838.8875
2321.22797	18777.3875
2324.07925	18787.4875
2326.92871	18740.7875
2329.77637	18745.4875
2332.62222	18705.7875
2335.46626	18684.7875
2338.3085	18623.1875
2341.14893	18595.2875
2343.98756	18599.4875
2346.8244	18633.3875
2349.65943	18619.0875
2352.49267	18610.1875
2355.32411	18548.5875
2358.15376	18569.2875
2360.98161	18556.3875
2363.80768	18556.3875
2366.63195	18539.8875
2369.45444	18535.5875
2372.27514	18514.4875
2375.09405	18515.4875
2377.91118	18485.0875
2380.72652	18417.1875
2383.54009	18381.4875
2386.35187	18370.0875
2389.16188	18359.9875
2391.97011	18310.0875
2394.77657	18278.6875
2397.58125	18240.6875
2400.38416	18175.0875
2403.18529	18187.8875
2405.98466	18182.3875
2408.78226	18154.5875
2411.57809	18146.3875
2414.37216	18096.8875
2417.16446	18108.0875
2419.955	18072.5875
2422.74378	18087.8875
2425.5308	18047.0875
2428.31606	18050.4875
2431.09956	18042.5875
2433.88131	18028.3875
2436.6613	18015.5875
2439.43954	17987.7875
2442.21603	18006.6875
2444.99077	18003.3875
2447.76377	18014.6875
2450.53501	17974.4875
2453.30451	17960.6875
2456.07226	17922.8875
2458.83827	17889.7875
2461.60254	17884.5875
2464.36507	17892.7875
2467.12586	17866.9875
2469.88492	17833.3875
2472.64224	17855.9875
2475.39782	17869.4875
2478.15167	17864.2875
2480.90379	17846.0875
2483.65417	17841.1875
2486.40283	17832.6875
2489.14976	17873.3875
2491.89497	17821.7875
2494.63845	17812.7875
2497.3802	17805.5875
2500.12024	17840.8875
2502.85855	17809.3875
2505.59514	17752.1875
2508.33002	17713.0875
2511.06318	17697.7875
2513.79462	17691.2875
2516.52435	17676.9875
2519.25237	17652.9875
2521.97867	17631.0875
2524.70327	17581.9875
2527.42616	17593.2875
2530.14734	17588.6875
2532.86681	17560.6875
2535.58458	17523.7875
2538.30065	17530.9875
2541.01501	17514.7875
2543.72768	17467.9875
2546.43864	17503.3875
2549.14791	17423.7875
2551.85548	17434.2875
2554.56136	17435.6875
2557.26554	17397.8875
2559.96803	17347.2875
2562.66883	17336.5875
2565.36794	17346.5875
2568.06536	17300.3875
2570.7611	17232.2875
2573.45514	17242.6875
2576.14751	17238.8875
2578.83819	17203.4875
2581.52719	17188.2875
2584.21451	17168.4875
2586.90015	17159.5875
2589.58411	17099.3875
2592.2664	17085.3875
2594.94701	17075.9875
2597.62594	17075.7875
2600.30321	17010.6875
2602.9788	17016.7875
2605.65273	16958.4875
2608.32498	16983.6875
2610.99557	16964.4875
2613.66449	16971.8875
2616.33175	16929.2875
2618.99734	16929.6875
2621.66128	16892.5875
2624.32355	16860.4875
2626.98416	16829.3875
2629.64311	16812.7875
2632.30041	16833.7875
2634.95605	16791.7875
2637.61004	16758.4875
2640.26238	16792.3875
2642.91306	16736.2875
2645.56209	16713.6875
2648.20948	16701.9875
2650.85521	16715.4875
2653.4993	16702.2875
2656.14175	16684.4875
2658.78255	16711.6875
2661.42171	16715.4875
2664.05923	16732.2875
2666.6951	16744.6875
2669.32934	16732.8875
2671.96194	16716.2875
2674.59291	16746.1875
2677.22224	16719.9875
2679.84993	16744.2875
2682.476	16688.3875
2685.10043	16697.3875
2687.72324	16717.3875
2690.34441	16713.4875
2692.96396	16687.2875
2695.58188	16677.7875
2698.19818	16649.2875
2700.81285	16669.5875
2703.4259	16642.5875
2706.03733	16669.3875
2708.64714	16656.1875
2711.25533	16673.6875
2713.86191	16643.4875
2716.46687	16682.3875
2719.07021	16687.7875
2721.67194	16689.2875
2724.27206	16673.8875
2726.87057	16714.7875
2729.46747	16664.8875
2732.06276	16677.1875
2734.65644	16672.1875
2737.24852	16676.8875
2739.83899	16659.3875
2742.42786	16650.9875
2745.01513	16602.2875
2747.60079	16607.0875
2750.18486	16584.3875
2752.76733	16554.4875
2755.3482	16538.1875
2757.92747	16503.6875
2760.50515	16514.1875
2763.08123	16519.7875
2765.65573	16490.8875
2768.22863	16465.7875
2770.79994	16443.0875
2773.36967	16423.2875
2775.9378	16402.7875
2778.50435	16382.4875
2781.06932	16368.9875
2783.6327	16356.1875
2786.1945	16334.0875
2788.75471	16315.9875
2791.31335	16293.9875
2793.87041	16263.6875
2796.42589	16213.3875
2798.97979	16244.8875
2801.53212	16215.9875
2804.08288	16164.9875
2806.63206	16131.3875
2809.17967	16087.9875
2811.72571	16035.0875
2814.27018	16070.1875
2816.81308	15989.5875
2819.35442	15976.9875
2821.89419	15905.8875
2824.43239	15970.5875
2826.96904	15893.0875
2829.50412	15858.8875
2832.03763	15846.6875
2834.56959	15816.1875
2837.1	15786.6875
2839.62884	15826.9875
2842.15613	15788.1875
2844.68186	15779.4875
2847.20604	15760.0875
2849.72867	15761.4875
2852.24974	15717.6875
2854.76927	15692.1875
2857.28724	15700.9875
2859.80367	15684.9875
2862.31855	15680.0875
2864.83189	15692.4875
2867.34368	15664.0875
2869.85393	15627.3875
2872.36264	15567.3875
2874.8698	15566.6875
2877.37543	15580.7875
2879.87952	15556.1875
2882.38207	15550.6875
2884.88308	15526.1875
2887.38256	15580.6875
2889.88051	15536.4875
2892.37692	15546.6875
2894.8718	15591.1875
2897.36515	15561.7875
2899.85698	15554.1875
2902.34727	15573.0875
2904.83604	15593.0875
2907.32328	15609.1875
2909.809	15648.2875
2912.29319	15623.1875
2914.77587	15578.1875
2917.25702	15590.7875
2919.73665	15571.0875
2922.21476	15559.5875
2924.69136	15539.2875
2927.16644	15551.8875
2929.64	15532.8875
2932.11205	15526.2875
2934.58258	15439.6875
2937.05161	15459.9875
2939.51912	15472.2875
2941.98513	15532.3875
2944.44962	15458.0875
2946.91261	15434.1875
2949.37409	15455.6875
2951.83407	15385.8875
2954.29254	15440.7875
2956.74951	15404.5875
2959.20498	15415.9875
2961.65895	15403.5875
2964.11142	15430.3875
2966.56239	15383.2875
2969.01186	15381.7875
2971.45984	15352.7875
2973.90632	15371.2875
2976.35131	15356.3875
2978.7948	15299.5875
2981.23681	15302.0875
2983.67732	15271.1875
2986.11635	15273.2875
2988.55388	15215.7875
2990.98993	15169.6875
2993.4245	15154.8875
2995.85758	15172.8875
2998.28917	15093.6875
3000.71928	15084.0875
3003.14791	15043.9875
3005.57506	15035.8875
3008.00073	14976.4875
3010.42493	14965.6875
3012.84764	14959.7875
3015.26888	14921.6875
3017.68865	14899.9875
3020.10694	14870.9875
3022.52376	14849.2875
3024.9391	14824.0875
3027.35298	14812.4875
