Data from AgNPs_UA_50uM_CRN_0uM_R6G_10uM_Q_RamanShift__38__12-55-31-803.txt Node

Date: Tue Jul 26 12:55:31 BST 2022
User: TCL
Spectrometer: QEP01345
Trigger mode: 4
Integration Time (sec): 7.000000E0
Scans to average: 10
Electric dark correction enabled: true
Nonlinearity correction enabled: false
Boxcar width: 0
XAxis mode: Raman Shifts
Number of Pixels in Spectrum: 1044
>>>>>Begin Spectral Data<<<<<
46.04893	0.4375
50.45542	-0.1625
54.85868	-0.7625
59.25871	-1.9625
63.6555	106.1375
68.04907	109.9375
72.43941	114.5375
76.82654	127.7375
81.21044	124.1375
85.59113	127.7375
89.96862	133.9375
94.34289	137.5375
98.71396	143.0375
103.08183	148.8375
107.4465	152.7375
111.80798	156.6375
116.16626	155.8375
120.52136	169.2375
124.87327	168.1375
129.222	181.6375
133.56755	183.6375
137.90993	202.6375
142.24913	215.9375
146.58517	241.2375
150.91804	273.0375
155.24774	323.6375
159.57429	396.7375
163.89768	502.9375
168.21792	658.1375
172.53501	898.7375
176.84895	1232.8375
181.15975	1727.9375
185.46741	2415.9375
189.77193	3337.1375
194.07331	4447.5375
198.37157	5666.2375
202.6667	7013.9375
206.9587	8310.3375
211.24758	9613.7375
215.53334	10923.7375
219.81599	12294.7375
224.09553	13890.2375
228.37195	15633.8375
232.64527	17576.3375
236.91549	19570.0375
241.18261	21496.4375
245.44663	23243.0375
249.70755	24668.4375
253.96539	25900.2375
258.22014	26889.3375
262.4718	27660.1375
266.72039	28264.8375
270.96589	28497.4375
275.20832	28341.6375
279.44768	28029.3375
283.68397	27624.1375
287.91719	27275.4375
292.14735	27101.6375
296.37445	27189.1375
300.59849	27537.4375
304.81948	28000.5375
309.03742	28441.6375
313.25231	28643.7375
317.46415	28535.4375
321.67296	28168.9375
325.87872	27803.9375
330.08145	27695.1375
334.28114	27729.4375
338.47781	27949.3375
342.67145	28430.1375
346.86207	29052.7375
351.04966	29749.2375
355.23424	30354.8375
359.4158	30840.3375
363.59435	31108.0375
367.76989	31247.0375
371.94243	31322.8375
376.11196	31415.6375
380.27849	31564.3375
384.44203	31768.8375
388.60257	32059.6375
392.76012	32248.3375
396.91468	32500.9375
401.06626	32864.4375
405.21485	33100.2375
409.36047	32918.8375
413.50311	32277.5375
417.64277	31803.0375
421.77947	31736.9375
425.9132	31777.7375
430.04396	32064.7375
434.17176	32458.3375
438.2966	33048.2375
442.41849	34004.1375
446.53742	35332.5375
450.6534	36595.3375
454.76644	37196.4375
458.87653	36996.3375
462.98368	36397.4375
467.08789	35619.8375
471.18916	34776.9375
475.2875	33772.0375
479.38291	32946.8375
483.4754	32326.4375
487.56496	31898.6375
491.6516	31792.8375
495.73531	31846.9375
499.81612	31962.6375
503.89401	32244.6375
507.96899	32438.8375
512.04106	32434.0375
516.11023	32520.3375
520.1765	32675.1375
524.23987	32933.4375
528.30034	33149.6375
532.35792	33202.8375
536.41261	32872.7375
540.46441	32433.1375
544.51333	32232.1375
548.55936	32393.1375
552.60252	32952.9375
556.64279	33790.5375
560.6802	34297.1375
564.71473	34335.4375
568.7464	34378.1375
572.7752	34699.0375
576.80114	35073.7375
580.82422	35615.1375
584.84444	37031.2375
588.86181	39414.0375
592.87633	42519.7375
596.888	44064.3375
600.89682	42642.2375
604.9028	41968.7375
608.90594	44968.7375
612.90624	48673.8375
616.90371	45534.2375
620.89834	38090.4375
624.89015	34885.6375
628.87913	34464.7375
632.86528	34557.6375
636.84862	34601.0375
640.82913	33975.7375
644.80683	33130.6375
648.78172	32623.6375
652.75379	32730.0375
656.72306	33371.1375
660.68952	34055.2375
664.65319	33759.8375
668.61405	33113.8375
672.57211	33003.9375
676.52738	33236.1375
680.47986	33072.3375
684.42955	32704.4375
688.37646	32606.9375
692.32058	32871.2375
696.26192	33296.8375
700.20048	33834.7375
704.13626	34040.1375
708.06928	33917.6375
711.99952	33665.9375
715.927	33733.5375
719.85171	33912.9375
723.77365	33852.3375
727.69284	33629.9375
731.60928	33392.7375
735.52295	33501.1375
739.43388	33664.2375
743.34206	33870.6375
747.24749	33978.3375
751.15017	34122.6375
755.05012	34507.8375
758.94733	35503.2375
762.8418	37541.1375
766.73354	40731.8375
770.62254	43586.4375
774.50882	44250.6375
778.39237	42490.8375
782.27321	39541.6375
786.15132	37009.8375
790.02671	35350.6375
793.89938	34480.2375
797.76935	34058.9375
801.6366	33824.8375
805.50115	33673.1375
809.36299	33524.7375
813.22213	33312.5375
817.07857	33182.3375
820.93231	33185.5375
824.78336	33201.7375
828.63172	33215.2375
832.47738	33279.1375
836.32036	33369.3375
840.16066	33448.3375
843.99827	33497.5375
847.8332	33535.4375
851.66546	33532.8375
855.49504	33580.1375
859.32195	33549.4375
863.1462	33491.4375
866.96777	33470.9375
870.78668	33449.0375
874.60293	33569.8375
878.41652	33696.6375
882.22745	33889.4375
886.03573	33980.1375
889.84136	33976.1375
893.64433	33846.0375
897.44466	33676.9375
901.24235	33556.0375
905.0374	33550.5375
908.8298	33460.5375
912.61957	33405.3375
916.40671	33553.5375
920.19121	33902.6375
923.97308	34208.3375
927.75233	34434.1375
931.52895	34388.9375
935.30295	34039.7375
939.07433	33488.6375
942.84309	33160.4375
946.60924	33039.7375
950.37278	33003.8375
954.13371	33012.9375
957.89203	32877.2375
961.64774	32817.4375
965.40086	32786.7375
969.15137	32825.3375
972.89929	32860.6375
976.64461	32926.3375
980.38733	33051.8375
984.12747	33145.7375
987.86502	33469.2375
991.59999	33777.5375
995.33237	34288.1375
999.06217	35064.4375
1002.78939	35957.2375
1006.51404	36716.5375
1010.23611	37271.0375
1013.95561	37727.3375
1017.67255	37857.9375
1021.38692	37378.5375
1025.09872	36759.8375
1028.80796	36379.6375
1032.51465	36743.9375
1036.21877	37105.0375
1039.92035	37210.8375
1043.61937	36963.8375
1047.31584	36554.7375
1051.00976	36039.8375
1054.70114	35788.2375
1058.38998	35772.3375
1062.07627	35913.2375
1065.76003	36065.1375
1069.44126	36417.7375
1073.11995	36962.0375
1076.79611	37540.7375
1080.46974	38011.4375
1084.14085	38414.1375
1087.80943	38828.2375
1091.47549	38948.6375
1095.13903	38659.7375
1098.80005	38030.0375
1102.45857	37485.4375
1106.11456	37268.2375
1109.76805	37323.6375
1113.41903	37625.7375
1117.06751	38053.9375
1120.71348	38600.0375
1124.35696	39151.6375
1127.99793	39591.6375
1131.63641	39524.6375
1135.2724	39021.3375
1138.90589	38596.9375
1142.5369	38439.0375
1146.16542	38366.1375
1149.79145	38382.0375
1153.415	38447.4375
1157.03607	38617.8375
1160.65467	39130.9375
1164.27079	40258.5375
1167.88443	41948.3375
1171.49561	44527.2375
1175.10432	48046.4375
1178.71056	52525.1375
1182.31434	56406.0375
1185.91565	57680.1375
1189.51451	56393.6375
1193.11091	53998.5375
1196.70485	51591.8375
1200.29634	49519.6375
1203.88538	47701.7375
1207.47197	46127.2375
1211.05612	44880.3375
1214.63782	44115.5375
1218.21708	43957.6375
1221.79391	44284.4375
1225.36829	44814.8375
1228.94024	44867.8375
1232.50976	44200.5375
1236.07685	43180.6375
1239.6415	42487.6375
1243.20374	42318.8375
1246.76355	42570.3375
1250.32093	42989.0375
1253.8759	43694.6375
1257.42845	44724.8375
1260.97859	45897.9375
1264.52631	47285.0375
1268.07163	48689.0375
1271.61453	49939.0375
1275.15503	50941.0375
1278.69312	51799.3375
1282.22882	52737.2375
1285.76211	54073.1375
1289.29301	55872.9375
1292.82151	57880.8375
1296.34761	60419.6375
1299.87133	63835.4375
1303.39266	67875.8375
1306.9116	72805.8375
1310.42815	77687.2375
1313.94233	80228.2375
1317.45412	78676.3375
1320.96354	74645.6375
1324.47058	70095.5375
1327.97525	66120.3375
1331.47754	63457.3375
1334.97747	62146.3375
1338.47502	61667.3375
1341.97022	61774.3375
1345.46305	62295.9375
1348.95352	63623.3375
1352.44163	66253.7375
1355.92738	70525.0375
1359.41078	76440.4375
1362.89183	80972.0375
1366.37053	79453.8375
1369.84688	71510.8375
1373.32088	62259.2375
1376.79254	56581.4375
1380.26186	54317.9375
1383.72883	53689.8375
1387.19347	52979.6375
1390.65578	51863.7375
1394.11575	51049.6375
1397.57339	50909.0375
1401.0287	51037.8375
1404.48168	51136.3375
1407.93234	51091.9375
1411.38068	50985.9375
1414.82669	50746.3375
1418.27039	50138.1375
1421.71177	49379.1375
1425.15083	48468.1375
1428.58758	48210.8375
1432.02203	48903.1375
1435.45416	50020.1375
1438.88399	50767.9375
1442.31151	50988.3375
1445.73673	50869.3375
1449.15965	50625.3375
1452.58027	50170.5375
1455.9986	49514.4375
1459.41463	49382.1375
1462.82837	49959.4375
1466.23982	51004.0375
1469.64898	52255.4375
1473.05586	53252.1375
1476.46045	54054.1375
1479.86276	54474.5375
1483.26279	54667.1375
1486.66054	55094.8375
1490.05602	55798.1375
1493.44922	56955.7375
1496.84016	58229.4375
1500.22882	59948.2375
1503.61521	62342.9375
1506.99934	65003.2375
1510.38121	66649.0375
1513.76081	66140.1375
1517.13816	63175.1375
1520.51324	59303.4375
1523.88607	56328.8375
1527.25665	54914.4375
1530.62498	54634.6375
1533.99105	54347.4375
1537.35488	53728.2375
1540.71647	52898.6375
1544.07581	51909.7375
1547.4329	50913.9375
1550.78776	50004.6375
1554.14038	49394.9375
1557.49077	48997.3375
1560.83892	48947.6375
1564.18484	49461.9375
1567.52853	50015.6375
1570.86999	50644.9375
1574.20922	51242.1375
1577.54624	51233.9375
1580.88103	50319.3375
1584.2136	49401.8375
1587.54395	49743.9375
1590.87208	51891.8375
1594.19801	55529.0375
1597.52172	59600.8375
1600.84321	61678.3375
1604.16251	60213.9375
1607.47959	56116.0375
1610.79447	51309.7375
1614.10715	47062.0375
1617.41763	43931.7375
1620.7259	42035.6375
1624.03199	41233.3375
1627.33587	41422.1375
1630.63757	42496.1375
1633.93707	44828.8375
1637.23439	48718.4375
1640.52951	54649.8375
1643.82246	61927.4375
1647.11321	67660.5375
1650.40179	68259.7375
1653.68819	62850.5375
1656.97241	54444.2375
1660.25446	47076.5375
1663.53433	42177.2375
1666.81203	39206.6375
1670.08756	37519.2375
1673.36092	36459.6375
1676.63211	35755.0375
1679.90115	35188.4375
1683.16801	34764.1375
1686.43272	34378.3375
1689.69527	34193.9375
1692.95567	33963.8375
1696.2139	33824.2375
1699.46999	33757.9375
1702.72392	33689.1375
1705.97571	33646.2375
1709.22535	33619.1375
1712.47284	33613.8375
1715.71819	33570.2375
1718.96139	33506.9375
1722.20246	33397.3375
1725.44139	33324.0375
1728.67818	33147.9375
1731.91284	33055.7375
1735.14537	32925.6375
1738.37576	32827.1375
1741.60403	32675.0375
1744.83017	32578.1375
1748.05418	32513.2375
1751.27607	32492.9375
1754.49584	32403.9375
1757.71349	32407.1375
1760.92903	32387.4375
1764.14244	32371.1375
1767.35375	32359.1375
1770.56294	32302.8375
1773.77002	32244.8375
1776.97499	32212.5375
1780.17785	32236.4375
1783.37861	32213.6375
1786.57727	32157.5375
1789.77382	32076.8375
1792.96828	32060.0375
1796.16064	32043.2375
1799.3509	32005.3375
1802.53907	31982.7375
1805.72514	31934.6375
1808.90913	31821.9375
1812.09102	31727.2375
1815.27083	31630.5375
1818.44856	31599.1375
1821.6242	31589.5375
1824.79776	31547.4375
1827.96924	31508.3375
1831.13864	31452.8375
1834.30597	31480.4375
1837.47122	31478.2375
1840.6344	31421.3375
1843.7955	31455.7375
1846.95454	31483.5375
1850.11151	31463.7375
1853.26642	31431.6375
1856.41926	31428.1375
1859.57004	31401.1375
1862.71876	31350.6375
1865.86542	31370.5375
1869.01003	31305.8375
1872.15258	31294.9375
1875.29308	31343.2375
1878.43152	31301.6375
1881.56792	31272.7375
1884.70227	31255.0375
1887.83457	31276.6375
1890.96482	31234.4375
1894.09304	31170.0375
1897.21921	31178.3375
1900.34335	31165.3375
1903.46544	31074.4375
1906.58551	31075.6375
1909.70353	31146.3375
1912.81953	31130.3375
1915.93349	31063.6375
1919.04543	31012.1375
1922.15534	30932.7375
1925.26322	30883.8375
1928.36908	30791.6375
1931.47292	30779.7375
1934.57473	30713.5375
1937.67453	30600.7375
1940.77232	30550.5375
1943.86808	30489.8375
1946.96184	30483.8375
1950.05358	30399.0375
1953.14331	30294.2375
1956.23103	30238.6375
1959.31675	30159.0375
1962.40046	30044.8375
1965.48217	29981.1375
1968.56188	29925.1375
1971.63959	29841.1375
1974.7153	29750.7375
1977.78901	29722.1375
1980.86073	29636.5375
1983.93046	29537.8375
1986.99819	29442.9375
1990.06394	29363.1375
1993.1277	29355.0375
1996.18947	29227.9375
1999.24925	29214.6375
2002.30706	29102.8375
2005.36288	29044.6375
2008.41672	28975.7375
2011.46859	28927.4375
2014.51848	28774.5375
2017.56639	28707.8375
2020.61233	28666.2375
2023.6563	28642.6375
2026.6983	28543.7375
2029.73833	28501.3375
2032.7764	28504.8375
2035.8125	28454.2375
2038.84664	28380.0375
2041.87881	28383.1375
2044.90903	28380.7375
2047.93729	28264.1375
2050.96359	28301.0375
2053.98794	28253.4375
2057.01034	28223.5375
2060.03078	28269.4375
2063.04927	28226.4375
2066.06582	28237.3375
2069.08042	28209.9375
2072.09307	28156.5375
2075.10378	28154.7375
2078.11255	28089.7375
2081.11938	28074.8375
2084.12426	28088.4375
2087.12722	28090.2375
2090.12824	28128.4375
2093.12732	28133.5375
2096.12447	28103.7375
2099.11969	28047.2375
2102.11299	28082.3375
2105.10435	28134.8375
2108.09379	28138.6375
2111.08131	28150.4375
2114.0669	28119.7375
2117.05057	28153.6375
2120.03233	28220.1375
2123.01216	28281.8375
2125.99008	28272.9375
2128.96609	28312.3375
2131.94018	28344.8375
2134.91236	28351.9375
2137.88263	28394.3375
2140.851	28382.4375
2143.81746	28428.9375
2146.78201	28400.9375
2149.74466	28412.7375
2152.7054	28430.3375
2155.66425	28458.1375
2158.6212	28454.7375
2161.57625	28417.3375
2164.52941	28365.1375
2167.48067	28424.1375
2170.43004	28399.9375
2173.37752	28387.8375
2176.32311	28454.4375
2179.26681	28452.6375
2182.20863	28437.6375
2185.14856	28445.7375
2188.08661	28448.3375
2191.02278	28457.6375
2193.95707	28481.3375
2196.88948	28481.8375
2199.82001	28479.0375
2202.74867	28466.0375
2205.67545	28447.7375
2208.60037	28437.5375
2211.52341	28394.1375
2214.44458	28343.6375
2217.36388	28281.5375
2220.28132	28252.2375
2223.1969	28216.9375
2226.11061	28168.1375
2229.02246	28172.6375
2231.93245	28120.1375
2234.84058	28110.4375
2237.74686	28064.5375
2240.65128	28022.9375
2243.55385	27989.0375
2246.45456	27989.9375
2249.35343	27931.8375
2252.25044	27927.3375
2255.14561	27919.6375
2258.03893	27860.6375
2260.93041	27777.3375
2263.82004	27783.5375
2266.70783	27712.5375
2269.59378	27640.2375
2272.4779	27589.7375
2275.36017	27541.5375
2278.24061	27463.3375
2281.11922	27443.7375
2283.996	27418.9375
2286.87094	27331.6375
2289.74405	27328.2375
2292.61534	27275.8375
2295.4848	27289.7375
2298.35243	27323.0375
2301.21824	27309.5375
2304.08223	27294.8375
2306.94439	27364.9375
2309.80474	27406.2375
2312.66327	27338.8375
2315.51999	27336.8375
2318.37489	27322.8375
2321.22797	27344.5375
2324.07925	27266.3375
2326.92871	27159.8375
2329.77637	27150.9375
2332.62222	27172.6375
2335.46626	27173.8375
2338.3085	27117.1375
2341.14893	27115.4375
2343.98756	27114.0375
2346.8244	27167.1375
2349.65943	27194.0375
2352.49267	27160.2375
2355.32411	27106.3375
2358.15376	27066.7375
2360.98161	27031.0375
2363.80768	27044.2375
2366.63195	27029.3375
2369.45444	27011.9375
2372.27514	26946.9375
2375.09405	26953.2375
2377.91118	26954.8375
2380.72652	26862.8375
2383.54009	26803.8375
2386.35187	26787.5375
2389.16188	26716.6375
2391.97011	26674.9375
2394.77657	26631.6375
2397.58125	26596.3375
2400.38416	26570.5375
2403.18529	26577.5375
2405.98466	26518.5375
2408.78226	26436.6375
2411.57809	26404.3375
2414.37216	26336.0375
2417.16446	26450.5375
2419.955	26392.2375
2422.74378	26426.9375
2425.5308	26359.8375
2428.31606	26353.9375
2431.09956	26353.5375
2433.88131	26327.2375
2436.6613	26331.3375
2439.43954	26304.2375
2442.21603	26255.9375
2444.99077	26251.0375
2447.76377	26246.5375
2450.53501	26232.7375
2453.30451	26224.3375
2456.07226	26218.2375
2458.83827	26244.4375
2461.60254	26156.8375
2464.36507	26145.0375
2467.12586	26080.5375
2469.88492	26133.2375
2472.64224	26181.2375
2475.39782	26180.5375
2478.15167	26188.5375
2480.90379	26186.0375
2483.65417	26233.3375
2486.40283	26231.1375
2489.14976	26226.5375
2491.89497	26276.8375
2494.63845	26270.3375
2497.3802	26224.9375
2500.12024	26215.7375
2502.85855	26184.0375
2505.59514	26161.2375
2508.33002	26129.1375
2511.06318	26127.2375
2513.79462	26073.6375
2516.52435	26065.2375
2519.25237	26042.8375
2521.97867	25970.8375
2524.70327	25968.6375
2527.42616	25947.8375
2530.14734	25957.3375
2532.86681	25930.0375
2535.58458	25939.4375
2538.30065	25875.5375
2541.01501	25892.4375
2543.72768	25843.1375
2546.43864	25831.3375
2549.14791	25843.6375
2551.85548	25799.8375
2554.56136	25760.3375
2557.26554	25687.5375
2559.96803	25738.3375
2562.66883	25689.4375
2565.36794	25632.4375
2568.06536	25656.7375
2570.7611	25645.3375
2573.45514	25602.1375
2576.14751	25587.0375
2578.83819	25571.5375
2581.52719	25617.6375
2584.21451	25503.3375
2586.90015	25475.9375
2589.58411	25455.5375
2592.2664	25473.4375
2594.94701	25437.9375
2597.62594	25386.9375
2600.30321	25339.4375
2602.9788	25334.1375
2605.65273	25369.2375
2608.32498	25394.7375
2610.99557	25370.2375
2613.66449	25385.8375
2616.33175	25343.0375
2618.99734	25378.2375
2621.66128	25343.6375
2624.32355	25299.2375
2626.98416	25262.1375
2629.64311	25265.0375
2632.30041	25268.2375
2634.95605	25229.8375
2637.61004	25219.7375
2640.26238	25161.5375
2642.91306	25192.9375
2645.56209	25143.5375
2648.20948	25148.1375
2650.85521	25120.3375
2653.4993	25125.9375
2656.14175	25089.1375
2658.78255	25164.3375
2661.42171	25110.8375
2664.05923	25126.0375
2666.6951	25151.7375
2669.32934	25209.8375
2671.96194	25274.6375
2674.59291	25211.9375
2677.22224	25199.3375
2679.84993	25176.9375
2682.476	25179.5375
2685.10043	25172.8375
2687.72324	25125.8375
2690.34441	25116.4375
2692.96396	25150.7375
2695.58188	25107.6375
2698.19818	25087.0375
2700.81285	25068.9375
2703.4259	25107.8375
2706.03733	25112.5375
2708.64714	25097.6375
2711.25533	25094.8375
2713.86191	25116.2375
2716.46687	25148.6375
2719.07021	25159.7375
2721.67194	25250.4375
2724.27206	25153.3375
2726.87057	25182.1375
2729.46747	25177.3375
2732.06276	25221.9375
2734.65644	25192.1375
2737.24852	25208.4375
2739.83899	25151.0375
2742.42786	25269.5375
2745.01513	25221.8375
2747.60079	25125.1375
2750.18486	25075.4375
2752.76733	25089.6375
2755.3482	25093.5375
2757.92747	25083.5375
2760.50515	25061.8375
2763.08123	25026.0375
2765.65573	25063.6375
2768.22863	25089.7375
2770.79994	25038.4375
2773.36967	25053.7375
2775.9378	25015.7375
2778.50435	25009.6375
2781.06932	24978.9375
2783.6327	25036.8375
2786.1945	24989.3375
2788.75471	24991.6375
2791.31335	24871.6375
2793.87041	24839.3375
2796.42589	24764.6375
2798.97979	24780.0375
2801.53212	24711.2375
2804.08288	24672.9375
2806.63206	24589.2375
2809.17967	24584.7375
2811.72571	24530.4375
2814.27018	24493.7375
2816.81308	24448.3375
2819.35442	24461.9375
2821.89419	24438.0375
2824.43239	24464.3375
2826.96904	24433.3375
2829.50412	24377.6375
2832.03763	24315.4375
2834.56959	24261.3375
2837.1	24255.8375
2839.62884	24259.1375
2842.15613	24251.2375
2844.68186	24276.8375
2847.20604	24230.4375
2849.72867	24218.1375
2852.24974	24159.3375
2854.76927	24138.0375
2857.28724	24087.9375
2859.80367	24126.0375
2862.31855	24102.0375
2864.83189	24034.1375
2867.34368	24051.9375
2869.85393	24067.8375
2872.36264	24010.2375
2874.8698	23999.5375
2877.37543	23950.8375
2879.87952	23955.2375
2882.38207	24012.6375
2884.88308	23965.5375
2887.38256	24023.9375
2889.88051	23982.0375
2892.37692	24001.4375
2894.8718	23981.6375
2897.36515	24014.4375
2899.85698	24002.8375
2902.34727	24041.0375
2904.83604	24111.6375
2907.32328	24164.2375
2909.809	24144.6375
2912.29319	24137.9375
2914.77587	24118.7375
2917.25702	24123.6375
2919.73665	24100.1375
2922.21476	24078.8375
2924.69136	24058.1375
2927.16644	24057.4375
2929.64	24012.2375
2932.11205	23940.5375
2934.58258	23940.3375
2937.05161	23957.9375
2939.51912	23989.4375
2941.98513	23950.6375
2944.44962	23963.0375
2946.91261	23845.5375
2949.37409	23909.6375
2951.83407	23895.0375
2954.29254	23866.4375
2956.74951	23903.8375
2959.20498	23907.4375
2961.65895	23867.6375
2964.11142	23922.9375
2966.56239	23833.8375
2969.01186	23851.7375
2971.45984	23827.2375
2973.90632	23833.4375
2976.35131	23777.7375
2978.7948	23738.2375
2981.23681	23675.4375
2983.67732	23656.6375
2986.11635	23564.1375
2988.55388	23585.1375
2990.98993	23540.2375
2993.4245	23475.3375
2995.85758	23481.9375
2998.28917	23453.2375
3000.71928	23426.7375
3003.14791	23357.5375
3005.57506	23322.5375
3008.00073	23250.7375
3010.42493	23229.3375
3012.84764	23207.0375
3015.26888	23216.5375
3017.68865	23154.7375
3020.10694	23111.6375
3022.52376	23035.6375
3024.9391	23034.4375
