Data from AgNPs_UA_200uM_CRN_0uM_R6G_10uM_Q_RamanShift__16__14-18-34-155.txt Node

Date: Tue Jul 26 14:18:34 BST 2022
User: TCL
Spectrometer: QEP01345
Trigger mode: 4
Integration Time (sec): 7.000000E0
Scans to average: 10
Electric dark correction enabled: true
Nonlinearity correction enabled: false
Boxcar width: 0
XAxis mode: Raman Shifts
Number of Pixels in Spectrum: 1044
>>>>>Begin Spectral Data<<<<<
46.04893	-0.425
50.45542	-0.325
54.85868	-1.125
59.25871	-0.625
63.6555	57.775
68.04907	60.475
72.43941	65.975
76.82654	65.075
81.21044	70.775
85.59113	75.075
89.96862	77.075
94.34289	79.875
98.71396	80.275
103.08183	80.675
107.4465	86.575
111.80798	83.775
116.16626	85.175
120.52136	86.375
124.87327	88.975
129.222	93.175
133.56755	93.875
137.90993	101.175
142.24913	105.175
146.58517	112.675
150.91804	124.175
155.24774	135.975
159.57429	161.375
163.89768	200.375
168.21792	260.475
172.53501	344.375
176.84895	462.775
181.15975	639.875
185.46741	887.975
189.77193	1226.275
194.07331	1622.475
198.37157	2100.575
202.6667	2575.575
206.9587	3057.775
211.24758	3539.875
215.53334	3995.175
219.81599	4509.575
224.09553	5041.975
228.37195	5642.975
232.64527	6290.075
236.91549	6972.075
241.18261	7641.375
245.44663	8340.375
249.70755	8940.775
253.96539	9485.075
258.22014	9942.775
262.4718	10235.375
266.72039	10453.675
270.96589	10553.975
275.20832	10555.575
279.44768	10462.275
283.68397	10308.475
287.91719	10163.375
292.14735	10041.175
296.37445	9994.275
300.59849	9967.275
304.81948	9957.275
309.03742	9957.375
313.25231	9903.475
317.46415	9815.675
321.67296	9712.775
325.87872	9666.275
330.08145	9703.575
334.28114	9784.575
338.47781	9876.575
342.67145	10025.075
346.86207	10202.675
351.04966	10390.175
355.23424	10587.875
359.4158	10767.975
363.59435	10985.575
367.76989	11158.275
371.94243	11265.175
376.11196	11388.475
380.27849	11481.675
384.44203	11601.175
388.60257	11692.775
392.76012	11805.275
396.91468	11881.775
401.06626	12001.075
405.21485	12098.575
409.36047	12130.175
413.50311	12070.075
417.64277	11985.375
421.77947	11958.975
425.9132	11925.775
430.04396	11971.575
434.17176	12015.375
438.2966	12150.575
442.41849	12271.975
446.53742	12427.775
450.6534	12579.975
454.76644	12723.775
458.87653	12861.275
462.98368	12949.575
467.08789	12984.275
471.18916	12954.175
475.2875	12873.475
479.38291	12783.675
483.4754	12777.475
487.56496	12764.475
491.6516	12797.275
495.73531	12815.875
499.81612	12775.075
503.89401	12857.775
507.96899	12910.975
512.04106	12941.975
516.11023	12986.375
520.1765	12999.875
524.23987	12993.975
528.30034	13051.475
532.35792	13071.675
536.41261	13087.675
540.46441	13007.575
544.51333	12987.275
548.55936	13050.775
552.60252	13104.775
556.64279	13241.075
560.6802	13359.775
564.71473	13418.275
568.7464	13414.475
572.7752	13405.875
576.80114	13349.075
580.82422	13304.175
584.84444	13371.675
588.86181	13456.875
592.87633	13509.775
596.888	13627.375
600.89682	13849.675
604.9028	14409.275
608.90594	15444.275
612.90624	16389.975
616.90371	15818.075
620.89834	14576.075
624.89015	14042.375
628.87913	14050.775
632.86528	14220.975
636.84862	14324.275
640.82913	14252.475
644.80683	14106.575
648.78172	13978.275
652.75379	13957.675
656.72306	14073.775
660.68952	14294.975
664.65319	14330.975
668.61405	14315.675
672.57211	14426.675
676.52738	14480.975
680.47986	14387.075
684.42955	14301.675
688.37646	14272.575
692.32058	14362.875
696.26192	14449.075
700.20048	14589.175
704.13626	14581.475
708.06928	14526.075
711.99952	14430.875
715.927	14412.675
719.85171	14429.175
723.77365	14423.675
727.69284	14405.975
731.60928	14421.975
735.52295	14402.175
739.43388	14406.875
743.34206	14410.875
747.24749	14401.375
751.15017	14391.675
755.05012	14459.475
758.94733	14580.475
762.8418	14889.175
766.73354	15308.675
770.62254	15806.775
774.50882	16154.475
778.39237	16164.475
782.27321	15829.075
786.15132	15420.575
790.02671	15077.275
793.89938	14878.775
797.76935	14775.675
801.6366	14727.475
805.50115	14704.675
809.36299	14675.475
813.22213	14661.175
817.07857	14686.575
820.93231	14635.475
824.78336	14630.475
828.63172	14650.475
832.47738	14613.675
836.32036	14627.175
840.16066	14619.075
843.99827	14630.475
847.8332	14645.875
851.66546	14683.975
855.49504	14725.975
859.32195	14748.575
863.1462	14769.775
866.96777	14754.275
870.78668	14775.375
874.60293	14834.375
878.41652	14880.775
882.22745	14907.775
886.03573	14966.875
889.84136	14994.175
893.64433	14977.275
897.44466	14921.775
901.24235	14919.075
905.0374	14857.875
908.8298	14826.575
912.61957	14804.175
916.40671	14820.375
920.19121	14821.275
923.97308	14840.975
927.75233	14840.775
931.52895	14887.575
935.30295	14883.275
939.07433	14824.375
942.84309	14797.175
946.60924	14767.575
950.37278	14801.575
954.13371	14772.175
957.89203	14763.775
961.64774	14750.075
965.40086	14724.175
969.15137	14686.675
972.89929	14693.775
976.64461	14681.575
980.38733	14717.075
984.12747	14701.375
987.86502	14766.975
991.59999	14830.975
995.33237	14953.875
999.06217	15036.375
1002.78939	15175.975
1006.51404	15291.475
1010.23611	15354.075
1013.95561	15500.175
1017.67255	15537.275
1021.38692	15514.275
1025.09872	15465.575
1028.80796	15463.875
1032.51465	15460.675
1036.21877	15503.575
1039.92035	15522.375
1043.61937	15498.075
1047.31584	15429.875
1051.00976	15396.175
1054.70114	15434.175
1058.38998	15454.475
1062.07627	15515.075
1065.76003	15568.475
1069.44126	15669.275
1073.11995	15835.975
1076.79611	16056.175
1080.46974	16172.475
1084.14085	16182.075
1087.80943	16196.175
1091.47549	16201.275
1095.13903	16243.975
1098.80005	16247.975
1102.45857	16283.775
1106.11456	16290.275
1109.76805	16220.975
1113.41903	16128.975
1117.06751	16165.375
1120.71348	16221.475
1124.35696	16317.475
1127.99793	16382.075
1131.63641	16426.575
1135.2724	16370.175
1138.90589	16255.275
1142.5369	16201.875
1146.16542	16044.675
1149.79145	15926.475
1153.415	15826.475
1157.03607	15734.475
1160.65467	15771.375
1164.27079	15850.475
1167.88443	16075.075
1171.49561	16348.575
1175.10432	16752.575
1178.71056	17264.375
1182.31434	17792.775
1185.91565	18130.075
1189.51451	18292.275
1193.11091	18227.775
1196.70485	18082.475
1200.29634	17880.775
1203.88538	17653.375
1207.47197	17379.175
1211.05612	17093.575
1214.63782	16865.675
1218.21708	16678.175
1221.79391	16523.975
1225.36829	16429.175
1228.94024	16366.675
1232.50976	16332.575
1236.07685	16335.475
1239.6415	16319.975
1243.20374	16367.075
1246.76355	16467.075
1250.32093	16527.175
1253.8759	16640.375
1257.42845	16860.275
1260.97859	17111.075
1264.52631	17292.075
1268.07163	17425.675
1271.61453	17560.375
1275.15503	17660.575
1278.69312	17682.675
1282.22882	17661.175
1285.76211	17649.775
1289.29301	17703.375
1292.82151	17791.875
1296.34761	17895.875
1299.87133	18215.075
1303.39266	18615.275
1306.9116	19198.375
1310.42815	19786.175
1313.94233	20115.275
1317.45412	20120.075
1320.96354	19842.775
1324.47058	19518.375
1327.97525	19090.275
1331.47754	18767.875
1334.97747	18677.275
1338.47502	18801.375
1341.97022	19154.875
1345.46305	19624.575
1348.95352	20134.375
1352.44163	20553.575
1355.92738	20910.575
1359.41078	21215.975
1362.89183	21447.575
1366.37053	20886.375
1369.84688	19763.175
1373.32088	18757.175
1376.79254	18034.475
1380.26186	17611.975
1383.72883	17322.475
1387.19347	17080.875
1390.65578	16847.975
1394.11575	16566.175
1397.57339	16384.675
1401.0287	16295.175
1404.48168	16242.575
1407.93234	16295.275
1411.38068	16366.975
1414.82669	16406.075
1418.27039	16358.075
1421.71177	16293.375
1425.15083	16223.875
1428.58758	16192.575
1432.02203	16193.275
1435.45416	16189.075
1438.88399	16196.675
1442.31151	16196.175
1445.73673	16154.875
1449.15965	16176.775
1452.58027	16154.675
1455.9986	16087.175
1459.41463	16114.475
1462.82837	16260.675
1466.23982	16371.475
1469.64898	16513.475
1473.05586	16655.675
1476.46045	16717.175
1479.86276	16824.575
1483.26279	16866.375
1486.66054	16953.475
1490.05602	17113.675
1493.44922	17330.975
1496.84016	17725.775
1500.22882	18217.075
1503.61521	18828.375
1506.99934	19354.275
1510.38121	19581.375
1513.76081	19400.775
1517.13816	18957.675
1520.51324	18327.675
1523.88607	17731.375
1527.25665	17324.575
1530.62498	17114.675
1533.99105	16969.075
1537.35488	16961.175
1540.71647	16892.275
1544.07581	16894.875
1547.4329	16900.275
1550.78776	16821.575
1554.14038	16845.175
1557.49077	16758.875
1560.83892	16819.375
1564.18484	16947.375
1567.52853	17054.675
1570.86999	17145.675
1574.20922	17190.275
1577.54624	17170.575
1580.88103	16988.175
1584.2136	16793.575
1587.54395	16672.875
1590.87208	16773.375
1594.19801	17014.875
1597.52172	17414.275
1600.84321	17672.575
1604.16251	17581.575
1607.47959	17365.075
1610.79447	16998.775
1614.10715	16537.075
1617.41763	16103.175
1620.7259	15765.175
1624.03199	15587.575
1627.33587	15486.375
1630.63757	15529.275
1633.93707	15720.275
1637.23439	16037.775
1640.52951	16493.775
1643.82246	17136.375
1647.11321	17683.575
1650.40179	17846.275
1653.68819	17445.375
1656.97241	16700.975
1660.25446	15965.575
1663.53433	15465.075
1666.81203	15107.775
1670.08756	14925.375
1673.36092	14774.675
1676.63211	14712.175
1679.90115	14615.675
1683.16801	14515.475
1686.43272	14470.975
1689.69527	14379.975
1692.95567	14320.875
1696.2139	14270.575
1699.46999	14236.175
1702.72392	14191.975
1705.97571	14191.375
1709.22535	14132.075
1712.47284	14124.675
1715.71819	14110.775
1718.96139	14092.675
1722.20246	14043.775
1725.44139	14018.575
1728.67818	13968.475
1731.91284	13908.975
1735.14537	13837.775
1738.37576	13797.575
1741.60403	13797.475
1744.83017	13727.575
1748.05418	13668.275
1751.27607	13643.275
1754.49584	13651.375
1757.71349	13630.475
1760.92903	13612.875
1764.14244	13621.175
1767.35375	13595.375
1770.56294	13559.275
1773.77002	13565.075
1776.97499	13545.775
1780.17785	13534.675
1783.37861	13521.475
1786.57727	13483.475
1789.77382	13475.275
1792.96828	13463.375
1796.16064	13404.675
1799.3509	13393.575
1802.53907	13373.675
1805.72514	13360.475
1808.90913	13336.875
1812.09102	13294.275
1815.27083	13265.675
1818.44856	13243.975
1821.6242	13218.275
1824.79776	13207.675
1827.96924	13182.075
1831.13864	13165.575
1834.30597	13182.575
1837.47122	13138.875
1840.6344	13129.775
1843.7955	13123.475
1846.95454	13086.275
1850.11151	13080.275
1853.26642	13078.375
1856.41926	13057.575
1859.57004	13060.875
1862.71876	13063.075
1865.86542	13033.375
1869.01003	13036.175
1872.15258	13019.275
1875.29308	12977.775
1878.43152	12963.075
1881.56792	12949.475
1884.70227	12933.475
1887.83457	12925.675
1890.96482	12897.775
1894.09304	12877.875
1897.21921	12892.975
1900.34335	12884.775
1903.46544	12859.675
1906.58551	12860.075
1909.70353	12829.275
1912.81953	12821.075
1915.93349	12809.075
1919.04543	12782.375
1922.15534	12754.775
1925.26322	12757.475
1928.36908	12713.075
1931.47292	12706.075
1934.57473	12674.875
1937.67453	12611.175
1940.77232	12625.075
1943.86808	12568.875
1946.96184	12515.975
1950.05358	12485.975
1953.14331	12479.975
1956.23103	12397.375
1959.31675	12416.775
1962.40046	12371.675
1965.48217	12332.875
1968.56188	12305.975
1971.63959	12243.875
1974.7153	12213.975
1977.78901	12192.375
1980.86073	12132.275
1983.93046	12123.075
1986.99819	12079.275
1990.06394	12046.275
1993.1277	11986.975
1996.18947	11959.275
1999.24925	11939.375
2002.30706	11916.375
2005.36288	11880.875
2008.41672	11855.375
2011.46859	11820.675
2014.51848	11769.675
2017.56639	11740.975
2020.61233	11711.775
2023.6563	11669.675
2026.6983	11639.675
2029.73833	11628.175
2032.7764	11592.175
2035.8125	11573.575
2038.84664	11532.375
2041.87881	11558.275
2044.90903	11528.175
2047.93729	11490.375
2050.96359	11501.475
2053.98794	11480.175
2057.01034	11444.175
2060.03078	11445.075
2063.04927	11423.675
2066.06582	11416.075
2069.08042	11418.575
2072.09307	11391.075
2075.10378	11369.975
2078.11255	11377.275
2081.11938	11387.675
2084.12426	11360.975
2087.12722	11387.975
2090.12824	11370.975
2093.12732	11344.775
2096.12447	11347.575
2099.11969	11365.275
2102.11299	11387.275
2105.10435	11379.775
2108.09379	11380.475
2111.08131	11371.475
2114.0669	11358.075
2117.05057	11380.475
2120.03233	11406.075
2123.01216	11414.575
2125.99008	11415.675
2128.96609	11423.275
2131.94018	11427.675
2134.91236	11420.975
2137.88263	11435.675
2140.851	11433.775
2143.81746	11455.175
2146.78201	11459.275
2149.74466	11443.175
2152.7054	11441.975
2155.66425	11454.075
2158.6212	11457.275
2161.57625	11426.175
2164.52941	11422.175
2167.48067	11435.175
2170.43004	11409.475
2173.37752	11413.975
2176.32311	11418.675
2179.26681	11427.875
2182.20863	11400.875
2185.14856	11453.775
2188.08661	11414.475
2191.02278	11421.475
2193.95707	11404.175
2196.88948	11385.375
2199.82001	11376.875
2202.74867	11364.175
2205.67545	11359.275
2208.60037	11343.875
2211.52341	11318.475
2214.44458	11279.875
2217.36388	11282.475
2220.28132	11258.275
2223.1969	11211.175
2226.11061	11225.575
2229.02246	11184.975
2231.93245	11151.175
2234.84058	11147.975
2237.74686	11154.075
2240.65128	11103.075
2243.55385	11122.675
2246.45456	11099.575
2249.35343	11088.275
2252.25044	11060.175
2255.14561	11066.275
2258.03893	11047.575
2260.93041	11016.375
2263.82004	10987.575
2266.70783	10981.875
2269.59378	10956.975
2272.4779	10922.675
2275.36017	10894.175
2278.24061	10870.275
2281.11922	10830.475
2283.996	10825.975
2286.87094	10831.675
2289.74405	10774.575
2292.61534	10758.375
2295.4848	10734.475
2298.35243	10765.875
2301.21824	10767.575
2304.08223	10762.775
2306.94439	10721.575
2309.80474	10715.475
2312.66327	10686.575
2315.51999	10669.875
2318.37489	10673.375
2321.22797	10674.475
2324.07925	10644.775
2326.92871	10627.875
2329.77637	10621.575
2332.62222	10589.375
2335.46626	10567.175
2338.3085	10534.075
2341.14893	10535.375
2343.98756	10525.175
2346.8244	10540.175
2349.65943	10515.975
2352.49267	10515.475
2355.32411	10512.275
2358.15376	10487.075
2360.98161	10478.775
2363.80768	10487.575
2366.63195	10458.275
2369.45444	10456.875
2372.27514	10419.375
2375.09405	10427.175
2377.91118	10430.275
2380.72652	10399.775
2383.54009	10356.475
2386.35187	10330.575
2389.16188	10341.875
2391.97011	10292.475
2394.77657	10278.375
2397.58125	10261.975
2400.38416	10263.475
2403.18529	10236.175
2405.98466	10209.275
2408.78226	10193.175
2411.57809	10188.775
2414.37216	10185.575
2417.16446	10171.675
2419.955	10119.875
2422.74378	10156.175
2425.5308	10122.675
2428.31606	10113.375
2431.09956	10096.875
2433.88131	10081.875
2436.6613	10075.475
2439.43954	10089.875
2442.21603	10063.175
2444.99077	10077.775
2447.76377	10074.475
2450.53501	10024.475
2453.30451	10030.175
2456.07226	9992.775
2458.83827	10002.275
2461.60254	9982.975
2464.36507	9966.775
2467.12586	9988.575
2469.88492	9963.775
2472.64224	9980.575
2475.39782	9954.475
2478.15167	9953.475
2480.90379	9941.575
2483.65417	9933.575
2486.40283	9909.275
2489.14976	9928.375
2491.89497	9901.375
2494.63845	9908.675
2497.3802	9883.775
2500.12024	9881.275
2502.85855	9857.775
2505.59514	9827.475
2508.33002	9816.775
2511.06318	9812.275
2513.79462	9811.675
2516.52435	9790.475
2519.25237	9756.275
2521.97867	9758.475
2524.70327	9777.575
2527.42616	9713.075
2530.14734	9732.975
2532.86681	9720.875
2535.58458	9715.575
2538.30065	9707.875
2541.01501	9690.975
2543.72768	9659.575
2546.43864	9652.575
2549.14791	9632.175
2551.85548	9616.375
2554.56136	9616.575
2557.26554	9573.375
2559.96803	9557.075
2562.66883	9536.075
2565.36794	9528.375
2568.06536	9495.975
2570.7611	9492.875
2573.45514	9472.475
2576.14751	9459.575
2578.83819	9416.875
2581.52719	9387.575
2584.21451	9393.675
2586.90015	9392.675
2589.58411	9366.175
2592.2664	9372.275
2594.94701	9346.275
2597.62594	9335.475
2600.30321	9296.575
2602.9788	9286.775
2605.65273	9265.975
2608.32498	9251.275
2610.99557	9284.575
2613.66449	9262.375
2616.33175	9252.775
2618.99734	9237.475
2621.66128	9201.675
2624.32355	9197.175
2626.98416	9176.575
2629.64311	9164.275
2632.30041	9159.975
2634.95605	9150.175
2637.61004	9124.475
2640.26238	9101.775
2642.91306	9110.075
2645.56209	9082.875
2648.20948	9093.475
2650.85521	9048.975
2653.4993	9079.675
2656.14175	9071.375
2658.78255	9066.475
2661.42171	9079.375
2664.05923	9077.375
2666.6951	9068.175
2669.32934	9076.475
2671.96194	9055.875
2674.59291	9080.375
2677.22224	9059.875
2679.84993	9061.975
2682.476	9050.875
2685.10043	9040.175
2687.72324	9031.775
2690.34441	9030.175
2692.96396	9013.975
2695.58188	9032.975
2698.19818	9022.975
2700.81285	9007.475
2703.4259	9000.575
2706.03733	8992.075
2708.64714	8988.575
2711.25533	8988.475
2713.86191	8981.475
2716.46687	9010.175
2719.07021	8999.075
2721.67194	8995.975
2724.27206	8971.075
2726.87057	8971.775
2729.46747	9004.975
2732.06276	8999.375
2734.65644	8998.175
2737.24852	8978.375
2739.83899	8977.275
2742.42786	8964.775
2745.01513	8957.775
2747.60079	8927.875
2750.18486	8894.175
2752.76733	8891.475
2755.3482	8877.075
2757.92747	8885.975
2760.50515	8852.275
2763.08123	8832.175
2765.65573	8820.875
2768.22863	8822.175
2770.79994	8796.075
2773.36967	8798.875
2775.9378	8797.875
2778.50435	8782.075
2781.06932	8737.575
2783.6327	8763.875
2786.1945	8742.075
2788.75471	8728.175
2791.31335	8712.375
2793.87041	8728.475
2796.42589	8678.075
2798.97979	8675.675
2801.53212	8635.175
2804.08288	8637.975
2806.63206	8578.375
2809.17967	8596.275
2811.72571	8542.575
2814.27018	8545.775
2816.81308	8550.275
2819.35442	8513.975
2821.89419	8487.275
2824.43239	8484.975
2826.96904	8469.975
2829.50412	8469.275
2832.03763	8435.175
2834.56959	8431.075
2837.1	8415.975
2839.62884	8397.775
2842.15613	8398.175
2844.68186	8398.675
2847.20604	8376.475
2849.72867	8379.375
2852.24974	8351.175
2854.76927	8323.375
2857.28724	8347.275
2859.80367	8327.475
2862.31855	8320.275
2864.83189	8294.275
2867.34368	8270.675
2869.85393	8261.775
2872.36264	8249.075
2874.8698	8253.875
2877.37543	8235.675
2879.87952	8243.875
2882.38207	8238.775
2884.88308	8221.775
2887.38256	8230.275
2889.88051	8219.575
2892.37692	8229.675
2894.8718	8224.675
2897.36515	8213.375
2899.85698	8225.475
2902.34727	8221.075
2904.83604	8217.775
2907.32328	8253.175
2909.809	8247.375
2912.29319	8244.375
2914.77587	8232.575
2917.25702	8251.175
2919.73665	8206.975
2922.21476	8210.875
2924.69136	8198.675
2927.16644	8214.675
2929.64	8189.875
2932.11205	8183.475
2934.58258	8185.175
2937.05161	8200.975
2939.51912	8193.275
2941.98513	8200.475
2944.44962	8144.475
2946.91261	8127.675
2949.37409	8187.175
2951.83407	8146.175
2954.29254	8171.175
2956.74951	8142.675
2959.20498	8147.275
2961.65895	8126.575
2964.11142	8161.375
2966.56239	8136.075
2969.01186	8133.475
2971.45984	8122.675
2973.90632	8131.275
2976.35131	8107.675
2978.7948	8115.875
2981.23681	8090.875
2983.67732	8075.075
2986.11635	8073.075
2988.55388	8060.375
2990.98993	8027.375
2993.4245	8008.375
2995.85758	8024.875
2998.28917	7991.575
3000.71928	7982.975
3003.14791	7943.975
3005.57506	7949.275
3008.00073	7918.575
3010.42493	7916.475
3012.84764	7912.675
3015.26888	7922.675
3017.68865	7883.575
3020.10694	7881.375
3022.52376	7886.975
3024.9391	7873.375
3027.35298	7840.075
3029.76539	7836.375
3032.17632	7837.775
3034.5858	7816.575
3036.9938	7821.275
3039.40034	7795.475
3041.80542	7817.275
3044.20903	7794.875
3046.61118	7778.175
3049.01187	7765.875
3051.4111	7772.475
3053.80888	7759.475
3056.20519	7746.475
3058.60005	7728.775
3060.99345	7719.875
3063.3854	7697.775
3065.7759	7681.875
3068.16494	7657.375
3070.55254	7629.275
3072.93868	7635.175
3075.32338	7624.375
3077.70662	7626.875
3080.08842	7617.875
3082.46878	7607.875
3084.84769	7599.575
3087.22515	7599.275
3089.60118	7572.375
3091.97576	7586.475
3094.3489	7615.075
3096.72061	7601.875
3099.09087	7609.775
3101.4597	7601.575
3103.82709	7625.175
3106.19305	7601.575
3108.55757	7614.175
3110.92066	7602.975
3113.28232	7585.475
3115.64255	7570.475
3118.00134	7547.575
3120.35871	7561.975
3122.71466	7542.575
3125.06917	7528.675
3127.42226	7503.875
3129.77393	7506.075
3132.12417	7503.575
3134.47299	7497.375
3136.82039	7495.675
3139.16636	7472.275
3141.51092	7474.875
3143.85406	7512.975
3146.19579	7492.375
3148.53609	7511.975
3150.87499	7527.475
3153.21246	7536.775
3155.54853	7546.175
3157.88318	7537.475
3160.21642	7542.875
3162.54826	7565.375
3164.87868	7536.875
