Data from AgNPs_UA_50uM_CRN_0uM_R6G_10uM_Q_RamanShift__41__12-59-01-807.txt Node

Date: Tue Jul 26 12:59:01 BST 2022
User: TCL
Spectrometer: QEP01345
Trigger mode: 4
Integration Time (sec): 7.000000E0
Scans to average: 10
Electric dark correction enabled: true
Nonlinearity correction enabled: false
Boxcar width: 0
XAxis mode: Raman Shifts
Number of Pixels in Spectrum: 1044
>>>>>Begin Spectral Data<<<<<
46.04893	-0.45
50.45542	-1.25
54.85868	0.75
59.25871	-2.35
63.6555	91.85
68.04907	98.65
72.43941	103.95
76.82654	111.65
81.21044	110.15
85.59113	119.15
89.96862	123.35
94.34289	125.85
98.71396	131.75
103.08183	136.35
107.4465	138.85
111.80798	147.65
116.16626	140.55
120.52136	152.15
124.87327	151.95
129.222	162.35
133.56755	173.95
137.90993	182.85
142.24913	197.35
146.58517	219.75
150.91804	248.65
155.24774	288.45
159.57429	353.75
163.89768	448.55
168.21792	590.05
172.53501	804.25
176.84895	1102.05
181.15975	1554.45
185.46741	2172.05
189.77193	2985.05
194.07331	3968.25
198.37157	5097.95
202.6667	6253.65
206.9587	7424.45
211.24758	8584.25
215.53334	9730.75
219.81599	11011.85
224.09553	12409.65
228.37195	13961.45
232.64527	15692.55
236.91549	17460.55
241.18261	19186.45
245.44663	20675.85
249.70755	22004.85
253.96539	23033.65
258.22014	23947.25
262.4718	24626.55
266.72039	25107.85
270.96589	25317.35
275.20832	25227.65
279.44768	24954.35
283.68397	24612.25
287.91719	24318.25
292.14735	24182.45
296.37445	24306.65
300.59849	24620.05
304.81948	25027.35
309.03742	25395.05
313.25231	25526.75
317.46415	25317.05
321.67296	24950.45
325.87872	24593.15
330.08145	24415.05
334.28114	24450.95
338.47781	24645.65
342.67145	25035.75
346.86207	25568.65
351.04966	26209.65
355.23424	26750.15
359.4158	27171.95
363.59435	27450.45
367.76989	27557.35
371.94243	27623.65
376.11196	27722.45
380.27849	27802.95
384.44203	27974.15
388.60257	28203.75
392.76012	28398.05
396.91468	28616.05
401.06626	28963.05
405.21485	29227.75
409.36047	29040.25
413.50311	28514.85
417.64277	28110.45
421.77947	28006.65
425.9132	28084.05
430.04396	28315.65
434.17176	28589.55
438.2966	29030.65
442.41849	29742.95
446.53742	30745.45
450.6534	31721.85
454.76644	32224.65
458.87653	32187.35
462.98368	31761.25
467.08789	31213.95
471.18916	30507.65
475.2875	29731.95
479.38291	29037.25
483.4754	28529.35
487.56496	28139.95
491.6516	27989.45
495.73531	28013.35
499.81612	28138.75
503.89401	28380.55
507.96899	28521.15
512.04106	28596.45
516.11023	28600.95
520.1765	28685.15
524.23987	28862.25
528.30034	28979.25
532.35792	28962.05
536.41261	28654.85
540.46441	28291.65
544.51333	28189.85
548.55936	28373.85
552.60252	28823.15
556.64279	29515.95
560.6802	29923.25
564.71473	30030.45
568.7464	30162.25
572.7752	30593.75
576.80114	31021.45
580.82422	31709.95
584.84444	32853.25
588.86181	34684.25
592.87633	36761.85
596.888	37630.45
600.89682	36627.95
604.9028	36390.75
608.90594	39280.85
612.90624	42547.85
616.90371	39695.65
620.89834	33150.35
624.89015	30272.15
628.87913	29894.45
632.86528	30149.05
636.84862	30215.65
640.82913	29779.35
644.80683	28956.95
648.78172	28466.45
652.75379	28522.95
656.72306	29036.55
660.68952	29690.25
664.65319	29387.85
668.61405	28798.55
672.57211	28714.35
676.52738	28889.45
680.47986	28725.05
684.42955	28477.75
688.37646	28381.35
692.32058	28563.05
696.26192	28948.15
700.20048	29374.65
704.13626	29684.35
708.06928	29502.85
711.99952	29342.25
715.927	29327.75
719.85171	29475.65
723.77365	29471.35
727.69284	29194.15
731.60928	28963.05
735.52295	29019.65
739.43388	29129.05
743.34206	29310.95
747.24749	29418.55
751.15017	29589.95
755.05012	30016.05
758.94733	30910.55
762.8418	32765.75
766.73354	35694.75
770.62254	38258.15
774.50882	38749.15
778.39237	37027.55
782.27321	34422.15
786.15132	32104.85
790.02671	30662.05
793.89938	29886.65
797.76935	29542.65
801.6366	29302.55
805.50115	29161.75
809.36299	28953.35
813.22213	28813.45
817.07857	28685.15
820.93231	28622.75
824.78336	28576.55
828.63172	28689.05
832.47738	28709.45
836.32036	28712.25
840.16066	28683.35
843.99827	28720.85
847.8332	28774.75
851.66546	28818.75
855.49504	28850.75
859.32195	28838.75
863.1462	28815.75
866.96777	28783.05
870.78668	28789.05
874.60293	28861.15
878.41652	28980.85
882.22745	29118.85
886.03573	29245.45
889.84136	29210.15
893.64433	29136.05
897.44466	29071.15
901.24235	28967.35
905.0374	28884.75
908.8298	28826.25
912.61957	28733.95
916.40671	28901.75
920.19121	29155.35
923.97308	29465.05
927.75233	29632.75
931.52895	29492.65
935.30295	29169.55
939.07433	28711.65
942.84309	28398.15
946.60924	28269.15
950.37278	28252.85
954.13371	28224.15
957.89203	28164.55
961.64774	28123.25
965.40086	28139.55
969.15137	28182.65
972.89929	28115.45
976.64461	28170.25
980.38733	28226.25
984.12747	28329.85
987.86502	28485.55
991.59999	28769.25
995.33237	29164.05
999.06217	29704.45
1002.78939	30408.05
1006.51404	31168.45
1010.23611	31748.95
1013.95561	32162.05
1017.67255	32211.65
1021.38692	31783.35
1025.09872	31203.85
1028.80796	30762.75
1032.51465	30824.15
1036.21877	31040.55
1039.92035	31099.85
1043.61937	31059.35
1047.31584	30851.15
1051.00976	30611.25
1054.70114	30495.15
1058.38998	30554.75
1062.07627	30700.45
1065.76003	30956.25
1069.44126	31299.45
1073.11995	31908.25
1076.79611	32441.75
1080.46974	32796.95
1084.14085	33198.75
1087.80943	33501.45
1091.47549	33634.05
1095.13903	33452.85
1098.80005	32956.35
1102.45857	32405.55
1106.11456	32076.85
1109.76805	32027.65
1113.41903	32239.95
1117.06751	32583.05
1120.71348	33098.35
1124.35696	33589.35
1127.99793	33993.35
1131.63641	33996.35
1135.2724	33632.45
1138.90589	33287.35
1142.5369	33111.65
1146.16542	33053.45
1149.79145	33182.25
1153.415	33242.15
1157.03607	33338.65
1160.65467	33837.25
1164.27079	34893.25
1167.88443	36369.75
1171.49561	38509.35
1175.10432	41517.15
1178.71056	45229.75
1182.31434	48438.85
1185.91565	49634.65
1189.51451	48973.85
1193.11091	47428.15
1196.70485	45569.75
1200.29634	43695.25
1203.88538	42037.85
1207.47197	40510.95
1211.05612	39466.55
1214.63782	38670.25
1218.21708	38331.45
1221.79391	38339.45
1225.36829	38575.05
1228.94024	38600.45
1232.50976	38080.45
1236.07685	37389.85
1239.6415	36840.35
1243.20374	36717.55
1246.76355	36851.95
1250.32093	37245.45
1253.8759	37803.25
1257.42845	38744.95
1260.97859	39876.45
1264.52631	41139.45
1268.07163	42346.15
1271.61453	43369.85
1275.15503	44219.85
1278.69312	44914.35
1282.22882	45703.55
1285.76211	46806.35
1289.29301	48312.85
1292.82151	50095.35
1296.34761	52249.85
1299.87133	54996.95
1303.39266	58373.25
1306.9116	62389.25
1310.42815	66261.65
1313.94233	68263.65
1317.45412	67105.75
1320.96354	64081.85
1324.47058	60802.55
1327.97525	57972.35
1331.47754	56002.45
1334.97747	55104.05
1338.47502	54897.55
1341.97022	55187.95
1345.46305	55834.55
1348.95352	57001.05
1352.44163	58834.35
1355.92738	61848.15
1359.41078	66082.15
1362.89183	69577.85
1366.37053	68287.05
1369.84688	61676.65
1373.32088	54096.55
1376.79254	49176.85
1380.26186	47182.95
1383.72883	46530.55
1387.19347	45987.75
1390.65578	45122.35
1394.11575	44459.35
1397.57339	44249.35
1401.0287	44281.95
1404.48168	44313.95
1407.93234	44344.25
1411.38068	44253.35
1414.82669	43902.85
1418.27039	43325.65
1421.71177	42493.25
1425.15083	41694.25
1428.58758	41519.85
1432.02203	41988.05
1435.45416	42891.05
1438.88399	43599.05
1442.31151	43812.35
1445.73673	43806.55
1449.15965	43674.85
1452.58027	43351.15
1455.9986	43027.75
1459.41463	43047.65
1462.82837	43719.25
1466.23982	44683.15
1469.64898	45697.65
1473.05586	46498.55
1476.46045	47070.25
1479.86276	47278.75
1483.26279	47416.85
1486.66054	47630.35
1490.05602	48295.75
1493.44922	49335.95
1496.84016	50667.05
1500.22882	52508.35
1503.61521	54901.85
1506.99934	57446.55
1510.38121	58921.35
1513.76081	58310.35
1517.13816	55661.85
1520.51324	52271.45
1523.88607	49631.35
1527.25665	48378.05
1530.62498	47994.05
1533.99105	47675.05
1537.35488	47120.25
1540.71647	46273.95
1544.07581	45386.05
1547.4329	44422.55
1550.78776	43643.75
1554.14038	43101.85
1557.49077	42903.65
1560.83892	42895.05
1564.18484	43308.45
1567.52853	43877.05
1570.86999	44376.35
1574.20922	44864.25
1577.54624	44806.65
1580.88103	43921.85
1584.2136	43114.65
1587.54395	43428.65
1590.87208	45138.35
1594.19801	48044.95
1597.52172	51222.95
1600.84321	52766.85
1604.16251	51301.65
1607.47959	48058.25
1610.79447	44289.85
1614.10715	40879.45
1617.41763	38166.95
1620.7259	36439.85
1624.03199	35484.55
1627.33587	35564.15
1630.63757	36446.35
1633.93707	38436.25
1637.23439	41858.35
1640.52951	47031.55
1643.82246	53174.15
1647.11321	58097.15
1650.40179	58663.95
1653.68819	54249.45
1656.97241	47259.65
1660.25446	40767.45
1663.53433	36303.75
1666.81203	33593.95
1670.08756	31976.65
1673.36092	30995.35
1676.63211	30283.55
1679.90115	29793.95
1683.16801	29398.85
1686.43272	29064.95
1689.69527	28834.25
1692.95567	28622.25
1696.2139	28506.05
1699.46999	28411.95
1702.72392	28338.65
1705.97571	28318.55
1709.22535	28276.65
1712.47284	28245.75
1715.71819	28255.55
1718.96139	28163.25
1722.20246	28123.95
1725.44139	27986.55
1728.67818	27863.15
1731.91284	27764.55
1735.14537	27619.65
1738.37576	27495.45
1741.60403	27397.95
1744.83017	27338.35
1748.05418	27265.95
1751.27607	27198.65
1754.49584	27169.35
1757.71349	27103.85
1760.92903	27110.25
1764.14244	27040.95
1767.35375	27065.55
1770.56294	27062.05
1773.77002	26994.05
1776.97499	26954.85
1780.17785	26959.65
1783.37861	26899.95
1786.57727	26891.15
1789.77382	26809.75
1792.96828	26758.35
1796.16064	26757.45
1799.3509	26690.65
1802.53907	26703.85
1805.72514	26609.95
1808.90913	26542.95
1812.09102	26464.85
1815.27083	26418.55
1818.44856	26389.65
1821.6242	26353.55
1824.79776	26269.75
1827.96924	26265.45
1831.13864	26232.95
1834.30597	26274.65
1837.47122	26245.85
1840.6344	26236.55
1843.7955	26262.25
1846.95454	26228.05
1850.11151	26234.85
1853.26642	26222.55
1856.41926	26173.95
1859.57004	26155.45
1862.71876	26128.45
1865.86542	26156.35
1869.01003	26090.45
1872.15258	26094.65
1875.29308	26086.35
1878.43152	26057.85
1881.56792	26071.65
1884.70227	26029.05
1887.83457	26030.35
1890.96482	25967.35
1894.09304	25936.45
1897.21921	25914.05
1900.34335	25878.05
1903.46544	25852.55
1906.58551	25871.45
1909.70353	25831.25
1912.81953	25826.85
1915.93349	25802.45
1919.04543	25731.15
1922.15534	25676.15
1925.26322	25626.15
1928.36908	25550.05
1931.47292	25560.45
1934.57473	25469.65
1937.67453	25382.15
1940.77232	25338.25
1943.86808	25281.65
1946.96184	25239.75
1950.05358	25201.45
1953.14331	25107.25
1956.23103	25091.55
1959.31675	24981.25
1962.40046	24927.35
1965.48217	24845.55
1968.56188	24796.35
1971.63959	24721.25
1974.7153	24673.15
1977.78901	24593.35
1980.86073	24494.85
1983.93046	24436.05
1986.99819	24351.05
1990.06394	24307.85
1993.1277	24270.05
1996.18947	24171.45
1999.24925	24153.25
2002.30706	24115.55
2005.36288	24003.25
2008.41672	23961.95
2011.46859	23874.95
2014.51848	23823.65
2017.56639	23733.95
2020.61233	23656.95
2023.6563	23638.95
2026.6983	23601.35
2029.73833	23568.95
2032.7764	23498.15
2035.8125	23433.95
2038.84664	23454.25
2041.87881	23452.45
2044.90903	23399.65
2047.93729	23379.65
2050.96359	23340.45
2053.98794	23324.75
2057.01034	23324.25
2060.03078	23319.55
2063.04927	23289.45
2066.06582	23259.45
2069.08042	23260.05
2072.09307	23222.05
2075.10378	23203.75
2078.11255	23137.55
2081.11938	23173.15
2084.12426	23126.65
2087.12722	23151.15
2090.12824	23177.45
2093.12732	23162.05
2096.12447	23163.55
2099.11969	23120.75
2102.11299	23156.95
2105.10435	23185.15
2108.09379	23179.25
2111.08131	23202.15
2114.0669	23181.25
2117.05057	23189.25
2120.03233	23249.85
2123.01216	23267.85
2125.99008	23309.05
2128.96609	23306.75
2131.94018	23312.45
2134.91236	23323.55
2137.88263	23318.15
2140.851	23310.25
2143.81746	23351.25
2146.78201	23347.05
2149.74466	23332.65
2152.7054	23394.85
2155.66425	23350.05
2158.6212	23402.45
2161.57625	23355.25
2164.52941	23336.65
2167.48067	23324.45
2170.43004	23312.45
2173.37752	23318.55
2176.32311	23347.75
2179.26681	23343.85
2182.20863	23330.35
2185.14856	23362.85
2188.08661	23373.45
2191.02278	23346.05
2193.95707	23357.75
2196.88948	23372.05
2199.82001	23378.95
2202.74867	23314.75
2205.67545	23341.55
2208.60037	23309.05
2211.52341	23255.15
2214.44458	23236.65
2217.36388	23189.95
2220.28132	23144.55
2223.1969	23102.85
2226.11061	23081.85
2229.02246	23087.75
2231.93245	22996.15
2234.84058	22972.35
2237.74686	22952.75
2240.65128	22947.95
2243.55385	22878.65
2246.45456	22874.75
2249.35343	22852.25
2252.25044	22844.15
2255.14561	22787.95
2258.03893	22852.05
2260.93041	22751.95
2263.82004	22667.95
2266.70783	22633.85
2269.59378	22602.35
2272.4779	22580.65
2275.36017	22510.05
2278.24061	22471.05
2281.11922	22408.85
2283.996	22371.75
2286.87094	22366.25
2289.74405	22311.45
2292.61534	22290.55
2295.4848	22279.85
2298.35243	22266.75
2301.21824	22285.45
2304.08223	22295.35
2306.94439	22315.05
2309.80474	22276.95
2312.66327	22280.75
2315.51999	22247.95
2318.37489	22269.05
2321.22797	22236.15
2324.07925	22201.15
2326.92871	22142.25
2329.77637	22115.85
2332.62222	22113.25
2335.46626	22107.45
2338.3085	22063.35
2341.14893	22000.85
2343.98756	22060.35
2346.8244	22080.95
2349.65943	22100.65
2352.49267	22086.35
2355.32411	22046.35
2358.15376	22047.75
2360.98161	22013.35
2363.80768	22014.35
2366.63195	22014.85
2369.45444	21978.85
2372.27514	22002.15
2375.09405	21930.45
2377.91118	21914.85
2380.72652	21864.65
2383.54009	21824.75
2386.35187	21775.45
2389.16188	21758.55
2391.97011	21685.35
2394.77657	21650.65
2397.58125	21613.75
2400.38416	21626.75
2403.18529	21576.85
2405.98466	21532.95
2408.78226	21464.45
2411.57809	21461.65
2414.37216	21415.85
2417.16446	21427.25
2419.955	21450.05
2422.74378	21456.85
2425.5308	21418.95
2428.31606	21399.35
2431.09956	21403.75
2433.88131	21368.75
2436.6613	21416.25
2439.43954	21383.05
2442.21603	21354.85
2444.99077	21362.55
2447.76377	21314.65
2450.53501	21310.35
2453.30451	21302.45
2456.07226	21323.95
2458.83827	21329.35
2461.60254	21271.85
2464.36507	21270.15
2467.12586	21252.25
2469.88492	21198.55
2472.64224	21279.05
2475.39782	21264.65
2478.15167	21269.25
2480.90379	21240.65
2483.65417	21292.25
2486.40283	21274.75
2489.14976	21292.65
2491.89497	21294.65
2494.63845	21280.45
2497.3802	21265.95
2500.12024	21289.35
2502.85855	21223.45
2505.59514	21187.85
2508.33002	21190.15
2511.06318	21147.05
2513.79462	21116.65
2516.52435	21143.25
2519.25237	21107.05
2521.97867	21082.45
2524.70327	21062.75
2527.42616	21013.65
2530.14734	21043.85
2532.86681	21035.95
2535.58458	21007.65
2538.30065	20958.45
2541.01501	20974.85
2543.72768	20945.05
2546.43864	20949.95
2549.14791	20920.05
2551.85548	20908.85
2554.56136	20857.25
2557.26554	20818.95
2559.96803	20806.35
2562.66883	20798.65
2565.36794	20795.55
2568.06536	20773.75
2570.7611	20764.75
2573.45514	20724.55
2576.14751	20694.95
2578.83819	20695.35
2581.52719	20663.75
2584.21451	20611.85
2586.90015	20620.05
2589.58411	20569.35
2592.2664	20583.25
2594.94701	20538.05
2597.62594	20517.55
2600.30321	20473.95
2602.9788	20498.35
2605.65273	20504.85
2608.32498	20549.55
2610.99557	20476.15
2613.66449	20489.95
2616.33175	20494.85
2618.99734	20495.85
2621.66128	20432.35
2624.32355	20418.55
2626.98416	20373.75
2629.64311	20351.85
2632.30041	20370.55
2634.95605	20386.45
2637.61004	20340.25
2640.26238	20322.25
2642.91306	20324.15
2645.56209	20325.55
2648.20948	20258.25
2650.85521	20238.25
2653.4993	20265.85
2656.14175	20237.55
2658.78255	20269.55
2661.42171	20238.35
2664.05923	20269.05
2666.6951	20299.95
2669.32934	20369.65
2671.96194	20360.85
2674.59291	20368.95
2677.22224	20337.15
2679.84993	20360.95
2682.476	20311.15
2685.10043	20324.05
2687.72324	20273.25
2690.34441	20265.95
2692.96396	20241.55
2695.58188	20258.15
2698.19818	20228.75
2700.81285	20226.05
2703.4259	20248.65
2706.03733	20248.15
2708.64714	20216.85
2711.25533	20250.25
2713.86191	20269.05
2716.46687	20274.75
2719.07021	20257.15
2721.67194	20340.45
2724.27206	20307.15
2726.87057	20296.95
2729.46747	20322.35
2732.06276	20347.55
2734.65644	20330.05
2737.24852	20350.35
2739.83899	20284.75
2742.42786	20331.95
2745.01513	20342.15
2747.60079	20266.15
2750.18486	20207.65
2752.76733	20205.65
2755.3482	20201.15
2757.92747	20228.65
2760.50515	20184.55
2763.08123	20177.85
2765.65573	20190.95
2768.22863	20194.85
2770.79994	20169.25
2773.36967	20177.05
2775.9378	20126.85
2778.50435	20128.15
2781.06932	20127.45
2783.6327	20109.75
2786.1945	20093.95
2788.75471	20085.55
2791.31335	20003.55
2793.87041	19976.15
2796.42589	19936.55
2798.97979	19919.15
2801.53212	19872.55
2804.08288	19852.35
2806.63206	19783.75
2809.17967	19740.55
2811.72571	19683.75
2814.27018	19694.85
2816.81308	19688.15
2819.35442	19674.75
2821.89419	19644.55
2824.43239	19645.25
2826.96904	19608.25
2829.50412	19583.75
2832.03763	19497.85
2834.56959	19496.65
2837.1	19466.55
2839.62884	19523.45
2842.15613	19433.75
2844.68186	19474.95
2847.20604	19383.05
2849.72867	19410.15
2852.24974	19359.75
2854.76927	19370.85
2857.28724	19301.65
2859.80367	19351.95
2862.31855	19331.65
2864.83189	19319.45
2867.34368	19311.65
2869.85393	19277.75
2872.36264	19295.85
2874.8698	19244.55
2877.37543	19228.95
2879.87952	19196.55
2882.38207	19215.95
2884.88308	19219.95
2887.38256	19208.95
2889.88051	19229.25
2892.37692	19201.95
2894.8718	19206.15
2897.36515	19236.65
2899.85698	19184.05
2902.34727	19252.55
2904.83604	19260.85
2907.32328	19342.05
2909.809	19306.15
2912.29319	19308.25
2914.77587	19281.05
2917.25702	19295.45
2919.73665	19292.55
2922.21476	19281.65
2924.69136	19200.65
2927.16644	19249.95
2929.64	19240.25
2932.11205	19164.85
2934.58258	19154.85
2937.05161	19173.15
2939.51912	19131.55
2941.98513	19142.95
2944.44962	19139.35
2946.91261	19090.75
2949.37409	19126.85
2951.83407	19118.05
2954.29254	19097.75
2956.74951	19081.05
2959.20498	19096.25
2961.65895	19070.25
2964.11142	19033.45
2966.56239	19032.95
2969.01186	19032.75
2971.45984	19005.75
2973.90632	18996.45
2976.35131	18992.85
2978.7948	18965.55
2981.23681	18859.55
2983.67732	18888.45
2986.11635	18853.25
2988.55388	18795.75
2990.98993	18785.35
2993.4245	18750.15
2995.85758	18691.95
2998.28917	18672.35
3000.71928	18632.25
3003.14791	18602.25
3005.57506	18558.65
3008.00073	18520.35
3010.42493	18469.45
3012.84764	18443.85
3015.26888	18446.85
3017.68865	18386.75
3020.10694	18378.25
3022.52376	18322.45
3024.9391	18318.35
3027.35298	18292.85
3029.76539	18290.65
3032.17632	18273.65
3034.5858	18220.85
3036.9938	18196.65
3039.40034	18186.45
3041.80542	18170.45
3044.20903	18177.15
3046.61118	18142.35
3049.01187	18100.55
3051.4111	18134.55
3053.80888	18047.95
3056.20519	18007.05
3058.60005	17965.85
3060.99345	17934.75
3063.3854	17933.25
3065.7759	17851.55
3068.16494	17874.15
3070.55254	17786.75
3072.93868	17745.75
3075.32338	17700.85
3077.70662	17676.65
3080.08842	17647.05
3082.46878	17600.55
3084.84769	17576.85
3087.22515	17577.85
3089.60118	17569.55
3091.97576	17583.95
3094.3489	17565.75
3096.72061	17534.95
3099.09087	17548.75
3101.4597	17508.15
3103.82709	17528.85
3106.19305	17506.75
3108.55757	17530.65
3110.92066	17479.65
3113.28232	17437.45
3115.64255	17406.25
3118.00134	17373.55
3120.35871	17363.25
3122.71466	17315.95
3125.06917	17279.45
3127.42226	17237.35
3129.77393	17256.85
3132.12417	17228.55
3134.47299	17202.25
3136.82039	17178.45
3139.16636	17199.85
3141.51092	17204.25
3143.85406	17189.45
3146.19579	17166.85
3148.53609	17163.05
3150.87499	17180.65
3153.21246	17211.55
3155.54853	17208.95
3157.88318	17166.25
3160.21642	17186.55
3162.54826	17194.55
3164.87868	17202.55
3167.2077	17185.95
3169.5353	17197.75
3171.86151	17165.55
3174.18631	17179.75
3176.5097	17171.05
3178.83169	17149.55
3181.15228	17125.35
3183.47147	17072.65
3185.78926	17046.45
3188.10565	16980.55
3190.42065	16986.95
3192.73424	16964.15
3195.04645	16941.65
3197.35725	16932.95
3199.66667	16928.25
3201.97469	16922.35
3204.28132	16871.15
3206.58656	16886.65
3208.8904	16923.85
3211.19287	16951.25
3213.49394	16925.15
3215.79363	16953.35
3218.09193	16947.85
3220.38884	16935.95
3222.68438	16901.35
3224.97853	16924.95
3227.2713	16941.55
3229.56269	16960.15
3231.8527	16932.95
3234.14133	16895.75
3236.42858	16867.45
3238.71446	16859.05
3240.99896	16789.85
