Data from AgNPs_UA_100uM_CRN_0uM_R6G_10uM_Q_RamanShift__21__13-36-55-335.txt Node

Date: Tue Jul 26 13:36:55 BST 2022
User: TCL
Spectrometer: QEP01345
Trigger mode: 4
Integration Time (sec): 7.000000E0
Scans to average: 10
Electric dark correction enabled: true
Nonlinearity correction enabled: false
Boxcar width: 0
XAxis mode: Raman Shifts
Number of Pixels in Spectrum: 1044
>>>>>Begin Spectral Data<<<<<
46.04893	-0.2375
50.45542	-0.6375
54.85868	-0.7375
59.25871	0.4625
63.6555	55.1625
68.04907	61.6625
72.43941	63.2625
76.82654	70.2625
81.21044	70.9625
85.59113	72.7625
89.96862	75.3625
94.34289	78.1625
98.71396	82.2625
103.08183	85.0625
107.4465	83.3625
111.80798	83.9625
116.16626	87.6625
120.52136	89.8625
124.87327	88.8625
129.222	91.0625
133.56755	96.1625
137.90993	95.5625
142.24913	99.4625
146.58517	103.2625
150.91804	110.8625
155.24774	128.9625
159.57429	152.5625
163.89768	186.1625
168.21792	236.5625
172.53501	312.1625
176.84895	414.6625
181.15975	581.6625
185.46741	802.7625
189.77193	1092.0625
194.07331	1448.4625
198.37157	1864.9625
202.6667	2292.9625
206.9587	2724.1625
211.24758	3136.7625
215.53334	3558.4625
219.81599	4028.8625
224.09553	4531.7625
228.37195	5085.9625
232.64527	5699.5625
236.91549	6346.1625
241.18261	6969.9625
245.44663	7539.4625
249.70755	8030.2625
253.96539	8437.7625
258.22014	8771.6625
262.4718	9064.2625
266.72039	9275.1625
270.96589	9396.1625
275.20832	9332.2625
279.44768	9210.1625
283.68397	9054.9625
287.91719	8951.3625
292.14735	8880.0625
296.37445	8914.8625
300.59849	8993.1625
304.81948	9131.6625
309.03742	9188.8625
313.25231	9145.4625
317.46415	8992.1625
321.67296	8728.7625
325.87872	8575.0625
330.08145	8502.1625
334.28114	8534.5625
338.47781	8645.7625
342.67145	8773.7625
346.86207	8963.2625
351.04966	9215.2625
355.23424	9513.5625
359.4158	9745.9625
363.59435	9907.7625
367.76989	10066.6625
371.94243	10148.8625
376.11196	10215.3625
380.27849	10294.3625
384.44203	10330.1625
388.60257	10352.9625
392.76012	10403.2625
396.91468	10472.9625
401.06626	10616.6625
405.21485	10690.2625
409.36047	10673.7625
413.50311	10472.1625
417.64277	10300.5625
421.77947	10207.3625
425.9132	10170.5625
430.04396	10180.2625
434.17176	10270.2625
438.2966	10391.9625
442.41849	10575.6625
446.53742	10783.3625
450.6534	10966.3625
454.76644	11127.2625
458.87653	11199.9625
462.98368	11177.7625
467.08789	11111.1625
471.18916	10997.0625
475.2875	10883.0625
479.38291	10761.5625
483.4754	10668.6625
487.56496	10630.7625
491.6516	10608.5625
495.73531	10605.4625
499.81612	10615.4625
503.89401	10687.6625
507.96899	10716.5625
512.04106	10776.1625
516.11023	10820.1625
520.1765	10892.9625
524.23987	10903.2625
528.30034	10890.2625
532.35792	10874.4625
536.41261	10816.3625
540.46441	10738.1625
544.51333	10711.4625
548.55936	10706.6625
552.60252	10823.7625
556.64279	10950.4625
560.6802	11019.2625
564.71473	11074.5625
568.7464	11195.2625
572.7752	11282.5625
576.80114	11233.4625
580.82422	11162.3625
584.84444	11230.2625
588.86181	11345.9625
592.87633	11493.8625
596.888	11616.1625
600.89682	11838.3625
604.9028	12565.4625
608.90594	14153.7625
612.90624	15700.8625
616.90371	14840.2625
620.89834	12595.8625
624.89015	11647.6625
628.87913	11549.4625
632.86528	11635.6625
636.84862	11696.8625
640.82913	11557.3625
644.80683	11275.4625
648.78172	11117.2625
652.75379	11087.7625
656.72306	11267.7625
660.68952	11476.7625
664.65319	11437.6625
668.61405	11290.1625
672.57211	11259.0625
676.52738	11276.6625
680.47986	11284.4625
684.42955	11205.8625
688.37646	11201.0625
692.32058	11274.6625
696.26192	11350.8625
700.20048	11404.4625
704.13626	11460.0625
708.06928	11391.2625
711.99952	11298.4625
715.927	11302.8625
719.85171	11342.6625
723.77365	11346.7625
727.69284	11329.1625
731.60928	11280.0625
735.52295	11274.6625
739.43388	11283.4625
743.34206	11313.4625
747.24749	11329.7625
751.15017	11353.7625
755.05012	11451.4625
758.94733	11683.8625
762.8418	12214.3625
766.73354	13062.9625
770.62254	13958.5625
774.50882	14411.1625
778.39237	14077.9625
782.27321	13169.2625
786.15132	12312.6625
790.02671	11782.2625
793.89938	11519.6625
797.76935	11388.1625
801.6366	11380.0625
805.50115	11351.1625
809.36299	11343.8625
813.22213	11281.9625
817.07857	11255.6625
820.93231	11259.4625
824.78336	11256.0625
828.63172	11250.7625
832.47738	11266.8625
836.32036	11255.0625
840.16066	11285.5625
843.99827	11312.6625
847.8332	11282.1625
851.66546	11273.6625
855.49504	11296.1625
859.32195	11325.1625
863.1462	11288.9625
866.96777	11288.3625
870.78668	11281.8625
874.60293	11343.0625
878.41652	11350.4625
882.22745	11423.9625
886.03573	11472.5625
889.84136	11473.5625
893.64433	11424.9625
897.44466	11382.3625
901.24235	11322.8625
905.0374	11314.5625
908.8298	11259.4625
912.61957	11240.1625
916.40671	11264.3625
920.19121	11305.6625
923.97308	11371.7625
927.75233	11456.8625
931.52895	11500.3625
935.30295	11434.8625
939.07433	11318.7625
942.84309	11238.6625
946.60924	11192.4625
950.37278	11156.0625
954.13371	11132.0625
957.89203	11101.1625
961.64774	11068.7625
965.40086	11051.2625
969.15137	11044.6625
972.89929	11012.5625
976.64461	11018.0625
980.38733	11042.3625
984.12747	11078.2625
987.86502	11152.0625
991.59999	11282.5625
995.33237	11419.6625
999.06217	11633.5625
1002.78939	11843.9625
1006.51404	11988.9625
1010.23611	12112.5625
1013.95561	12171.5625
1017.67255	12224.8625
1021.38692	12169.6625
1025.09872	12141.0625
1028.80796	12174.9625
1032.51465	12361.3625
1036.21877	12504.1625
1039.92035	12503.5625
1043.61937	12382.9625
1047.31584	12181.7625
1051.00976	12018.7625
1054.70114	11927.7625
1058.38998	11949.1625
1062.07627	11951.3625
1065.76003	12009.3625
1069.44126	12051.4625
1073.11995	12130.4625
1076.79611	12270.8625
1080.46974	12382.0625
1084.14085	12502.4625
1087.80943	12579.8625
1091.47549	12620.4625
1095.13903	12539.1625
1098.80005	12415.4625
1102.45857	12324.4625
1106.11456	12285.8625
1109.76805	12339.2625
1113.41903	12452.3625
1117.06751	12609.4625
1120.71348	12790.3625
1124.35696	12989.9625
1127.99793	13126.1625
1131.63641	13131.5625
1135.2724	12958.9625
1138.90589	12766.3625
1142.5369	12623.3625
1146.16542	12484.6625
1149.79145	12351.8625
1153.415	12308.1625
1157.03607	12332.8625
1160.65467	12399.5625
1164.27079	12662.8625
1167.88443	13027.4625
1171.49561	13496.6625
1175.10432	14279.3625
1178.71056	15296.7625
1182.31434	16265.7625
1185.91565	16719.0625
1189.51451	16628.9625
1193.11091	16122.4625
1196.70485	15501.4625
1200.29634	14978.8625
1203.88538	14586.5625
1207.47197	14126.9625
1211.05612	13756.9625
1214.63782	13479.6625
1218.21708	13372.9625
1221.79391	13422.1625
1225.36829	13441.6625
1228.94024	13408.6625
1232.50976	13304.7625
1236.07685	13183.3625
1239.6415	13180.1625
1243.20374	13191.1625
1246.76355	13300.5625
1250.32093	13436.5625
1253.8759	13632.4625
1257.42845	13869.8625
1260.97859	14127.7625
1264.52631	14397.0625
1268.07163	14678.4625
1271.61453	14954.6625
1275.15503	15220.7625
1278.69312	15441.9625
1282.22882	15564.8625
1285.76211	15719.2625
1289.29301	15868.5625
1292.82151	16097.6625
1296.34761	16481.5625
1299.87133	17071.2625
1303.39266	17947.4625
1306.9116	19137.2625
1310.42815	20355.8625
1313.94233	20908.6625
1317.45412	20570.2625
1320.96354	19733.5625
1324.47058	18818.7625
1327.97525	18011.1625
1331.47754	17492.2625
1334.97747	17297.3625
1338.47502	17345.8625
1341.97022	17603.8625
1345.46305	18019.5625
1348.95352	18484.2625
1352.44163	19203.2625
1355.92738	20157.5625
1359.41078	21537.9625
1362.89183	22675.9625
1366.37053	21989.7625
1369.84688	19745.8625
1373.32088	17688.5625
1376.79254	16373.3625
1380.26186	15663.8625
1383.72883	15277.1625
1387.19347	14959.2625
1390.65578	14628.4625
1394.11575	14399.8625
1397.57339	14233.8625
1401.0287	14263.6625
1404.48168	14281.5625
1407.93234	14337.3625
1411.38068	14424.9625
1414.82669	14407.6625
1418.27039	14333.1625
1421.71177	14206.9625
1425.15083	14084.5625
1428.58758	14001.2625
1432.02203	14074.2625
1435.45416	14225.1625
1438.88399	14284.0625
1442.31151	14300.0625
1445.73673	14311.9625
1449.15965	14315.3625
1452.58027	14361.9625
1455.9986	14304.6625
1459.41463	14349.6625
1462.82837	14509.2625
1466.23982	14703.0625
1469.64898	14940.4625
1473.05586	15119.5625
1476.46045	15196.9625
1479.86276	15271.9625
1483.26279	15356.8625
1486.66054	15473.4625
1490.05602	15637.1625
1493.44922	15970.8625
1496.84016	16457.6625
1500.22882	17240.2625
1503.61521	18313.7625
1506.99934	19441.9625
1510.38121	20193.0625
1513.76081	20082.6625
1517.13816	19119.8625
1520.51324	17739.5625
1523.88607	16598.4625
1527.25665	15889.2625
1530.62498	15493.4625
1533.99105	15316.1625
1537.35488	15180.7625
1540.71647	15071.8625
1544.07581	15011.3625
1547.4329	14994.2625
1550.78776	14922.7625
1554.14038	14904.3625
1557.49077	14903.8625
1560.83892	14962.2625
1564.18484	15084.9625
1567.52853	15231.1625
1570.86999	15437.8625
1574.20922	15569.2625
1577.54624	15479.9625
1580.88103	15185.9625
1584.2136	14792.6625
1587.54395	14714.3625
1590.87208	15023.3625
1594.19801	15635.6625
1597.52172	16398.8625
1600.84321	16783.2625
1604.16251	16463.0625
1607.47959	15808.7625
1610.79447	15028.1625
1614.10715	14285.1625
1617.41763	13670.3625
1620.7259	13210.1625
1624.03199	12980.0625
1627.33587	12978.7625
1630.63757	13164.5625
1633.93707	13558.3625
1637.23439	14199.1625
1640.52951	15106.2625
1643.82246	16187.5625
1647.11321	17179.7625
1650.40179	17502.5625
1653.68819	16750.7625
1656.97241	15361.8625
1660.25446	13949.4625
1663.53433	12906.0625
1666.81203	12314.0625
1670.08756	11916.8625
1673.36092	11662.5625
1676.63211	11487.4625
1679.90115	11362.0625
1683.16801	11260.8625
1686.43272	11148.8625
1689.69527	11086.1625
1692.95567	11041.8625
1696.2139	11001.9625
1699.46999	10969.6625
1702.72392	10957.2625
1705.97571	10920.6625
1709.22535	10880.2625
1712.47284	10868.3625
1715.71819	10869.4625
1718.96139	10821.0625
1722.20246	10819.2625
1725.44139	10784.9625
1728.67818	10733.3625
1731.91284	10678.3625
1735.14537	10625.5625
1738.37576	10607.8625
1741.60403	10567.6625
1744.83017	10532.3625
1748.05418	10516.5625
1751.27607	10509.6625
1754.49584	10467.6625
1757.71349	10475.0625
1760.92903	10462.1625
1764.14244	10464.3625
1767.35375	10476.2625
1770.56294	10458.0625
1773.77002	10432.4625
1776.97499	10416.1625
1780.17785	10397.1625
1783.37861	10395.6625
1786.57727	10398.6625
1789.77382	10369.2625
1792.96828	10344.9625
1796.16064	10350.2625
1799.3509	10338.8625
1802.53907	10326.3625
1805.72514	10302.9625
1808.90913	10275.1625
1812.09102	10254.3625
1815.27083	10235.2625
1818.44856	10219.5625
1821.6242	10222.6625
1824.79776	10181.7625
1827.96924	10181.2625
1831.13864	10184.1625
1834.30597	10162.4625
1837.47122	10137.3625
1840.6344	10147.2625
1843.7955	10137.5625
1846.95454	10124.2625
1850.11151	10122.7625
1853.26642	10120.1625
1856.41926	10140.6625
1859.57004	10124.1625
1862.71876	10118.6625
1865.86542	10120.4625
1869.01003	10113.1625
1872.15258	10108.2625
1875.29308	10091.8625
1878.43152	10108.4625
1881.56792	10090.4625
1884.70227	10082.5625
1887.83457	10054.2625
1890.96482	10060.0625
1894.09304	10019.2625
1897.21921	10039.0625
1900.34335	10031.4625
1903.46544	10029.6625
1906.58551	10018.9625
1909.70353	10019.2625
1912.81953	10006.2625
1915.93349	10007.8625
1919.04543	9975.4625
1922.15534	9994.9625
1925.26322	9996.6625
1928.36908	9950.3625
1931.47292	9955.6625
1934.57473	9918.4625
1937.67453	9894.9625
1940.77232	9891.8625
1943.86808	9849.8625
1946.96184	9840.1625
1950.05358	9797.0625
1953.14331	9807.3625
1956.23103	9774.4625
1959.31675	9736.7625
1962.40046	9723.9625
1965.48217	9675.0625
1968.56188	9656.8625
1971.63959	9654.2625
1974.7153	9597.4625
1977.78901	9555.7625
1980.86073	9574.7625
1983.93046	9557.4625
1986.99819	9520.0625
1990.06394	9505.2625
1993.1277	9464.4625
1996.18947	9427.4625
1999.24925	9407.6625
2002.30706	9397.3625
2005.36288	9346.5625
2008.41672	9333.9625
2011.46859	9283.3625
2014.51848	9294.7625
2017.56639	9258.1625
2020.61233	9237.1625
2023.6563	9233.1625
2026.6983	9228.6625
2029.73833	9187.7625
2032.7764	9160.9625
2035.8125	9157.6625
2038.84664	9167.7625
2041.87881	9159.8625
2044.90903	9129.3625
2047.93729	9106.1625
2050.96359	9144.0625
2053.98794	9113.4625
2057.01034	9114.1625
2060.03078	9099.4625
2063.04927	9081.0625
2066.06582	9098.6625
2069.08042	9079.6625
2072.09307	9074.7625
2075.10378	9080.7625
2078.11255	9065.9625
2081.11938	9075.5625
2084.12426	9063.4625
2087.12722	9066.0625
2090.12824	9060.7625
2093.12732	9051.7625
2096.12447	9051.3625
2099.11969	9058.0625
2102.11299	9081.6625
2105.10435	9068.9625
2108.09379	9077.3625
2111.08131	9081.4625
2114.0669	9089.0625
2117.05057	9106.8625
2120.03233	9112.8625
2123.01216	9121.7625
2125.99008	9143.3625
2128.96609	9151.7625
2131.94018	9157.9625
2134.91236	9164.1625
2137.88263	9172.0625
2140.851	9185.6625
2143.81746	9184.8625
2146.78201	9188.9625
2149.74466	9190.7625
2152.7054	9177.8625
2155.66425	9209.5625
2158.6212	9184.4625
2161.57625	9186.5625
2164.52941	9199.1625
2167.48067	9200.3625
2170.43004	9166.3625
2173.37752	9158.6625
2176.32311	9178.3625
2179.26681	9201.5625
2182.20863	9204.5625
2185.14856	9173.5625
2188.08661	9189.6625
2191.02278	9199.4625
2193.95707	9193.1625
2196.88948	9199.8625
2199.82001	9206.0625
2202.74867	9225.1625
2205.67545	9174.4625
2208.60037	9180.6625
2211.52341	9200.7625
2214.44458	9178.3625
2217.36388	9141.1625
2220.28132	9134.9625
2223.1969	9117.4625
2226.11061	9124.6625
2229.02246	9072.1625
2231.93245	9095.6625
2234.84058	9069.0625
2237.74686	9045.9625
2240.65128	9031.7625
2243.55385	9021.6625
2246.45456	9016.8625
2249.35343	9019.8625
2252.25044	8994.4625
2255.14561	9009.1625
2258.03893	8982.5625
2260.93041	8986.3625
2263.82004	8957.5625
2266.70783	8943.3625
2269.59378	8922.9625
2272.4779	8927.0625
2275.36017	8895.1625
2278.24061	8879.8625
2281.11922	8853.8625
2283.996	8866.5625
2286.87094	8841.7625
2289.74405	8830.5625
2292.61534	8828.9625
2295.4848	8835.1625
2298.35243	8838.3625
2301.21824	8832.1625
2304.08223	8830.2625
2306.94439	8828.9625
2309.80474	8826.3625
2312.66327	8836.6625
2315.51999	8803.0625
2318.37489	8814.7625
2321.22797	8801.9625
2324.07925	8803.1625
2326.92871	8791.5625
2329.77637	8804.9625
2332.62222	8790.3625
2335.46626	8769.9625
2338.3085	8747.5625
2341.14893	8767.8625
2343.98756	8762.9625
2346.8244	8746.2625
2349.65943	8771.8625
2352.49267	8763.0625
2355.32411	8733.9625
2358.15376	8748.3625
2360.98161	8747.0625
2363.80768	8731.0625
2366.63195	8718.6625
2369.45444	8721.8625
2372.27514	8705.0625
2375.09405	8702.7625
2377.91118	8676.4625
2380.72652	8677.1625
2383.54009	8659.5625
2386.35187	8628.0625
2389.16188	8598.2625
2391.97011	8609.4625
2394.77657	8615.0625
2397.58125	8586.0625
2400.38416	8572.8625
2403.18529	8555.5625
2405.98466	8556.7625
2408.78226	8548.1625
2411.57809	8527.4625
2414.37216	8515.0625
2417.16446	8512.6625
2419.955	8498.8625
2422.74378	8492.5625
2425.5308	8500.6625
2428.31606	8508.2625
2431.09956	8498.2625
2433.88131	8487.0625
2436.6613	8484.5625
2439.43954	8485.6625
2442.21603	8480.7625
2444.99077	8460.9625
2447.76377	8493.4625
2450.53501	8446.3625
2453.30451	8449.2625
2456.07226	8432.8625
2458.83827	8450.7625
2461.60254	8432.5625
2464.36507	8417.9625
2467.12586	8429.9625
2469.88492	8429.9625
2472.64224	8435.1625
2475.39782	8435.5625
2478.15167	8423.6625
2480.90379	8442.7625
2483.65417	8433.7625
2486.40283	8428.9625
2489.14976	8437.5625
2491.89497	8443.6625
2494.63845	8446.0625
2497.3802	8420.6625
2500.12024	8450.8625
2502.85855	8432.8625
2505.59514	8413.2625
2508.33002	8387.0625
2511.06318	8402.1625
2513.79462	8351.3625
2516.52435	8375.2625
2519.25237	8353.9625
2521.97867	8349.2625
2524.70327	8336.6625
2527.42616	8341.2625
2530.14734	8342.0625
2532.86681	8336.2625
2535.58458	8327.6625
2538.30065	8311.8625
2541.01501	8303.6625
2543.72768	8328.3625
2546.43864	8294.3625
2549.14791	8280.3625
2551.85548	8307.1625
2554.56136	8274.0625
2557.26554	8276.5625
2559.96803	8274.6625
2562.66883	8245.3625
2565.36794	8249.0625
2568.06536	8232.9625
2570.7611	8209.3625
2573.45514	8211.5625
2576.14751	8201.8625
2578.83819	8214.6625
2581.52719	8182.8625
2584.21451	8202.6625
2586.90015	8184.2625
2589.58411	8174.0625
2592.2664	8174.6625
2594.94701	8168.3625
2597.62594	8162.2625
2600.30321	8141.1625
2602.9788	8146.7625
2605.65273	8102.7625
2608.32498	8128.8625
2610.99557	8114.2625
2613.66449	8145.2625
2616.33175	8120.5625
2618.99734	8133.8625
2621.66128	8098.9625
2624.32355	8110.6625
2626.98416	8104.6625
2629.64311	8101.8625
2632.30041	8100.1625
2634.95605	8081.1625
2637.61004	8098.2625
2640.26238	8077.3625
2642.91306	8075.8625
2645.56209	8066.2625
2648.20948	8068.4625
2650.85521	8037.1625
2653.4993	8037.5625
2656.14175	8024.8625
2658.78255	8030.9625
2661.42171	8032.8625
2664.05923	8049.9625
2666.6951	8039.8625
2669.32934	8043.0625
2671.96194	8074.3625
2674.59291	8067.1625
2677.22224	8055.3625
2679.84993	8082.6625
2682.476	8067.1625
2685.10043	8054.3625
2687.72324	8070.8625
2690.34441	8061.5625
2692.96396	8026.8625
2695.58188	8035.9625
2698.19818	8032.3625
2700.81285	8032.2625
2703.4259	8016.6625
2706.03733	8045.5625
2708.64714	8030.3625
2711.25533	8042.6625
2713.86191	8045.4625
2716.46687	8068.2625
2719.07021	8064.0625
2721.67194	8077.2625
2724.27206	8085.7625
2726.87057	8051.7625
2729.46747	8068.9625
2732.06276	8061.6625
2734.65644	8063.6625
2737.24852	8080.2625
2739.83899	8062.0625
2742.42786	8061.2625
2745.01513	8033.3625
2747.60079	8020.5625
2750.18486	8008.2625
2752.76733	8019.7625
2755.3482	8006.9625
2757.92747	8023.0625
2760.50515	7997.5625
2763.08123	8011.2625
2765.65573	7988.5625
2768.22863	7998.5625
2770.79994	7984.5625
2773.36967	7989.1625
2775.9378	7964.2625
2778.50435	7955.7625
2781.06932	7945.2625
2783.6327	7966.8625
2786.1945	7964.0625
2788.75471	7958.5625
2791.31335	7942.5625
2793.87041	7946.4625
2796.42589	7884.2625
2798.97979	7893.0625
2801.53212	7866.5625
2804.08288	7863.8625
2806.63206	7876.4625
2809.17967	7854.0625
2811.72571	7855.1625
2814.27018	7826.7625
2816.81308	7809.0625
2819.35442	7786.7625
2821.89419	7756.4625
2824.43239	7793.1625
2826.96904	7780.4625
2829.50412	7766.0625
2832.03763	7751.5625
2834.56959	7733.5625
2837.1	7746.5625
2839.62884	7736.6625
2842.15613	7733.1625
2844.68186	7749.6625
2847.20604	7746.3625
2849.72867	7736.1625
2852.24974	7708.6625
2854.76927	7676.5625
2857.28724	7691.9625
2859.80367	7701.3625
2862.31855	7681.0625
2864.83189	7681.2625
2867.34368	7684.8625
2869.85393	7667.1625
2872.36264	7654.9625
2874.8698	7644.1625
2877.37543	7665.0625
2879.87952	7673.6625
2882.38207	7674.5625
2884.88308	7688.4625
2887.38256	7684.7625
2889.88051	7660.3625
2892.37692	7676.0625
2894.8718	7683.1625
2897.36515	7682.6625
2899.85698	7696.3625
2902.34727	7710.3625
2904.83604	7731.2625
2907.32328	7731.5625
2909.809	7746.8625
2912.29319	7727.7625
2914.77587	7738.6625
2917.25702	7730.4625
2919.73665	7710.4625
2922.21476	7737.4625
2924.69136	7731.9625
2927.16644	7710.0625
2929.64	7711.7625
2932.11205	7687.3625
2934.58258	7672.0625
2937.05161	7673.4625
2939.51912	7706.4625
2941.98513	7688.9625
2944.44962	7692.1625
2946.91261	7648.3625
2949.37409	7666.0625
2951.83407	7678.6625
2954.29254	7649.7625
2956.74951	7669.6625
2959.20498	7657.8625
2961.65895	7652.2625
2964.11142	7677.2625
2966.56239	7659.1625
2969.01186	7676.9625
2971.45984	7668.2625
2973.90632	7668.1625
2976.35131	7634.9625
2978.7948	7630.7625
2981.23681	7614.3625
2983.67732	7619.6625
2986.11635	7589.4625
2988.55388	7581.3625
2990.98993	7576.6625
2993.4245	7561.3625
2995.85758	7560.2625
2998.28917	7560.4625
3000.71928	7559.2625
3003.14791	7526.4625
3005.57506	7522.6625
3008.00073	7496.5625
3010.42493	7503.9625
3012.84764	7488.8625
3015.26888	7487.4625
3017.68865	7469.3625
3020.10694	7456.1625
3022.52376	7451.1625
3024.9391	7448.7625
3027.35298	7429.7625
3029.76539	7458.7625
3032.17632	7457.3625
3034.5858	7421.4625
3036.9938	7437.8625
3039.40034	7443.4625
3041.80542	7442.9625
3044.20903	7424.9625
3046.61118	7406.3625
3049.01187	7399.6625
3051.4111	7387.9625
3053.80888	7372.4625
3056.20519	7361.5625
3058.60005	7354.3625
3060.99345	7345.8625
3063.3854	7333.9625
3065.7759	7350.4625
3068.16494	7309.8625
3070.55254	7289.4625
3072.93868	7296.2625
3075.32338	7293.7625
3077.70662	7275.5625
