Data from AgNPs_UA_5uM_CRN_0uM_R6G_10uM_Q_RamanShift__28__11-21-55-324.txt Node

Date: Mon Jul 18 11:21:55 BST 2022
User: TCL
Spectrometer: QEP01345
Trigger mode: 4
Integration Time (sec): 7.000000E0
Scans to average: 10
Electric dark correction enabled: true
Nonlinearity correction enabled: false
Boxcar width: 0
XAxis mode: Raman Shifts
Number of Pixels in Spectrum: 1044
>>>>>Begin Spectral Data<<<<<
46.04893	-1.5375
50.45542	-2.5375
54.85868	-2.5375
59.25871	-2.4375
63.6555	145.6625
68.04907	154.1625
72.43941	158.0625
76.82654	165.5625
81.21044	166.6625
85.59113	168.8625
89.96862	180.9625
94.34289	181.3625
98.71396	191.9625
103.08183	196.9625
107.4465	200.1625
111.80798	204.3625
116.16626	213.5625
120.52136	225.1625
124.87327	235.2625
129.222	243.5625
133.56755	261.1625
137.90993	286.4625
142.24913	310.9625
146.58517	349.1625
150.91804	402.8625
155.24774	482.0625
159.57429	616.2625
163.89768	773.3625
168.21792	1038.7625
172.53501	1411.1625
176.84895	1968.3625
181.15975	2757.1625
185.46741	3861.0625
189.77193	5310.3625
194.07331	7085.7625
198.37157	9128.7625
202.6667	11241.6625
206.9587	13318.9625
211.24758	15396.2625
215.53334	17536.5625
219.81599	19791.8625
224.09553	22365.4625
228.37195	25307.2625
232.64527	28472.2625
236.91549	31695.8625
241.18261	34846.4625
245.44663	37675.5625
249.70755	40167.2625
253.96539	42289.5625
258.22014	44146.9625
262.4718	45643.2625
266.72039	46652.0625
270.96589	47169.5625
275.20832	47178.4625
279.44768	46772.9625
283.68397	46244.1625
287.91719	45803.2625
292.14735	45634.8625
296.37445	45913.4625
300.59849	46623.2625
304.81948	47503.2625
309.03742	48058.0625
313.25231	47861.1625
317.46415	46611.8625
321.67296	44847.5625
325.87872	43471.6625
330.08145	42992.1625
334.28114	43225.1625
338.47781	43853.1625
342.67145	44803.3625
346.86207	46009.0625
351.04966	47614.0625
355.23424	49412.0625
359.4158	51122.0625
363.59435	52230.4625
367.76989	52951.2625
371.94243	53337.5625
376.11196	53614.0625
380.27849	53956.3625
384.44203	54090.6625
388.60257	54156.7625
392.76012	54383.9625
396.91468	55131.9625
401.06626	56358.5625
405.21485	57153.4625
409.36047	56893.9625
413.50311	55711.4625
417.64277	54634.3625
421.77947	54167.0625
425.9132	54228.7625
430.04396	54633.7625
434.17176	55348.7625
438.2966	56583.0625
442.41849	58303.6625
446.53742	60614.2625
450.6534	63144.5625
454.76644	65060.9625
458.87653	65693.0625
462.98368	64964.6625
467.08789	63549.5625
471.18916	61516.4625
475.2875	59587.5625
479.38291	58000.2625
483.4754	56877.4625
487.56496	55863.7625
491.6516	54887.3625
495.73531	54189.9625
499.81612	53962.6625
503.89401	54191.9625
507.96899	54367.6625
512.04106	54683.0625
516.11023	55104.6625
520.1765	55522.5625
524.23987	55634.7625
528.30034	55306.3625
532.35792	54967.6625
536.41261	54337.3625
540.46441	53632.9625
544.51333	53520.2625
548.55936	54045.8625
552.60252	54922.7625
556.64279	55626.4625
560.6802	55862.3625
564.71473	56268.6625
568.7464	57359.4625
572.7752	58303.5625
576.80114	58044.1625
580.82422	57986.3625
584.84444	58874.5625
588.86181	60423.9625
592.87633	62150.0625
596.888	63570.5625
600.89682	65411.6625
604.9028	71128.5625
608.90594	82893.3625
612.90624	92581.2625
616.90371	84763.7625
620.89834	68599.3625
624.89015	62876.5625
628.87913	62376.7625
632.86528	60886.4625
636.84862	58771.7625
640.82913	56981.3625
644.80683	55070.0625
648.78172	53922.0625
652.75379	54268.3625
656.72306	55915.2625
660.68952	57683.6625
664.65319	57336.5625
668.61405	56135.3625
672.57211	55592.4625
676.52738	55280.7625
680.47986	55120.6625
684.42955	54972.1625
688.37646	55177.0625
692.32058	55544.9625
696.26192	55953.2625
700.20048	56531.7625
704.13626	56605.3625
708.06928	55899.4625
711.99952	55396.1625
715.927	55463.1625
719.85171	55545.7625
723.77365	55126.6625
727.69284	54575.0625
731.60928	54385.5625
735.52295	54648.7625
739.43388	55106.0625
743.34206	55687.8625
747.24749	56265.2625
751.15017	56918.9625
755.05012	58050.1625
758.94733	60126.0625
762.8418	64011.7625
766.73354	70082.9625
770.62254	75869.9625
774.50882	77859.0625
778.39237	74143.4625
782.27321	67294.0625
786.15132	61504.6625
790.02671	58206.5625
793.89938	56881.2625
797.76935	56502.2625
801.6366	56370.8625
805.50115	56081.9625
809.36299	55760.1625
813.22213	55371.3625
817.07857	55168.5625
820.93231	55131.4625
824.78336	55355.8625
828.63172	55623.7625
832.47738	55884.5625
836.32036	56243.5625
840.16066	56838.8625
843.99827	57286.4625
847.8332	56755.0625
851.66546	56184.1625
855.49504	55918.7625
859.32195	55840.9625
863.1462	55411.2625
866.96777	54948.8625
870.78668	54755.3625
874.60293	54925.1625
878.41652	55004.0625
882.22745	55418.2625
886.03573	55672.1625
889.84136	55471.8625
893.64433	55118.5625
897.44466	54886.4625
901.24235	54882.7625
905.0374	54819.9625
908.8298	54833.1625
912.61957	55044.3625
916.40671	55705.0625
920.19121	56790.4625
923.97308	58057.0625
927.75233	59068.2625
931.52895	59414.0625
935.30295	58663.1625
939.07433	57096.9625
942.84309	56090.1625
946.60924	55754.5625
950.37278	55239.1625
954.13371	54589.9625
957.89203	53968.1625
961.64774	53690.2625
965.40086	53406.2625
969.15137	53216.0625
972.89929	53090.7625
976.64461	53226.4625
980.38733	53531.0625
984.12747	54073.5625
987.86502	54822.1625
991.59999	56055.0625
995.33237	58438.5625
999.06217	62560.5625
1002.78939	66700.2625
1006.51404	68065.4625
1010.23611	68145.2625
1013.95561	69013.9625
1017.67255	69896.7625
1021.38692	69795.6625
1025.09872	70132.2625
1028.80796	72852.8625
1032.51465	77644.1625
1036.21877	81081.9625
1039.92035	80429.3625
1043.61937	76914.7625
1047.31584	71929.7625
1051.00976	67152.9625
1054.70114	64722.2625
1058.38998	64077.8625
1062.07627	63895.0625
1065.76003	63435.6625
1069.44126	63058.3625
1073.11995	63253.7625
1076.79611	63671.1625
1080.46974	64225.3625
1084.14085	65106.3625
1087.80943	65958.7625
1091.47549	65871.8625
1095.13903	64680.8625
1098.80005	63117.9625
1102.45857	62160.8625
1106.11456	62019.8625
1109.76805	62734.3625
1113.41903	63708.3625
1117.06751	64817.5625
1120.71348	65998.2625
1124.35696	67083.0625
1127.99793	67858.4625
1131.63641	67645.6625
1135.2724	66507.8625
1138.90589	65320.0625
1142.5369	64357.7625
1146.16542	63654.1625
1149.79145	63545.2625
1153.415	64164.1625
1157.03607	64886.2625
1160.65467	66012.0625
1164.27079	68152.9625
1167.88443	71597.0625
1171.49561	76873.1625
1175.10432	84501.2625
1178.71056	94344.8625
1182.31434	103525.0625
1185.91565	108832.3625
1189.51451	108773.0625
1193.11091	102755.3625
1196.70485	94813.9625
1200.29634	88528.8625
1203.88538	84120.3625
1207.47197	80686.9625
1211.05612	78372.6625
1214.63782	77877.0625
1218.21708	78860.0625
1221.79391	80545.7625
1225.36829	81607.2625
1228.94024	81075.6625
1232.50976	79214.2625
1236.07685	77838.2625
1239.6415	77507.9625
1243.20374	77761.1625
1246.76355	78398.6625
1250.32093	80026.1625
1253.8759	82617.5625
1257.42845	85771.3625
1260.97859	88178.5625
1264.52631	90016.5625
1268.07163	91942.8625
1271.61453	94593.8625
1275.15503	98149.7625
1278.69312	102306.7625
1282.22882	105726.7625
1285.76211	107920.9625
1289.29301	109251.4625
1292.82151	110723.6625
1296.34761	113628.5625
1299.87133	118718.7625
1303.39266	126805.5625
1306.9116	138222.5625
1310.42815	150806.1625
1313.94233	158464.4625
1317.45412	157341.2625
1320.96354	150379.3625
1324.47058	142426.3625
1327.97525	136340.7625
1331.47754	133382.5625
1334.97747	133196.9625
1338.47502	134648.8625
1341.97022	136778.2625
1345.46305	138105.8625
1348.95352	138786.6625
1352.44163	140183.7625
1355.92738	145223.1625
1359.41078	155369.4625
1362.89183	163851.3625
1366.37053	158521.8625
1369.84688	140923.1625
1373.32088	123055.0625
1376.79254	111327.4625
1380.26186	105630.3625
1383.72883	103285.0625
1387.19347	101559.4625
1390.65578	99308.8625
1394.11575	97864.3625
1397.57339	98376.2625
1401.0287	100759.6625
1404.48168	103647.0625
1407.93234	106862.1625
1411.38068	109768.2625
1414.82669	110356.9625
1418.27039	107749.5625
1421.71177	103626.5625
1425.15083	100532.5625
1428.58758	99408.9625
1432.02203	100399.1625
1435.45416	102152.7625
1438.88399	103216.4625
1442.31151	103627.6625
1445.73673	103883.4625
1449.15965	103937.0625
1452.58027	102963.0625
1455.9986	101277.1625
1459.41463	100634.5625
1462.82837	101262.9625
1466.23982	103342.6625
1469.64898	105833.4625
1473.05586	107778.1625
1476.46045	109516.6625
1479.86276	111239.4625
1483.26279	112404.1625
1486.66054	113499.0625
1490.05602	114953.7625
1493.44922	116716.5625
1496.84016	118663.3625
1500.22882	121137.0625
1503.61521	124987.5625
1506.99934	130022.3625
1510.38121	134654.8625
1513.76081	135800.6625
1517.13816	131931.9625
1520.51324	125088.6625
1523.88607	118488.1625
1527.25665	113862.6625
1530.62498	111130.1625
1533.99105	109239.3625
1537.35488	108099.5625
1540.71647	107652.3625
1544.07581	106976.7625
1547.4329	105479.9625
1550.78776	103553.7625
1554.14038	101719.8625
1557.49077	100375.0625
1560.83892	99552.1625
1564.18484	99120.5625
1567.52853	98861.8625
1570.86999	98590.8625
1574.20922	98613.6625
1577.54624	98405.6625
1580.88103	97241.8625
1584.2136	96599.0625
1587.54395	98845.8625
1590.87208	105579.2625
1594.19801	116741.9625
1597.52172	129621.5625
1600.84321	136933.0625
1604.16251	133467.1625
1607.47959	121978.1625
1610.79447	108489.0625
1614.10715	96635.6625
1617.41763	88335.7625
1620.7259	83477.9625
1624.03199	81352.3625
1627.33587	82301.2625
1630.63757	85758.6625
1633.93707	91716.0625
1637.23439	99159.2625
1640.52951	107332.5625
1643.82246	114970.6625
1647.11321	119800.9625
1650.40179	118910.7625
1653.68819	110510.6625
1656.97241	97253.5625
1660.25446	84562.1625
1663.53433	75576.0625
1666.81203	69871.7625
1670.08756	66165.6625
1673.36092	63759.1625
1676.63211	62067.0625
1679.90115	60951.5625
1683.16801	60041.3625
1686.43272	59403.4625
1689.69527	58848.9625
1692.95567	58479.8625
1696.2139	58242.7625
1699.46999	58073.8625
1702.72392	58082.1625
1705.97571	58066.0625
1709.22535	57932.5625
1712.47284	58005.3625
1715.71819	58083.9625
1718.96139	57921.5625
1722.20246	57749.3625
1725.44139	57393.6625
1728.67818	57163.3625
1731.91284	56900.0625
1735.14537	56575.3625
1738.37576	56426.9625
1741.60403	56247.5625
1744.83017	56119.4625
1748.05418	55989.4625
1751.27607	55954.5625
1754.49584	55809.2625
1757.71349	55755.6625
1760.92903	55693.8625
1764.14244	55719.3625
1767.35375	55659.0625
1770.56294	55518.9625
1773.77002	55552.8625
1776.97499	55577.5625
1780.17785	55528.5625
1783.37861	55409.1625
1786.57727	55442.8625
1789.77382	55456.0625
1792.96828	55423.8625
1796.16064	55405.5625
1799.3509	55458.9625
1802.53907	55358.7625
1805.72514	55266.1625
1808.90913	55208.3625
1812.09102	55101.0625
1815.27083	55043.3625
1818.44856	54907.6625
1821.6242	54915.2625
1824.79776	54790.0625
1827.96924	54679.2625
1831.13864	54579.6625
1834.30597	54645.0625
1837.47122	54626.8625
1840.6344	54569.1625
1843.7955	54680.2625
1846.95454	54694.2625
1850.11151	54600.5625
1853.26642	54575.1625
1856.41926	54595.5625
1859.57004	54687.2625
1862.71876	54735.8625
1865.86542	54795.8625
1869.01003	54859.9625
1872.15258	54942.8625
1875.29308	54890.0625
1878.43152	54877.8625
1881.56792	54871.2625
1884.70227	54845.1625
1887.83457	54807.7625
1890.96482	54756.8625
1894.09304	54829.9625
1897.21921	54829.9625
1900.34335	54907.0625
1903.46544	54793.1625
1906.58551	54845.7625
1909.70353	54822.5625
1912.81953	54805.5625
1915.93349	54770.9625
1919.04543	54779.4625
1922.15534	54771.3625
1925.26322	54683.3625
1928.36908	54653.3625
1931.47292	54578.9625
1934.57473	54466.6625
1937.67453	54413.8625
1940.77232	54318.5625
1943.86808	54101.0625
1946.96184	53969.1625
1950.05358	53740.2625
1953.14331	53672.8625
1956.23103	53490.0625
1959.31675	53282.4625
1962.40046	53205.4625
1965.48217	53112.7625
1968.56188	52962.0625
1971.63959	52801.6625
1974.7153	52695.7625
1977.78901	52554.6625
1980.86073	52365.7625
1983.93046	52287.9625
1986.99819	52032.1625
1990.06394	51943.8625
1993.1277	51766.3625
1996.18947	51608.0625
1999.24925	51595.5625
2002.30706	51481.8625
2005.36288	51387.9625
2008.41672	51291.4625
2011.46859	51172.3625
2014.51848	51049.9625
2017.56639	51013.1625
2020.61233	50944.4625
2023.6563	50790.7625
2026.6983	50730.9625
2029.73833	50588.0625
2032.7764	50464.8625
2035.8125	50495.9625
2038.84664	50437.5625
2041.87881	50398.1625
2044.90903	50347.0625
2047.93729	50256.4625
2050.96359	50388.9625
2053.98794	50295.8625
2057.01034	50244.5625
2060.03078	50198.3625
2063.04927	50119.0625
2066.06582	50025.4625
2069.08042	49960.1625
2072.09307	50003.9625
2075.10378	49916.0625
2078.11255	49835.2625
2081.11938	49818.5625
2084.12426	49724.6625
2087.12722	49601.0625
2090.12824	49558.3625
2093.12732	49570.9625
2096.12447	49655.1625
2099.11969	49635.8625
2102.11299	49700.7625
2105.10435	49659.5625
2108.09379	49729.3625
2111.08131	49756.5625
2114.0669	49726.9625
2117.05057	49755.7625
2120.03233	49793.5625
2123.01216	49804.7625
2125.99008	49857.6625
2128.96609	49877.0625
2131.94018	49946.2625
2134.91236	49976.1625
2137.88263	49989.9625
2140.851	50053.2625
2143.81746	50030.2625
2146.78201	50107.7625
2149.74466	50175.1625
2152.7054	50209.9625
2155.66425	50187.9625
2158.6212	50195.2625
2161.57625	50129.8625
2164.52941	50112.7625
2167.48067	50126.4625
2170.43004	50120.5625
2173.37752	50114.4625
2176.32311	50092.4625
2179.26681	50111.5625
2182.20863	50244.8625
2185.14856	50269.3625
2188.08661	50283.0625
2191.02278	50368.7625
2193.95707	50425.5625
2196.88948	50474.4625
2199.82001	50521.8625
2202.74867	50520.4625
2205.67545	50551.2625
2208.60037	50565.6625
2211.52341	50526.4625
2214.44458	50472.9625
2217.36388	50511.9625
2220.28132	50535.1625
2223.1969	50496.7625
2226.11061	50420.8625
2229.02246	50309.8625
2231.93245	50235.2625
2234.84058	50090.9625
2237.74686	49914.2625
2240.65128	49812.9625
2243.55385	49752.3625
2246.45456	49736.8625
2249.35343	49643.5625
2252.25044	49558.3625
2255.14561	49560.7625
2258.03893	49545.7625
2260.93041	49456.9625
2263.82004	49370.4625
2266.70783	49272.8625
2269.59378	49168.2625
2272.4779	49103.2625
2275.36017	48915.1625
2278.24061	48819.9625
2281.11922	48731.3625
2283.996	48622.2625
2286.87094	48612.5625
2289.74405	48572.7625
2292.61534	48581.3625
2295.4848	48576.0625
2298.35243	48652.6625
2301.21824	48709.6625
2304.08223	48717.0625
2306.94439	48846.3625
2309.80474	48977.6625
2312.66327	49150.9625
2315.51999	49202.8625
2318.37489	49383.4625
2321.22797	49345.2625
2324.07925	49269.6625
2326.92871	49266.7625
2329.77637	49225.2625
2332.62222	49258.9625
2335.46626	49311.2625
2338.3085	49517.7625
2341.14893	49621.8625
2343.98756	49786.5625
2346.8244	49821.8625
2349.65943	50024.9625
2352.49267	50067.1625
2355.32411	50000.0625
2358.15376	49881.9625
2360.98161	49797.6625
2363.80768	49724.8625
2366.63195	49567.7625
2369.45444	49336.7625
2372.27514	49202.4625
2375.09405	49094.7625
2377.91118	48961.0625
2380.72652	48788.6625
2383.54009	48629.0625
2386.35187	48613.9625
2389.16188	48524.0625
2391.97011	48533.3625
2394.77657	48451.5625
2397.58125	48478.4625
2400.38416	48279.2625
2403.18529	48118.6625
2405.98466	48132.4625
2408.78226	47991.3625
2411.57809	47840.9625
2414.37216	47653.0625
2417.16446	47615.2625
2419.955	47420.3625
2422.74378	47394.2625
2425.5308	47396.1625
2428.31606	47337.6625
2431.09956	47388.0625
2433.88131	47274.4625
2436.6613	47333.8625
2439.43954	47355.1625
2442.21603	47390.7625
2444.99077	47322.7625
2447.76377	47361.8625
2450.53501	47254.7625
2453.30451	47324.0625
2456.07226	47236.2625
2458.83827	47162.9625
2461.60254	47147.7625
2464.36507	47190.2625
2467.12586	47186.3625
2469.88492	47239.0625
2472.64224	47214.2625
2475.39782	47174.9625
2478.15167	47342.6625
2480.90379	47487.5625
2483.65417	47664.3625
2486.40283	47727.2625
2489.14976	47884.1625
2491.89497	47938.3625
2494.63845	47990.7625
2497.3802	47930.6625
2500.12024	47965.1625
2502.85855	48002.6625
2505.59514	47949.9625
2508.33002	47874.7625
2511.06318	47796.7625
2513.79462	47737.8625
2516.52435	47671.4625
2519.25237	47621.0625
2521.97867	47553.6625
2524.70327	47649.0625
2527.42616	47604.3625
2530.14734	47662.4625
2532.86681	47606.2625
2535.58458	47568.6625
2538.30065	47698.8625
2541.01501	47727.1625
2543.72768	47780.5625
2546.43864	47757.2625
2549.14791	47702.6625
2551.85548	47699.3625
2554.56136	47617.9625
2557.26554	47549.8625
2559.96803	47506.5625
2562.66883	47484.4625
2565.36794	47470.0625
2568.06536	47395.9625
2570.7611	47328.4625
2573.45514	47327.2625
2576.14751	47350.6625
2578.83819	47308.4625
2581.52719	47473.0625
2584.21451	47542.8625
2586.90015	47516.5625
2589.58411	47592.6625
2592.2664	47671.6625
2594.94701	47588.0625
2597.62594	47698.1625
2600.30321	47677.2625
2602.9788	47702.4625
2605.65273	47641.7625
2608.32498	47622.2625
2610.99557	47703.0625
2613.66449	47759.1625
2616.33175	47819.0625
2618.99734	47932.7625
2621.66128	47972.1625
2624.32355	48070.1625
2626.98416	48319.4625
2629.64311	48480.8625
2632.30041	48459.7625
2634.95605	48443.1625
2637.61004	48301.6625
2640.26238	48269.0625
2642.91306	48165.4625
2645.56209	47946.4625
2648.20948	47888.8625
2650.85521	47761.5625
2653.4993	47715.8625
2656.14175	47644.9625
2658.78255	47739.0625
2661.42171	47840.9625
2664.05923	48023.3625
2666.6951	48107.7625
2669.32934	48123.8625
2671.96194	48163.7625
2674.59291	48234.6625
2677.22224	48118.2625
2679.84993	48087.8625
2682.476	47988.9625
2685.10043	47995.2625
2687.72324	47862.4625
2690.34441	47790.8625
2692.96396	47697.7625
2695.58188	47699.0625
2698.19818	47580.7625
2700.81285	47618.0625
2703.4259	47557.5625
2706.03733	47639.0625
2708.64714	47597.4625
2711.25533	47607.0625
2713.86191	47649.1625
2716.46687	47777.0625
2719.07021	47754.1625
2721.67194	47770.7625
2724.27206	47715.6625
2726.87057	47790.2625
2729.46747	47718.8625
2732.06276	47762.7625
2734.65644	47766.8625
2737.24852	47800.2625
2739.83899	47815.9625
2742.42786	47815.2625
2745.01513	47619.3625
2747.60079	47614.9625
2750.18486	47674.1625
2752.76733	47747.1625
2755.3482	47791.4625
2757.92747	47805.9625
2760.50515	47793.9625
2763.08123	47776.1625
2765.65573	47741.5625
2768.22863	47703.9625
2770.79994	47750.0625
2773.36967	47838.6625
2775.9378	47854.8625
2778.50435	47806.9625
2781.06932	47860.5625
2783.6327	47937.4625
2786.1945	47923.2625
2788.75471	47872.8625
2791.31335	47704.7625
2793.87041	47642.4625
2796.42589	47541.2625
2798.97979	47600.7625
2801.53212	47476.5625
2804.08288	47468.6625
2806.63206	47369.5625
2809.17967	47349.5625
2811.72571	47292.2625
2814.27018	47208.0625
2816.81308	47047.7625
2819.35442	47034.1625
2821.89419	46981.2625
2824.43239	47062.9625
2826.96904	46974.0625
2829.50412	47083.7625
2832.03763	47099.6625
2834.56959	47115.8625
2837.1	47045.5625
2839.62884	47131.7625
2842.15613	47033.3625
2844.68186	46903.9625
2847.20604	46811.1625
2849.72867	46810.9625
2852.24974	46801.4625
2854.76927	46681.9625
2857.28724	46636.4625
2859.80367	46714.2625
2862.31855	46639.6625
2864.83189	46691.9625
2867.34368	46636.5625
2869.85393	46651.1625
2872.36264	46525.5625
2874.8698	46450.5625
2877.37543	46511.2625
2879.87952	46510.2625
2882.38207	46465.4625
2884.88308	46453.4625
2887.38256	46431.4625
2889.88051	46461.5625
2892.37692	46474.4625
2894.8718	46537.0625
2897.36515	46679.4625
2899.85698	46673.1625
2902.34727	46749.1625
2904.83604	46782.1625
2907.32328	47008.0625
2909.809	47119.6625
2912.29319	47245.1625
2914.77587	47156.5625
2917.25702	47116.9625
2919.73665	47015.7625
2922.21476	46991.4625
2924.69136	46938.0625
2927.16644	46857.1625
2929.64	46747.0625
2932.11205	46644.4625
2934.58258	46531.5625
2937.05161	46540.2625
2939.51912	46521.8625
2941.98513	46488.3625
2944.44962	46461.1625
2946.91261	46363.3625
2949.37409	46453.1625
2951.83407	46425.7625
2954.29254	46397.1625
2956.74951	46351.4625
2959.20498	46328.8625
2961.65895	46183.4625
2964.11142	46260.4625
2966.56239	46144.5625
2969.01186	46153.0625
2971.45984	46019.4625
2973.90632	45844.7625
2976.35131	45782.2625
2978.7948	45671.1625
2981.23681	45537.7625
2983.67732	45480.6625
2986.11635	45338.0625
2988.55388	45231.0625
2990.98993	45154.8625
2993.4245	44970.1625
2995.85758	44844.6625
2998.28917	44787.3625
3000.71928	44718.2625
3003.14791	44615.0625
3005.57506	44490.5625
3008.00073	44284.3625
3010.42493	44217.9625
3012.84764	44103.5625
3015.26888	44059.1625
