Data from AgNPs_UA_0uM_CRN_0uM_R6G_10uM_Q_RamanShift__0__11-18-28-755.txt Node

Date: Wed Jul 13 11:18:28 BST 2022
User: TCL
Spectrometer: QEP01345
Trigger mode: 4
Integration Time (sec): 7.000000E0
Scans to average: 10
Electric dark correction enabled: true
Nonlinearity correction enabled: false
Boxcar width: 0
XAxis mode: Raman Shifts
Number of Pixels in Spectrum: 1044
>>>>>Begin Spectral Data<<<<<
46.04893	-0.225
50.45542	-0.225
54.85868	-1.425
59.25871	0.175
63.6555	51.775
68.04907	50.275
72.43941	49.775
76.82654	56.075
81.21044	56.675
85.59113	63.975
89.96862	68.375
94.34289	65.775
98.71396	66.675
103.08183	71.575
107.4465	72.575
111.80798	72.975
116.16626	75.675
120.52136	78.975
124.87327	75.475
129.222	78.975
133.56755	79.275
137.90993	83.875
142.24913	90.575
146.58517	95.375
150.91804	109.575
155.24774	117.975
159.57429	140.675
163.89768	173.475
168.21792	220.475
172.53501	291.075
176.84895	390.675
181.15975	544.075
185.46741	753.275
189.77193	1038.175
194.07331	1410.275
198.37157	1838.475
202.6667	2298.175
206.9587	2795.975
211.24758	3269.075
215.53334	3779.475
219.81599	4320.075
224.09553	4935.775
228.37195	5603.375
232.64527	6368.675
236.91549	7201.575
241.18261	8055.575
245.44663	8905.575
249.70755	9678.775
253.96539	10358.175
258.22014	10950.575
262.4718	11337.375
266.72039	11533.675
270.96589	11547.175
275.20832	11337.475
279.44768	10963.175
283.68397	10506.075
287.91719	9917.275
292.14735	9327.875
296.37445	8781.675
300.59849	8298.375
304.81948	7867.875
309.03742	7493.175
313.25231	7068.975
317.46415	6596.075
321.67296	6108.575
325.87872	5665.175
330.08145	5371.775
334.28114	5226.375
338.47781	5157.475
342.67145	5119.875
346.86207	5177.975
351.04966	5284.075
355.23424	5422.875
359.4158	5449.575
363.59435	5434.675
367.76989	5345.375
371.94243	5283.275
376.11196	5196.575
380.27849	5159.375
384.44203	5101.775
388.60257	5057.775
392.76012	5043.975
396.91468	5082.275
401.06626	5144.675
405.21485	5180.375
409.36047	5103.775
413.50311	4958.975
417.64277	4807.875
421.77947	4722.575
425.9132	4691.475
430.04396	4696.875
434.17176	4703.075
438.2966	4739.475
442.41849	4789.675
446.53742	4830.875
450.6534	4869.575
454.76644	4890.475
458.87653	4901.675
462.98368	4882.275
467.08789	4871.875
471.18916	4824.775
475.2875	4765.775
479.38291	4724.075
483.4754	4695.875
487.56496	4681.875
491.6516	4664.075
495.73531	4659.975
499.81612	4680.775
503.89401	4710.575
507.96899	4761.775
512.04106	4786.075
516.11023	4869.875
520.1765	4927.275
524.23987	4976.375
528.30034	5011.775
532.35792	5035.675
536.41261	5050.775
540.46441	5034.175
544.51333	5062.175
548.55936	5104.475
552.60252	5189.175
556.64279	5275.775
560.6802	5369.475
564.71473	5488.175
568.7464	5579.475
572.7752	5550.775
576.80114	5311.475
580.82422	5092.675
584.84444	4965.275
588.86181	4892.975
592.87633	4894.875
596.888	4955.875
600.89682	5158.575
604.9028	5670.975
608.90594	6807.875
612.90624	8121.575
616.90371	7815.475
620.89834	6326.575
624.89015	5614.475
628.87913	5421.275
632.86528	5330.275
636.84862	5272.775
640.82913	5120.975
644.80683	4941.075
648.78172	4871.075
652.75379	4902.175
656.72306	5086.475
660.68952	5313.475
664.65319	5419.575
668.61405	5517.375
672.57211	5773.375
676.52738	6163.175
680.47986	6515.575
684.42955	6776.575
688.37646	6917.075
692.32058	6959.075
696.26192	6897.375
700.20048	6814.775
704.13626	6711.975
708.06928	6573.575
711.99952	6427.175
715.927	6245.775
719.85171	6064.875
723.77365	5889.075
727.69284	5683.875
731.60928	5528.375
735.52295	5404.375
739.43388	5348.175
743.34206	5269.375
747.24749	5231.775
751.15017	5201.175
755.05012	5188.675
758.94733	5300.575
762.8418	5675.375
766.73354	6254.775
770.62254	6728.475
774.50882	6816.375
778.39237	6590.275
782.27321	6190.075
786.15132	5707.575
790.02671	5420.075
793.89938	5288.475
797.76935	5234.675
801.6366	5207.175
805.50115	5213.675
809.36299	5195.075
813.22213	5233.675
817.07857	5274.875
820.93231	5298.275
824.78336	5336.775
828.63172	5340.275
832.47738	5328.575
836.32036	5302.375
840.16066	5253.975
843.99827	5247.075
847.8332	5239.875
851.66546	5242.575
855.49504	5255.975
859.32195	5264.675
863.1462	5276.175
866.96777	5318.075
870.78668	5334.075
874.60293	5382.875
878.41652	5429.075
882.22745	5493.275
886.03573	5564.375
889.84136	5649.175
893.64433	5720.375
897.44466	5850.975
901.24235	5973.875
905.0374	6131.175
908.8298	6271.875
912.61957	6368.275
916.40671	6403.875
920.19121	6417.475
923.97308	6406.475
927.75233	6396.375
931.52895	6392.475
935.30295	6298.975
939.07433	6141.875
942.84309	6030.075
946.60924	5903.275
950.37278	5841.175
954.13371	5775.275
957.89203	5724.375
961.64774	5689.175
965.40086	5675.275
969.15137	5647.075
972.89929	5615.775
976.64461	5607.475
980.38733	5610.475
984.12747	5582.575
987.86502	5587.875
991.59999	5611.875
995.33237	5614.375
999.06217	5651.075
1002.78939	5718.875
1006.51404	5765.875
1010.23611	5863.275
1013.95561	5897.375
1017.67255	5937.775
1021.38692	5967.175
1025.09872	5977.675
1028.80796	6045.675
1032.51465	6200.175
1036.21877	6406.875
1039.92035	6728.875
1043.61937	7206.275
1047.31584	7718.075
1051.00976	8193.375
1054.70114	8387.075
1058.38998	8236.475
1062.07627	7774.275
1065.76003	7165.875
1069.44126	6565.775
1073.11995	6169.175
1076.79611	5941.775
1080.46974	5834.575
1084.14085	5831.675
1087.80943	5829.475
1091.47549	5835.375
1095.13903	5721.175
1098.80005	5596.575
1102.45857	5560.675
1106.11456	5550.675
1109.76805	5556.675
1113.41903	5575.575
1117.06751	5662.075
1120.71348	5760.175
1124.35696	5916.775
1127.99793	6058.475
1131.63641	6017.175
1135.2724	5808.775
1138.90589	5646.775
1142.5369	5539.775
1146.16542	5478.075
1149.79145	5432.175
1153.415	5409.375
1157.03607	5377.775
1160.65467	5413.475
1164.27079	5498.275
1167.88443	5617.575
1171.49561	5804.275
1175.10432	6144.675
1178.71056	6630.375
1182.31434	7016.175
1185.91565	7042.675
1189.51451	6830.375
1193.11091	6585.675
1196.70485	6328.775
1200.29634	6197.375
1203.88538	6074.875
1207.47197	5872.175
1211.05612	5712.575
1214.63782	5603.775
1218.21708	5542.575
1221.79391	5535.775
1225.36829	5536.775
1228.94024	5547.975
1232.50976	5579.475
1236.07685	5624.275
1239.6415	5650.275
1243.20374	5708.975
1246.76355	5742.775
1250.32093	5782.475
1253.8759	5852.475
1257.42845	5953.275
1260.97859	6090.175
1264.52631	6250.875
1268.07163	6378.775
1271.61453	6485.875
1275.15503	6566.675
1278.69312	6600.075
1282.22882	6634.875
1285.76211	6752.675
1289.29301	6956.375
1292.82151	7118.475
1296.34761	7300.475
1299.87133	7544.875
1303.39266	7940.375
1306.9116	8570.775
1310.42815	9272.375
1313.94233	9571.875
1317.45412	9244.075
1320.96354	8635.175
1324.47058	8127.175
1327.97525	7736.175
1331.47754	7483.175
1334.97747	7365.875
1338.47502	7345.075
1341.97022	7483.475
1345.46305	7796.575
1348.95352	8267.575
1352.44163	8728.775
1355.92738	9261.275
1359.41078	10131.375
1362.89183	11146.175
1366.37053	11052.275
1369.84688	9767.175
1373.32088	8504.075
1376.79254	7864.775
1380.26186	7557.775
1383.72883	7398.775
1387.19347	7257.275
1390.65578	7159.175
1394.11575	7097.775
1397.57339	7112.375
1401.0287	7112.175
1404.48168	7152.375
1407.93234	7204.675
1411.38068	7287.175
1414.82669	7406.375
1418.27039	7528.675
1421.71177	7623.575
1425.15083	7681.675
1428.58758	7685.775
1432.02203	7746.575
1435.45416	7852.375
1438.88399	7879.075
1442.31151	7883.375
1445.73673	7890.475
1449.15965	7921.475
1452.58027	7902.475
1455.9986	7880.775
1459.41463	7872.775
1462.82837	7845.875
1466.23982	7856.675
1469.64898	7869.175
1473.05586	7853.275
1476.46045	7794.575
1479.86276	7757.175
1483.26279	7706.775
1486.66054	7699.675
1490.05602	7722.075
1493.44922	7847.675
1496.84016	8090.975
1500.22882	8543.975
1503.61521	9249.775
1506.99934	10118.575
1510.38121	10803.075
1513.76081	10882.975
1517.13816	10122.175
1520.51324	8959.575
1523.88607	7925.575
1527.25665	7235.575
1530.62498	6818.475
1533.99105	6554.975
1537.35488	6388.875
1540.71647	6277.475
1544.07581	6176.675
1547.4329	6142.375
1550.78776	6154.575
1554.14038	6153.875
1557.49077	6195.075
1560.83892	6269.275
1564.18484	6418.275
1567.52853	6592.275
1570.86999	6770.275
1574.20922	6859.675
1577.54624	6773.175
1580.88103	6513.375
1584.2136	6162.575
1587.54395	5912.875
1590.87208	5837.875
1594.19801	5900.975
1597.52172	6001.775
1600.84321	6009.875
1604.16251	5894.775
1607.47959	5786.375
1610.79447	5687.675
1614.10715	5578.575
1617.41763	5491.875
1620.7259	5417.675
1624.03199	5394.975
1627.33587	5393.875
1630.63757	5458.675
1633.93707	5552.375
1637.23439	5703.675
1640.52951	5983.275
1643.82246	6493.175
1647.11321	7072.475
1650.40179	7573.975
1653.68819	7496.575
1656.97241	6859.875
1660.25446	6170.075
1663.53433	5655.275
1666.81203	5352.675
1670.08756	5188.875
1673.36092	5073.675
1676.63211	4993.575
1679.90115	4940.775
1683.16801	4911.075
1686.43272	4860.275
1689.69527	4841.575
1692.95567	4812.275
1696.2139	4806.375
1699.46999	4780.475
1702.72392	4788.775
1705.97571	4774.375
1709.22535	4777.975
1712.47284	4796.975
1715.71819	4798.275
1718.96139	4820.975
1722.20246	4815.775
1725.44139	4825.975
1728.67818	4823.375
1731.91284	4841.775
1735.14537	4849.575
1738.37576	4879.475
1741.60403	4908.175
1744.83017	4936.075
1748.05418	4980.775
1751.27607	5015.875
1754.49584	5060.475
1757.71349	5092.975
1760.92903	5146.975
1764.14244	5168.775
1767.35375	5218.075
1770.56294	5223.975
1773.77002	5227.175
1776.97499	5224.475
1780.17785	5191.775
1783.37861	5177.475
1786.57727	5097.375
1789.77382	5055.275
1792.96828	5008.275
1796.16064	4933.375
1799.3509	4873.475
1802.53907	4798.375
1805.72514	4749.475
1808.90913	4699.875
1812.09102	4637.275
1815.27083	4592.075
1818.44856	4576.975
1821.6242	4515.175
1824.79776	4491.675
1827.96924	4475.475
1831.13864	4464.875
1834.30597	4454.075
1837.47122	4448.775
1840.6344	4413.275
1843.7955	4424.675
1846.95454	4423.575
1850.11151	4413.275
1853.26642	4407.675
1856.41926	4404.675
1859.57004	4381.575
1862.71876	4400.775
1865.86542	4380.475
1869.01003	4400.475
1872.15258	4382.775
1875.29308	4397.875
1878.43152	4367.475
1881.56792	4360.475
1884.70227	4368.675
1887.83457	4359.775
1890.96482	4369.475
1894.09304	4333.575
1897.21921	4338.475
1900.34335	4328.275
1903.46544	4317.975
1906.58551	4332.775
1909.70353	4346.075
1912.81953	4349.175
1915.93349	4345.175
1919.04543	4354.875
1922.15534	4345.375
1925.26322	4359.975
1928.36908	4352.975
1931.47292	4365.375
1934.57473	4360.175
1937.67453	4343.175
1940.77232	4334.875
1943.86808	4332.575
1946.96184	4319.375
1950.05358	4302.375
1953.14331	4283.675
1956.23103	4255.375
1959.31675	4246.575
1962.40046	4227.475
1965.48217	4210.075
1968.56188	4191.575
1971.63959	4190.575
1974.7153	4171.775
1977.78901	4153.175
1980.86073	4131.875
1983.93046	4120.175
1986.99819	4108.975
1990.06394	4087.675
1993.1277	4078.175
1996.18947	4076.475
1999.24925	4073.575
2002.30706	4077.675
2005.36288	4074.875
2008.41672	4071.875
2011.46859	4063.575
2014.51848	4063.975
2017.56639	4065.175
2020.61233	4074.175
2023.6563	4077.975
2026.6983	4093.675
2029.73833	4103.275
2032.7764	4109.775
2035.8125	4146.875
2038.84664	4176.375
2041.87881	4210.075
2044.90903	4240.475
2047.93729	4290.175
2050.96359	4322.475
2053.98794	4347.175
2057.01034	4382.075
2060.03078	4419.975
2063.04927	4480.275
2066.06582	4481.375
2069.08042	4506.475
2072.09307	4524.875
2075.10378	4531.475
2078.11255	4541.175
2081.11938	4529.075
2084.12426	4506.575
2087.12722	4494.875
2090.12824	4468.275
2093.12732	4437.575
2096.12447	4397.075
2099.11969	4352.975
2102.11299	4305.975
2105.10435	4278.475
2108.09379	4235.375
2111.08131	4193.575
2114.0669	4150.675
2117.05057	4132.175
2120.03233	4096.675
2123.01216	4066.275
2125.99008	4034.675
2128.96609	4008.675
2131.94018	3992.175
2134.91236	3973.275
2137.88263	3953.475
2140.851	3950.575
2143.81746	3928.775
2146.78201	3920.175
2149.74466	3923.275
2152.7054	3919.575
2155.66425	3889.175
2158.6212	3876.675
2161.57625	3883.475
2164.52941	3875.075
2167.48067	3865.875
2170.43004	3863.175
2173.37752	3856.175
2176.32311	3853.075
2179.26681	3865.175
2182.20863	3860.875
2185.14856	3846.975
2188.08661	3856.275
2191.02278	3846.475
2193.95707	3842.275
2196.88948	3839.675
2199.82001	3829.675
2202.74867	3819.375
2205.67545	3816.075
2208.60037	3809.075
2211.52341	3812.875
2214.44458	3797.575
2217.36388	3790.375
2220.28132	3784.675
2223.1969	3769.275
2226.11061	3756.275
2229.02246	3750.775
2231.93245	3759.675
2234.84058	3737.975
2237.74686	3724.475
2240.65128	3723.975
2243.55385	3723.975
2246.45456	3722.175
2249.35343	3711.475
2252.25044	3725.075
2255.14561	3707.975
2258.03893	3711.675
2260.93041	3712.575
2263.82004	3703.775
2266.70783	3708.575
2269.59378	3676.375
2272.4779	3675.075
2275.36017	3670.075
2278.24061	3652.975
2281.11922	3655.675
2283.996	3671.375
2286.87094	3629.875
2289.74405	3616.275
2292.61534	3622.075
2295.4848	3625.775
2298.35243	3622.775
2301.21824	3623.975
2304.08223	3617.375
2306.94439	3604.475
2309.80474	3624.075
2312.66327	3628.875
2315.51999	3616.175
2318.37489	3605.175
2321.22797	3601.175
2324.07925	3590.575
2326.92871	3585.475
2329.77637	3586.775
2332.62222	3561.475
2335.46626	3548.375
2338.3085	3562.075
2341.14893	3542.675
2343.98756	3563.375
2346.8244	3541.275
2349.65943	3525.175
2352.49267	3545.575
2355.32411	3556.575
2358.15376	3562.875
2360.98161	3552.575
2363.80768	3542.275
2366.63195	3541.675
2369.45444	3526.375
2372.27514	3546.975
2375.09405	3543.775
2377.91118	3527.375
2380.72652	3521.675
2383.54009	3501.375
2386.35187	3508.875
2389.16188	3505.575
2391.97011	3489.275
2394.77657	3476.575
2397.58125	3469.075
2400.38416	3466.075
2403.18529	3453.275
2405.98466	3443.675
2408.78226	3451.075
2411.57809	3468.475
2414.37216	3433.175
2417.16446	3447.775
2419.955	3430.275
2422.74378	3429.175
2425.5308	3433.275
2428.31606	3440.875
2431.09956	3423.675
2433.88131	3415.075
2436.6613	3426.375
2439.43954	3415.075
2442.21603	3421.975
2444.99077	3405.575
2447.76377	3400.775
2450.53501	3412.575
2453.30451	3408.175
2456.07226	3389.975
2458.83827	3408.675
2461.60254	3388.875
2464.36507	3390.375
2467.12586	3387.775
2469.88492	3393.275
2472.64224	3386.475
2475.39782	3386.175
2478.15167	3391.775
2480.90379	3363.875
2483.65417	3374.775
2486.40283	3374.375
2489.14976	3364.275
2491.89497	3389.575
2494.63845	3379.275
2497.3802	3365.775
2500.12024	3370.575
2502.85855	3358.675
2505.59514	3362.375
2508.33002	3360.075
2511.06318	3343.275
2513.79462	3329.675
2516.52435	3315.275
2519.25237	3318.575
2521.97867	3315.875
2524.70327	3304.375
2527.42616	3305.675
2530.14734	3300.475
2532.86681	3292.775
2535.58458	3286.975
2538.30065	3292.375
2541.01501	3280.575
2543.72768	3275.975
2546.43864	3281.275
2549.14791	3262.275
2551.85548	3259.775
2554.56136	3272.475
2557.26554	3263.975
2559.96803	3251.775
2562.66883	3262.975
2565.36794	3254.075
2568.06536	3240.475
2570.7611	3230.375
2573.45514	3223.075
2576.14751	3229.775
2578.83819	3211.475
2581.52719	3222.875
2584.21451	3200.275
2586.90015	3199.275
2589.58411	3194.975
2592.2664	3205.875
2594.94701	3189.375
2597.62594	3191.475
2600.30321	3177.275
2602.9788	3173.975
2605.65273	3161.275
2608.32498	3177.575
2610.99557	3164.175
2613.66449	3157.975
2616.33175	3170.575
2618.99734	3147.575
2621.66128	3142.475
2624.32355	3133.875
2626.98416	3135.075
2629.64311	3131.475
2632.30041	3133.275
2634.95605	3118.175
2637.61004	3117.475
2640.26238	3115.375
2642.91306	3100.075
2645.56209	3096.675
2648.20948	3086.275
2650.85521	3089.675
2653.4993	3075.975
2656.14175	3085.175
2658.78255	3095.075
2661.42171	3075.875
2664.05923	3084.275
2666.6951	3075.075
2669.32934	3089.075
2671.96194	3076.575
2674.59291	3086.475
2677.22224	3084.075
2679.84993	3093.975
2682.476	3084.575
2685.10043	3083.475
2687.72324	3073.275
2690.34441	3072.275
2692.96396	3072.775
2695.58188	3068.575
2698.19818	3064.275
2700.81285	3084.275
2703.4259	3070.675
2706.03733	3068.975
2708.64714	3051.775
2711.25533	3070.675
2713.86191	3069.875
2716.46687	3075.875
2719.07021	3075.375
2721.67194	3080.875
2724.27206	3066.675
2726.87057	3062.675
2729.46747	3059.375
2732.06276	3055.275
2734.65644	3045.075
2737.24852	3048.975
2739.83899	3041.475
2742.42786	3058.175
2745.01513	3036.175
2747.60079	3041.675
2750.18486	3029.675
2752.76733	3032.175
2755.3482	3018.275
2757.92747	3016.875
2760.50515	3009.875
2763.08123	3004.475
2765.65573	2997.375
2768.22863	2988.475
2770.79994	2990.175
2773.36967	2992.575
2775.9378	2971.675
2778.50435	2979.775
2781.06932	2975.175
2783.6327	2977.075
2786.1945	2971.975
2788.75471	2956.275
2791.31335	2953.175
2793.87041	2954.975
2796.42589	2942.475
2798.97979	2944.275
2801.53212	2947.675
2804.08288	2937.675
2806.63206	2915.575
2809.17967	2916.875
2811.72571	2904.575
2814.27018	2912.275
2816.81308	2905.975
2819.35442	2888.475
2821.89419	2882.575
2824.43239	2881.975
2826.96904	2887.975
2829.50412	2882.975
2832.03763	2878.275
2834.56959	2876.075
2837.1	2868.475
2839.62884	2862.875
2842.15613	2858.775
2844.68186	2875.975
2847.20604	2863.975
2849.72867	2852.975
2852.24974	2853.475
2854.76927	2858.475
2857.28724	2849.875
2859.80367	2856.175
2862.31855	2844.275
2864.83189	2845.275
2867.34368	2837.375
2869.85393	2836.975
2872.36264	2829.675
2874.8698	2846.775
2877.37543	2839.875
2879.87952	2818.875
2882.38207	2826.475
2884.88308	2829.475
2887.38256	2825.475
2889.88051	2813.975
2892.37692	2823.375
2894.8718	2820.075
2897.36515	2829.075
2899.85698	2828.175
2902.34727	2837.575
2904.83604	2845.375
2907.32328	2843.575
2909.809	2839.575
2912.29319	2831.875
2914.77587	2857.875
2917.25702	2860.675
2919.73665	2853.675
2922.21476	2850.575
2924.69136	2840.775
2927.16644	2841.275
2929.64	2836.775
2932.11205	2821.775
2934.58258	2819.175
2937.05161	2816.275
2939.51912	2815.575
2941.98513	2823.275
2944.44962	2809.775
2946.91261	2809.375
2949.37409	2795.475
2951.83407	2802.475
2954.29254	2806.775
2956.74951	2799.475
2959.20498	2797.675
2961.65895	2803.275
2964.11142	2792.775
2966.56239	2792.775
2969.01186	2806.175
2971.45984	2787.775
2973.90632	2790.475
2976.35131	2789.775
2978.7948	2789.575
2981.23681	2776.775
2983.67732	2775.275
2986.11635	2772.675
2988.55388	2759.075
2990.98993	2758.575
2993.4245	2760.275
2995.85758	2753.675
2998.28917	2731.875
3000.71928	2737.775
3003.14791	2739.375
3005.57506	2740.075
3008.00073	2730.575
3010.42493	2728.375
3012.84764	2730.675
3015.26888	2730.575
3017.68865	2712.875
3020.10694	2726.875
3022.52376	2710.075
3024.9391	2709.775
3027.35298	2699.775
3029.76539	2717.575
3032.17632	2716.575
3034.5858	2701.475
3036.9938	2705.975
3039.40034	2691.375
3041.80542	2691.775
3044.20903	2697.075
3046.61118	2696.175
3049.01187	2685.275
3051.4111	2694.075
3053.80888	2677.975
3056.20519	2684.775
3058.60005	2674.275
3060.99345	2671.175
3063.3854	2672.175
3065.7759	2673.875
3068.16494	2668.875
3070.55254	2671.075
3072.93868	2654.375
3075.32338	2657.175
3077.70662	2649.475
3080.08842	2645.975
3082.46878	2649.275
3084.84769	2648.175
3087.22515	2655.475
3089.60118	2654.975
3091.97576	2665.375
3094.3489	2668.975
3096.72061	2668.175
3099.09087	2680.775
3101.4597	2665.675
3103.82709	2671.475
3106.19305	2676.575
3108.55757	2689.375
3110.92066	2679.975
3113.28232	2671.575
3115.64255	2679.075
3118.00134	2676.875
3120.35871	2673.175
3122.71466	2678.575
3125.06917	2675.875
3127.42226	2661.875
3129.77393	2671.775
3132.12417	2676.275
3134.47299	2685.675
3136.82039	2696.175
3139.16636	2681.475
3141.51092	2689.275
3143.85406	2701.775
3146.19579	2700.475
3148.53609	2708.775
3150.87499	2730.575
3153.21246	2722.475
3155.54853	2734.475
3157.88318	2733.175
3160.21642	2741.875
3162.54826	2752.575
3164.87868	2751.475
3167.2077	2758.975
3169.5353	2748.475
3171.86151	2761.375
3174.18631	2765.375
3176.5097	2772.375
3178.83169	2774.975
3181.15228	2774.475
3183.47147	2775.375
3185.78926	2770.175
3188.10565	2769.975
3190.42065	2779.975
3192.73424	2763.275
3195.04645	2775.975
3197.35725	2779.375
3199.66667	2777.975
3201.97469	2780.875
3204.28132	2789.775
3206.58656	2782.675
3208.8904	2788.975
3211.19287	2793.475
3213.49394	2792.175
3215.79363	2795.875
3218.09193	2796.675
3220.38884	2822.675
3222.68438	2838.675
3224.97853	2815.175
3227.2713	2823.475
3229.56269	2820.675
3231.8527	2819.675
3234.14133	2817.375
3236.42858	2803.775
