Data from AgNPs_UA_10uM_CRN_0uM_R6G_10uM_Q_RamanShift__11__12-01-32-636.txt Node

Date: Mon Jul 18 12:01:32 BST 2022
User: TCL
Spectrometer: QEP01345
Trigger mode: 4
Integration Time (sec): 7.000000E0
Scans to average: 10
Electric dark correction enabled: true
Nonlinearity correction enabled: false
Boxcar width: 0
XAxis mode: Raman Shifts
Number of Pixels in Spectrum: 1044
>>>>>Begin Spectral Data<<<<<
46.04893	-1.7
50.45542	-1.9
54.85868	-0.9
59.25871	-1.5
63.6555	124
68.04907	128.9
72.43941	130.5
76.82654	138.9
81.21044	143.4
85.59113	144.1
89.96862	154.4
94.34289	160.5
98.71396	162.2
103.08183	172.2
107.4465	175
111.80798	178.6
116.16626	179.3
120.52136	191.2
124.87327	205.2
129.222	213.6
133.56755	230.5
137.90993	245.8
142.24913	267.7
146.58517	301.8
150.91804	357.4
155.24774	419.6
159.57429	526.9
163.89768	687.4
168.21792	906
172.53501	1243.2
176.84895	1728.6
181.15975	2444
185.46741	3452.4
189.77193	4745.7
194.07331	6365.9
198.37157	8214.4
202.6667	10144.5
206.9587	12052.6
211.24758	13967.7
215.53334	15847
219.81599	17820.4
224.09553	20054.3
228.37195	22487
232.64527	25170.7
236.91549	27927.4
241.18261	30629.3
245.44663	33154.1
249.70755	35424
253.96539	37450.6
258.22014	39161.3
262.4718	40466
266.72039	41403.2
270.96589	41854.4
275.20832	41926.2
279.44768	41657.1
283.68397	41246.2
287.91719	40914.7
292.14735	40758.7
296.37445	40794.3
300.59849	41092.2
304.81948	41447.1
309.03742	41665.7
313.25231	41510.4
317.46415	40951.3
321.67296	39960.6
325.87872	39090.9
330.08145	38750.3
334.28114	38848.2
338.47781	39224
342.67145	39771.6
346.86207	40420.8
351.04966	41181.8
355.23424	42065.3
359.4158	42728.4
363.59435	43191.5
367.76989	43461.9
371.94243	43613.7
376.11196	43653.6
380.27849	43755.8
384.44203	43997.2
388.60257	44157.7
392.76012	44486.6
396.91468	45061.1
401.06626	45667
405.21485	46080.2
409.36047	45801.8
413.50311	45190.1
417.64277	44594.2
421.77947	44477.9
425.9132	44587.7
430.04396	44762.5
434.17176	44971.6
438.2966	45235.7
442.41849	45671
446.53742	46278
450.6534	46939.6
454.76644	47576.8
458.87653	47856.5
462.98368	47912
467.08789	47828.3
471.18916	47616.1
475.2875	47281.3
479.38291	46964
483.4754	46737.1
487.56496	46523
491.6516	46417.5
495.73531	46298.9
499.81612	46309.7
503.89401	46555.1
507.96899	46792.2
512.04106	46797
516.11023	46879.4
520.1765	46836.3
524.23987	46607.9
528.30034	46426.7
532.35792	46250.7
536.41261	45972.8
540.46441	45737.2
544.51333	45815.2
548.55936	46124.4
552.60252	46825.6
556.64279	47520.5
560.6802	47912
564.71473	48229.5
568.7464	48836.6
572.7752	49500.6
576.80114	50007.6
580.82422	50672
584.84444	51123.8
588.86181	51472.1
592.87633	51549
596.888	51636.3
600.89682	52090.9
604.9028	54052.7
608.90594	58603.5
612.90624	62664.3
616.90371	58833.6
620.89834	51109
624.89015	48054.8
628.87913	47785.7
632.86528	48404.8
636.84862	48730.3
640.82913	48310.9
644.80683	47455.9
648.78172	46824.1
652.75379	46898.8
656.72306	47520.2
660.68952	48154
664.65319	48063.9
668.61405	47565
672.57211	47580.8
676.52738	47738.5
680.47986	47593.6
684.42955	47268.9
688.37646	47152.4
692.32058	47386.1
696.26192	47803.5
700.20048	48222.5
704.13626	48511.4
708.06928	48533.9
711.99952	48365.6
715.927	48195.5
719.85171	48214.7
723.77365	48072
727.69284	47789.9
731.60928	47444.1
735.52295	47357.2
739.43388	47388.4
743.34206	47577
747.24749	47725.9
751.15017	47967.5
755.05012	48466.1
758.94733	49585.6
762.8418	51896.2
766.73354	55320.4
770.62254	58021.5
774.50882	58323
778.39237	56435.6
782.27321	53651.1
786.15132	51051.5
790.02671	49283.4
793.89938	48295.2
797.76935	47797.9
801.6366	47615.3
805.50115	47470.9
809.36299	47268.4
813.22213	47146.9
817.07857	47193.5
820.93231	47217.5
824.78336	47305.7
828.63172	47331.5
832.47738	47261
836.32036	47227.1
840.16066	47258.7
843.99827	47283.6
847.8332	47279
851.66546	47304.6
855.49504	47309.7
859.32195	47349.4
863.1462	47360.2
866.96777	47410.7
870.78668	47382
874.60293	47466.5
878.41652	47557.6
882.22745	47740.4
886.03573	47859.7
889.84136	47832.1
893.64433	47689.7
897.44466	47679
901.24235	47592.2
905.0374	47492.2
908.8298	47418.2
912.61957	47396.8
916.40671	47598.5
920.19121	47847.4
923.97308	48135.7
927.75233	48260.5
931.52895	48196.9
935.30295	47858.6
939.07433	47279
942.84309	46831.9
946.60924	46515.7
950.37278	46411
954.13371	46420.9
957.89203	46391.6
961.64774	46408.2
965.40086	46401.1
969.15137	46327.4
972.89929	46214.7
976.64461	46210
980.38733	46193
984.12747	46240.2
987.86502	46340.4
991.59999	46447.1
995.33237	46600
999.06217	46917.3
1002.78939	47283.1
1006.51404	47731.5
1010.23611	48162.7
1013.95561	48399.1
1017.67255	48370.5
1021.38692	48186
1025.09872	47843.9
1028.80796	47532.5
1032.51465	47370.5
1036.21877	47549.4
1039.92035	47646.3
1043.61937	47827.3
1047.31584	47903.1
1051.00976	48125.4
1054.70114	48302.7
1058.38998	48508.3
1062.07627	48744.6
1065.76003	49205.4
1069.44126	49706.6
1073.11995	50388.6
1076.79611	50989.5
1080.46974	51334.4
1084.14085	51492.5
1087.80943	51800.9
1091.47549	52070.1
1095.13903	52036.7
1098.80005	51656.6
1102.45857	51150
1106.11456	50598.3
1109.76805	50115.2
1113.41903	50014.9
1117.06751	50194.2
1120.71348	50717.6
1124.35696	51250.6
1127.99793	51767.2
1131.63641	51650.6
1135.2724	51047.6
1138.90589	50583.6
1142.5369	50347.5
1146.16542	50250.7
1149.79145	50177.7
1153.415	50263.7
1157.03607	50478.9
1160.65467	51049.4
1164.27079	51999.5
1167.88443	53387.1
1171.49561	55169
1175.10432	57776.5
1178.71056	60897.5
1182.31434	63630.6
1185.91565	64871.1
1189.51451	64853
1193.11091	64025.5
1196.70485	62557.5
1200.29634	60977
1203.88538	59315.6
1207.47197	57672
1211.05612	56382.3
1214.63782	55377.6
1218.21708	54495.8
1221.79391	53817.3
1225.36829	53351.7
1228.94024	53125.5
1232.50976	53068.6
1236.07685	53036.3
1239.6415	53073.3
1243.20374	53126.9
1246.76355	53356.7
1250.32093	53727
1253.8759	54202.1
1257.42845	55092.2
1260.97859	56075.7
1264.52631	57136.4
1268.07163	58031.6
1271.61453	58857.6
1275.15503	59604.2
1278.69312	60255.5
1282.22882	60704
1285.76211	61632.2
1289.29301	62658.2
1292.82151	63871.3
1296.34761	65112.4
1299.87133	66818.6
1303.39266	69023.6
1306.9116	72082.4
1310.42815	75089.9
1313.94233	76272.8
1317.45412	75459.6
1320.96354	73973.6
1324.47058	72584.9
1327.97525	71612.6
1331.47754	70917
1334.97747	70750
1338.47502	71025.5
1341.97022	71871.7
1345.46305	73282.8
1348.95352	74649.4
1352.44163	75970.8
1355.92738	77119.4
1359.41078	79073
1362.89183	81211.3
1366.37053	79511.3
1369.84688	73493.4
1373.32088	67312.4
1376.79254	63190.7
1380.26186	61056.9
1383.72883	59902.7
1387.19347	58902.5
1390.65578	57927.7
1394.11575	57215.6
1397.57339	56682.5
1401.0287	56302.6
1404.48168	55989.5
1407.93234	55695.5
1411.38068	55387.5
1414.82669	54931.5
1418.27039	54154.7
1421.71177	53479.8
1425.15083	52775.9
1428.58758	52449.8
1432.02203	52633.5
1435.45416	53026.1
1438.88399	53479.8
1442.31151	53701.1
1445.73673	53970.4
1449.15965	54244.5
1452.58027	54522.6
1455.9986	54810.1
1459.41463	55008.4
1462.82837	55526.4
1466.23982	56214.8
1469.64898	56988
1473.05586	57562.1
1476.46045	57889.9
1479.86276	58268
1483.26279	58657.4
1486.66054	59208.1
1490.05602	60144
1493.44922	61729.4
1496.84016	64034.7
1500.22882	67315.2
1503.61521	71325.5
1506.99934	75536.2
1510.38121	78127.6
1513.76081	77969
1517.13816	74818.9
1520.51324	70425.3
1523.88607	66849.4
1527.25665	64518.2
1530.62498	63161.3
1533.99105	62230.2
1537.35488	61284
1540.71647	60315.2
1544.07581	59442.5
1547.4329	58607.7
1550.78776	57973.7
1554.14038	57624.4
1557.49077	57520.8
1560.83892	57829
1564.18484	58450.4
1567.52853	59213.9
1570.86999	59737.6
1574.20922	60280.7
1577.54624	60153.3
1580.88103	59130.2
1584.2136	57825.7
1587.54395	57206.4
1590.87208	57701.5
1594.19801	58983.6
1597.52172	60305.5
1600.84321	60497.6
1604.16251	59440.8
1607.47959	57945.8
1610.79447	56113.5
1614.10715	53971.6
1617.41763	51940
1620.7259	50466.3
1624.03199	49611.9
1627.33587	49398.6
1630.63757	49863.5
1633.93707	51092.4
1637.23439	53454.4
1640.52951	56983.2
1643.82246	61441.2
1647.11321	65794.5
1650.40179	67958.8
1653.68819	66029.6
1656.97241	60920.9
1660.25446	55250.7
1663.53433	50826.7
1666.81203	47944.8
1670.08756	46137.1
1673.36092	45043.2
1676.63211	44304
1679.90115	43756.9
1683.16801	43288.2
1686.43272	42974.8
1689.69527	42699.8
1692.95567	42475
1696.2139	42354.8
1699.46999	42241
1702.72392	42171.1
1705.97571	42081.7
1709.22535	42089.3
1712.47284	42059.5
1715.71819	42073.3
1718.96139	41976.2
1722.20246	41900.2
1725.44139	41723.4
1728.67818	41531.6
1731.91284	41340.8
1735.14537	41173.6
1738.37576	41108.7
1741.60403	41065.8
1744.83017	40986.8
1748.05418	40876.8
1751.27607	40740.4
1754.49584	40735.3
1757.71349	40633.6
1760.92903	40615
1764.14244	40579.5
1767.35375	40564.5
1770.56294	40461.1
1773.77002	40397.5
1776.97499	40394.6
1780.17785	40351.4
1783.37861	40234.2
1786.57727	40114.6
1789.77382	40097.3
1792.96828	40034.3
1796.16064	39987.8
1799.3509	39910.7
1802.53907	39781
1805.72514	39629.6
1808.90913	39570.9
1812.09102	39522
1815.27083	39433.9
1818.44856	39374.7
1821.6242	39338.3
1824.79776	39285.4
1827.96924	39246
1831.13864	39177.4
1834.30597	39080.6
1837.47122	39063.5
1840.6344	39037.7
1843.7955	39050.4
1846.95454	39025.7
1850.11151	38987.7
1853.26642	38941.9
1856.41926	38921.7
1859.57004	38934.7
1862.71876	38833.5
1865.86542	38811.9
1869.01003	38779
1872.15258	38775
1875.29308	38684.2
1878.43152	38572.2
1881.56792	38530.4
1884.70227	38451
1887.83457	38429.5
1890.96482	38397.9
1894.09304	38279
1897.21921	38281.4
1900.34335	38248.9
1903.46544	38140.7
1906.58551	38115.6
1909.70353	38004.7
1912.81953	37961.7
1915.93349	37985.8
1919.04543	37862.3
1922.15534	37802.4
1925.26322	37699.3
1928.36908	37620.6
1931.47292	37541.6
1934.57473	37370.4
1937.67453	37302.9
1940.77232	37259.8
1943.86808	37162
1946.96184	37056.2
1950.05358	36972
1953.14331	36823.7
1956.23103	36698.6
1959.31675	36623.1
1962.40046	36534.1
1965.48217	36432.6
1968.56188	36347.8
1971.63959	36231
1974.7153	36192.2
1977.78901	36056.2
1980.86073	35891.8
1983.93046	35760.9
1986.99819	35654.2
1990.06394	35651.4
1993.1277	35463.8
1996.18947	35343.3
1999.24925	35301.1
2002.30706	35188.8
2005.36288	35133.5
2008.41672	35065.5
2011.46859	34866.5
2014.51848	34796.5
2017.56639	34743.1
2020.61233	34632.6
2023.6563	34495.7
2026.6983	34343
2029.73833	34218.7
2032.7764	34093.8
2035.8125	34096
2038.84664	34031.6
2041.87881	33956.4
2044.90903	33832.9
2047.93729	33720.9
2050.96359	33681.7
2053.98794	33616.9
2057.01034	33608.7
2060.03078	33584.1
2063.04927	33583.7
2066.06582	33589.2
2069.08042	33502
2072.09307	33475
2075.10378	33412.4
2078.11255	33439
2081.11938	33475.2
2084.12426	33400
2087.12722	33387.3
2090.12824	33378
2093.12732	33354.8
2096.12447	33398.9
2099.11969	33360.6
2102.11299	33393.7
2105.10435	33367.7
2108.09379	33428.9
2111.08131	33382.6
2114.0669	33368.1
2117.05057	33367.1
2120.03233	33432
2123.01216	33474.3
2125.99008	33495.3
2128.96609	33495.6
2131.94018	33617.7
2134.91236	33627.6
2137.88263	33614.2
2140.851	33590.6
2143.81746	33603.9
2146.78201	33613.4
2149.74466	33648.7
2152.7054	33653.4
2155.66425	33609.5
2158.6212	33580.7
2161.57625	33541
2164.52941	33500.5
2167.48067	33449.5
2170.43004	33473.3
2173.37752	33453.3
2176.32311	33445.1
2179.26681	33417.6
2182.20863	33436.4
2185.14856	33460.9
2188.08661	33373.9
2191.02278	33348.3
2193.95707	33396.4
2196.88948	33325.5
2199.82001	33293.7
2202.74867	33192.8
2205.67545	33152.5
2208.60037	33057.9
2211.52341	32999.6
2214.44458	32970.3
2217.36388	32943.1
2220.28132	32905.8
2223.1969	32755.3
2226.11061	32662.9
2229.02246	32594.1
2231.93245	32566.4
2234.84058	32513.3
2237.74686	32420.1
2240.65128	32370.5
2243.55385	32338.5
2246.45456	32313.2
2249.35343	32278.2
2252.25044	32270.4
2255.14561	32156.3
2258.03893	32155.3
2260.93041	32096
2263.82004	32037.2
2266.70783	31976
2269.59378	31894.3
2272.4779	31836.5
2275.36017	31716
2278.24061	31675.9
2281.11922	31633
2283.996	31547.5
2286.87094	31445.8
2289.74405	31374.9
2292.61534	31338.1
2295.4848	31283
2298.35243	31305.1
2301.21824	31254.3
2304.08223	31272.9
2306.94439	31154.6
2309.80474	31171.6
2312.66327	31113.9
2315.51999	31085
2318.37489	31065
2321.22797	30999.6
2324.07925	30967
2326.92871	30838.2
2329.77637	30815.1
2332.62222	30768.1
2335.46626	30778.8
2338.3085	30735.4
2341.14893	30670.6
2343.98756	30584.9
2346.8244	30634.5
2349.65943	30655.3
2352.49267	30613.6
2355.32411	30584
2358.15376	30545.9
2360.98161	30516.2
2363.80768	30520.5
2366.63195	30554.3
2369.45444	30506.2
2372.27514	30466.4
2375.09405	30401.8
2377.91118	30366.1
2380.72652	30254.3
2383.54009	30187.2
2386.35187	30122.6
2389.16188	30040.4
2391.97011	30019.4
2394.77657	29907.9
2397.58125	29880.5
2400.38416	29862.3
2403.18529	29787.2
2405.98466	29816.2
2408.78226	29676
2411.57809	29692.1
2414.37216	29630.5
2417.16446	29642.1
2419.955	29564.8
2422.74378	29569.1
2425.5308	29487.3
2428.31606	29430
2431.09956	29446
2433.88131	29339.4
2436.6613	29371.2
2439.43954	29359.5
2442.21603	29313.1
2444.99077	29317
2447.76377	29251.3
2450.53501	29171.1
2453.30451	29163.9
2456.07226	29105.9
2458.83827	29038.5
2461.60254	29068.9
2464.36507	29044.6
2467.12586	28948.7
2469.88492	28920.7
2472.64224	28912.4
2475.39782	28863
2478.15167	28912.9
2480.90379	28870.3
2483.65417	28882.7
2486.40283	28933.5
2489.14976	28949.3
2491.89497	28929.5
2494.63845	28889.7
2497.3802	28813.3
2500.12024	28782.1
2502.85855	28712.9
2505.59514	28649.2
2508.33002	28595.8
2511.06318	28567
2513.79462	28508.5
2516.52435	28426.7
2519.25237	28418.4
2521.97867	28377.8
2524.70327	28357.4
2527.42616	28340.5
2530.14734	28252
2532.86681	28225.3
2535.58458	28236.6
2538.30065	28190.7
2541.01501	28155
2543.72768	28083.3
2546.43864	28050.1
2549.14791	27950.1
2551.85548	27907.7
2554.56136	27830.9
2557.26554	27803.4
2559.96803	27780.8
2562.66883	27702.2
2565.36794	27653.1
2568.06536	27635.2
2570.7611	27662.3
2573.45514	27574.4
2576.14751	27526.5
2578.83819	27480.5
2581.52719	27339.1
2584.21451	27287.3
2586.90015	27299
2589.58411	27246.2
2592.2664	27261.4
2594.94701	27219.7
2597.62594	27219.2
2600.30321	27104
2602.9788	27042
2605.65273	26916.5
2608.32498	26908.2
2610.99557	26907.7
2613.66449	26887.2
2616.33175	26801.1
2618.99734	26787.8
2621.66128	26699
2624.32355	26738.6
2626.98416	26662
2629.64311	26588.6
2632.30041	26576.8
2634.95605	26541
2637.61004	26449.4
2640.26238	26504.4
2642.91306	26450.2
2645.56209	26439.8
2648.20948	26393.6
2650.85521	26362
2653.4993	26352.2
2656.14175	26301.4
2658.78255	26353.4
2661.42171	26364.9
2664.05923	26424.3
2666.6951	26312.1
2669.32934	26352.8
2671.96194	26307.4
2674.59291	26306.6
2677.22224	26278
2679.84993	26292.3
2682.476	26265.3
2685.10043	26246.3
2687.72324	26235.9
2690.34441	26231
2692.96396	26193.4
2695.58188	26210.5
2698.19818	26146
2700.81285	26144.3
2703.4259	26113.7
2706.03733	26196.3
2708.64714	26224.5
2711.25533	26196.3
2713.86191	26180.6
2716.46687	26178.6
2719.07021	26169.5
2721.67194	26203.3
2724.27206	26136
2726.87057	26132.3
2729.46747	26148.9
2732.06276	26172.9
2734.65644	26144.7
2737.24852	26080
2739.83899	26019.6
2742.42786	25964.7
2745.01513	25894.2
2747.60079	25896.9
2750.18486	25894.4
2752.76733	25888.2
2755.3482	25841.4
2757.92747	25821.6
2760.50515	25781.5
2763.08123	25721.6
2765.65573	25665.1
2768.22863	25602
2770.79994	25585
2773.36967	25583
2775.9378	25567.4
2778.50435	25476.9
2781.06932	25445.4
2783.6327	25403.4
2786.1945	25422.1
2788.75471	25375.3
2791.31335	25246.8
2793.87041	25208.4
2796.42589	25143.5
2798.97979	25104.1
2801.53212	25072
2804.08288	25079.9
2806.63206	24963.7
2809.17967	24901.7
2811.72571	24905.8
2814.27018	24805.5
2816.81308	24765
2819.35442	24732.9
2821.89419	24654.9
2824.43239	24601.5
2826.96904	24561.3
2829.50412	24556.4
2832.03763	24488.2
2834.56959	24485.9
2837.1	24447.9
2839.62884	24420.8
2842.15613	24363.6
2844.68186	24390.1
2847.20604	24302
2849.72867	24273.4
2852.24974	24237.8
2854.76927	24207.3
2857.28724	24157.8
2859.80367	24187.4
2862.31855	24147.9
2864.83189	24153.1
2867.34368	24123.8
2869.85393	24074.8
2872.36264	23999
2874.8698	23930.5
2877.37543	23942.4
2879.87952	23907.1
2882.38207	23898.1
2884.88308	23892
2887.38256	23886.8
2889.88051	23845.9
2892.37692	23890.3
2894.8718	23854
2897.36515	23894.2
2899.85698	23848
2902.34727	23837.3
2904.83604	23816.8
2907.32328	23857.6
2909.809	23867.2
2912.29319	23876.6
2914.77587	23810
2917.25702	23829.3
2919.73665	23822.3
2922.21476	23830
2924.69136	23778.1
2927.16644	23775.8
2929.64	23738.8
2932.11205	23744.1
2934.58258	23598.5
2937.05161	23610.8
2939.51912	23617.4
2941.98513	23594.7
2944.44962	23559.1
2946.91261	23510.8
2949.37409	23520.8
2951.83407	23511.4
2954.29254	23521
2956.74951	23457.3
2959.20498	23455.2
2961.65895	23439.6
2964.11142	23516.1
2966.56239	23491
2969.01186	23409.2
2971.45984	23331.8
2973.90632	23377.7
2976.35131	23317.3
2978.7948	23289.3
2981.23681	23239
2983.67732	23267
2986.11635	23235.9
2988.55388	23152.5
2990.98993	23145.3
2993.4245	23065
2995.85758	23009.2
2998.28917	22939.5
3000.71928	22883.7
3003.14791	22835.2
3005.57506	22811.8
3008.00073	22675.1
3010.42493	22698.7
3012.84764	22646.1
3015.26888	22666.2
3017.68865	22614.8
3020.10694	22563.4
3022.52376	22528.8
3024.9391	22469
3027.35298	22467.6
3029.76539	22416.6
3032.17632	22436
3034.5858	22411
3036.9938	22393.4
3039.40034	22360.2
3041.80542	22318.9
3044.20903	22245.1
3046.61118	22251.2
3049.01187	22163.4
3051.4111	22096.1
3053.80888	22059.6
3056.20519	22063.4
3058.60005	22034.6
3060.99345	21979.1
3063.3854	21881.9
3065.7759	21815.6
3068.16494	21791.1
3070.55254	21706
3072.93868	21688.8
3075.32338	21595.4
3077.70662	21569.9
3080.08842	21478.1
3082.46878	21481
3084.84769	21443.5
3087.22515	21483.1
3089.60118	21453.6
3091.97576	21455.3
3094.3489	21415.5
3096.72061	21403.2
3099.09087	21407.1
3101.4597	21391.5
3103.82709	21429.3
3106.19305	21379.9
3108.55757	21404.5
3110.92066	21278.7
3113.28232	21255.4
3115.64255	21239.7
3118.00134	21156.2
3120.35871	21134.4
3122.71466	21084.2
3125.06917	21044.9
3127.42226	20961.2
3129.77393	20980.5
3132.12417	20950.3
3134.47299	20943.5
3136.82039	20909.3
3139.16636	20896
3141.51092	20869.7
3143.85406	20845.7
3146.19579	20831.6
3148.53609	20864.8
3150.87499	20871.1
3153.21246	20844.7
3155.54853	20874.4
3157.88318	20808.9
3160.21642	20846
3162.54826	20835.7
3164.87868	20878.4
3167.2077	20880.9
3169.5353	20879.6
3171.86151	20789.3
3174.18631	20724.5
3176.5097	20741.4
3178.83169	20738.8
3181.15228	20738.3
3183.47147	20648.1
3185.78926	20599.5
3188.10565	20560.5
3190.42065	20563.4
3192.73424	20525.5
3195.04645	20479.2
3197.35725	20475.8
3199.66667	20437.6
3201.97469	20467.6
3204.28132	20413.9
3206.58656	20441.7
3208.8904	20403.9
3211.19287	20379.7
3213.49394	20413.6
3215.79363	20404.6
3218.09193	20420.2
3220.38884	20431.7
3222.68438	20416.2
3224.97853	20416.7
3227.2713	20412.2
3229.56269	20396.9
3231.8527	20384.7
3234.14133	20330.7
3236.42858	20302.2
3238.71446	20261.7
3240.99896	20218.1
3243.28209	20198.5
3245.56384	20107.2
3247.84423	20089.6
3250.12324	20076.8
3252.40088	20041.7
3254.67715	20026.4
3256.95205	19986.2
3259.22558	20006.9
3261.49775	19986.7
3263.76855	20018.9
3266.03799	19951.3
3268.30606	19951.5
3270.57277	19889.1
3272.83812	19835.9
3275.10211	19741.1
3277.36474	19705
3279.62601	19706.2
3281.88593	19671.8
3284.14448	19722.4
3286.40168	19734.9
3288.65753	19673.1
3290.91202	19657.7
3293.16516	19625.8
3295.41695	19571.2
3297.66738	19500
3299.91647	19386.3
3302.16421	19270.8
3304.4106	19187.9
3306.65564	19095.9
3308.89933	18974.1
3311.14169	18840
3313.38269	18665.9
3315.62236	18591.6
3317.86068	18428.1
3320.09766	18300.4
3322.3333	18196.9
3324.5676	18120.1
3326.80056	17872.5
3329.03219	17757.3
3331.26248	5.1
3333.49143	1.2
3335.71905	0.2
