Data from AgNPs_UA_50uM_CRN_0uM_R6G_10uM_Q_RamanShift__25__12-40-21-785.txt Node

Date: Tue Jul 26 12:40:21 BST 2022
User: TCL
Spectrometer: QEP01345
Trigger mode: 4
Integration Time (sec): 7.000000E0
Scans to average: 10
Electric dark correction enabled: true
Nonlinearity correction enabled: false
Boxcar width: 0
XAxis mode: Raman Shifts
Number of Pixels in Spectrum: 1044
>>>>>Begin Spectral Data<<<<<
46.04893	-0.375
50.45542	0.425
54.85868	1.425
59.25871	-1.275
63.6555	76.925
68.04907	85.225
72.43941	89.125
76.82654	93.125
81.21044	97.225
85.59113	99.225
89.96862	104.025
94.34289	109.125
98.71396	115.225
103.08183	116.525
107.4465	116.525
111.80798	123.225
116.16626	121.125
120.52136	129.725
124.87327	128.925
129.222	134.225
133.56755	144.225
137.90993	146.925
142.24913	156.525
146.58517	173.125
150.91804	193.025
155.24774	223.425
159.57429	268.825
163.89768	340.125
168.21792	442.425
172.53501	593.825
176.84895	806.925
181.15975	1131.025
185.46741	1577.625
189.77193	2149.125
194.07331	2870.125
198.37157	3659.025
202.6667	4535.125
206.9587	5390.325
211.24758	6249.425
215.53334	7149.025
219.81599	8118.925
224.09553	9245.125
228.37195	10474.325
232.64527	11829.425
236.91549	13151.625
241.18261	14407.625
245.44663	15461.725
249.70755	16345.125
253.96539	17040.425
258.22014	17643.225
262.4718	18167.525
266.72039	18505.425
270.96589	18635.525
275.20832	18543.325
279.44768	18215.225
283.68397	17896.925
287.91719	17660.225
292.14735	17644.825
296.37445	17948.425
300.59849	18433.725
304.81948	19024.125
309.03742	19440.925
313.25231	19467.725
317.46415	18873.625
321.67296	17924.825
325.87872	17131.725
330.08145	16807.225
334.28114	16805.825
338.47781	17104.625
342.67145	17488.325
346.86207	18100.925
351.04966	18923.325
355.23424	19794.125
359.4158	20494.925
363.59435	20961.625
367.76989	21177.325
371.94243	21242.525
376.11196	21230.025
380.27849	21192.325
384.44203	21155.225
388.60257	21134.525
392.76012	21126.125
396.91468	21350.025
401.06626	21757.725
405.21485	22078.625
409.36047	21820.325
413.50311	21080.825
417.64277	20334.925
421.77947	19898.225
425.9132	19717.325
430.04396	19726.925
434.17176	19880.225
438.2966	20192.225
442.41849	20712.925
446.53742	21330.825
450.6534	21995.825
454.76644	22452.525
458.87653	22613.125
462.98368	22477.425
467.08789	22092.425
471.18916	21588.225
475.2875	20975.425
479.38291	20513.225
483.4754	20160.425
487.56496	19949.125
491.6516	19749.825
495.73531	19665.225
499.81612	19701.425
503.89401	19885.325
507.96899	20064.125
512.04106	20212.325
516.11023	20461.525
520.1765	20644.425
524.23987	20668.425
528.30034	20546.625
532.35792	20420.425
536.41261	20179.925
540.46441	19884.125
544.51333	19729.525
548.55936	19864.225
552.60252	20172.125
556.64279	20533.425
560.6802	20710.825
564.71473	20946.525
568.7464	21450.225
572.7752	21703.225
576.80114	21302.425
580.82422	21000.925
584.84444	21081.625
588.86181	21393.225
592.87633	21865.225
596.888	22360.325
600.89682	23083.225
604.9028	25543.125
608.90594	31094.325
612.90624	36866.725
616.90371	34266.325
620.89834	26104.925
624.89015	22658.625
628.87913	22246.725
632.86528	22180.225
636.84862	22053.525
640.82913	21519.225
644.80683	20535.625
648.78172	19923.725
652.75379	19934.025
656.72306	20547.425
660.68952	21361.825
664.65319	21171.525
668.61405	20591.125
672.57211	20375.425
676.52738	20401.125
680.47986	20269.325
684.42955	20090.825
688.37646	20046.925
692.32058	20157.925
696.26192	20325.025
700.20048	20548.625
704.13626	20606.025
708.06928	20410.025
711.99952	20190.525
715.927	20187.825
719.85171	20252.325
723.77365	20242.225
727.69284	20102.425
731.60928	19984.325
735.52295	20003.525
739.43388	20160.625
743.34206	20322.825
747.24749	20375.625
751.15017	20470.025
755.05012	20759.225
758.94733	21595.025
762.8418	23501.925
766.73354	26610.325
770.62254	29559.825
774.50882	30849.225
778.39237	29611.125
782.27321	26455.925
786.15132	23487.725
790.02671	21669.725
793.89938	20820.125
797.76935	20511.425
801.6366	20391.425
805.50115	20299.725
809.36299	20186.925
813.22213	20048.825
817.07857	19966.325
820.93231	19939.925
824.78336	20009.125
828.63172	20097.125
832.47738	20165.425
836.32036	20213.025
840.16066	20282.925
843.99827	20342.925
847.8332	20306.825
851.66546	20190.225
855.49504	20129.025
859.32195	20129.925
863.1462	20034.525
866.96777	19941.025
870.78668	19915.125
874.60293	19982.625
878.41652	20032.525
882.22745	20144.425
886.03573	20257.225
889.84136	20210.925
893.64433	20105.425
897.44466	20011.325
901.24235	19919.425
905.0374	19879.425
908.8298	19814.725
912.61957	19815.225
916.40671	19904.425
920.19121	20202.525
923.97308	20550.825
927.75233	20890.925
931.52895	21123.025
935.30295	20906.125
939.07433	20415.025
942.84309	20038.725
946.60924	19869.525
950.37278	19763.425
954.13371	19603.725
957.89203	19439.825
961.64774	19317.825
965.40086	19277.425
969.15137	19167.625
972.89929	19140.225
976.64461	19164.025
980.38733	19195.725
984.12747	19318.425
987.86502	19572.825
991.59999	19951.125
995.33237	20549.925
999.06217	21527.425
1002.78939	22537.925
1006.51404	23011.225
1010.23611	23212.025
1013.95561	23400.525
1017.67255	23576.025
1021.38692	23533.725
1025.09872	23649.325
1028.80796	24243.725
1032.51465	25435.825
1036.21877	26286.225
1039.92035	26249.725
1043.61937	25513.525
1047.31584	24406.425
1051.00976	23232.525
1054.70114	22558.225
1058.38998	22374.925
1062.07627	22313.925
1065.76003	22240.425
1069.44126	22220.125
1073.11995	22398.025
1076.79611	22700.525
1080.46974	23132.125
1084.14085	23529.225
1087.80943	23912.225
1091.47549	23899.025
1095.13903	23517.525
1098.80005	22966.925
1102.45857	22638.925
1106.11456	22538.125
1109.76805	22788.825
1113.41903	23192.625
1117.06751	23711.625
1120.71348	24479.025
1124.35696	25151.725
1127.99793	25671.925
1131.63641	25459.325
1135.2724	24683.425
1138.90589	24011.225
1142.5369	23468.125
1146.16542	23027.025
1149.79145	22784.425
1153.415	22746.825
1157.03607	22906.225
1160.65467	23311.925
1164.27079	24028.425
1167.88443	25236.125
1171.49561	27075.625
1175.10432	29782.425
1178.71056	33416.325
1182.31434	36604.025
1185.91565	38040.925
1189.51451	37453.525
1193.11091	35401.525
1196.70485	32981.125
1200.29634	31110.025
1203.88538	29578.425
1207.47197	28158.925
1211.05612	26976.625
1214.63782	26339.525
1218.21708	26335.925
1221.79391	26590.525
1225.36829	26920.825
1228.94024	26788.525
1232.50976	26265.425
1236.07685	25884.925
1239.6415	25803.125
1243.20374	25932.425
1246.76355	26177.825
1250.32093	26684.925
1253.8759	27320.325
1257.42845	28216.325
1260.97859	29053.025
1264.52631	29892.425
1268.07163	30768.625
1271.61453	31768.925
1275.15503	32730.325
1278.69312	33697.225
1282.22882	34506.425
1285.76211	35202.425
1289.29301	35838.525
1292.82151	36575.525
1296.34761	37755.525
1299.87133	39790.825
1303.39266	43068.725
1306.9116	47594.425
1310.42815	52211.125
1313.94233	54549.225
1317.45412	53029.825
1320.96354	49513.125
1324.47058	45884.125
1327.97525	42878.925
1331.47754	41059.825
1334.97747	40326.225
1338.47502	40588.425
1341.97022	41405.125
1345.46305	42661.925
1348.95352	44204.325
1352.44163	46316.325
1355.92738	49763.025
1359.41078	55122.125
1362.89183	59587.725
1366.37053	57210.625
1369.84688	49260.825
1373.32088	41820.125
1376.79254	37316.425
1380.26186	34952.525
1383.72883	33610.225
1387.19347	32643.125
1390.65578	31675.725
1394.11575	30959.025
1397.57339	30842.525
1401.0287	31048.125
1404.48168	31458.325
1407.93234	31845.225
1411.38068	32219.325
1414.82669	32388.925
1418.27039	32124.725
1421.71177	31480.025
1425.15083	30838.825
1428.58758	30604.925
1432.02203	30914.725
1435.45416	31356.525
1438.88399	31591.025
1442.31151	31608.825
1445.73673	31599.825
1449.15965	31738.625
1452.58027	31602.025
1455.9986	31355.225
1459.41463	31295.125
1462.82837	31604.325
1466.23982	32255.925
1469.64898	32916.925
1473.05586	33454.525
1476.46045	33877.425
1479.86276	34338.025
1483.26279	34757.025
1486.66054	35326.425
1490.05602	36014.025
1493.44922	37114.225
1496.84016	38774.225
1500.22882	41259.425
1503.61521	44693.125
1506.99934	48706.825
1510.38121	51744.325
1513.76081	51910.825
1517.13816	48857.725
1520.51324	44100.925
1523.88607	39826.925
1527.25665	37099.525
1530.62498	35539.625
1533.99105	34616.325
1537.35488	34002.825
1540.71647	33643.125
1544.07581	33333.225
1547.4329	33092.625
1550.78776	32867.425
1554.14038	32726.025
1557.49077	32684.425
1560.83892	32903.625
1564.18484	33290.025
1567.52853	33801.725
1570.86999	34211.525
1574.20922	34352.925
1577.54624	34198.525
1580.88103	33136.025
1584.2136	32106.925
1587.54395	31974.625
1590.87208	33239.825
1594.19801	35902.725
1597.52172	38979.225
1600.84321	40436.725
1604.16251	39342.525
1607.47959	36518.125
1610.79447	33345.025
1614.10715	30514.625
1617.41763	28380.225
1620.7259	26962.525
1624.03199	26356.625
1627.33587	26482.525
1630.63757	27368.325
1633.93707	29024.825
1637.23439	31318.325
1640.52951	34175.725
1643.82246	37621.525
1647.11321	40750.925
1650.40179	41802.525
1653.68819	39453.325
1656.97241	34480.725
1660.25446	29572.925
1663.53433	26123.625
1666.81203	24091.925
1670.08756	22819.625
1673.36092	22015.925
1676.63211	21462.425
1679.90115	21024.425
1683.16801	20732.825
1686.43272	20458.525
1689.69527	20324.725
1692.95567	20218.925
1696.2139	20149.825
1699.46999	20071.125
1702.72392	20038.725
1705.97571	20014.825
1709.22535	19999.525
1712.47284	19975.925
1715.71819	19965.125
1718.96139	19877.825
1722.20246	19860.325
1725.44139	19750.525
1728.67818	19643.125
1731.91284	19544.225
1735.14537	19433.525
1738.37576	19386.925
1741.60403	19338.925
1744.83017	19213.525
1748.05418	19205.825
1751.27607	19170.025
1754.49584	19104.225
1757.71349	19091.825
1760.92903	19052.725
1764.14244	19064.925
1767.35375	19042.425
1770.56294	18980.425
1773.77002	18991.425
1776.97499	18982.125
1780.17785	18935.725
1783.37861	18953.525
1786.57727	18966.325
1789.77382	18918.425
1792.96828	18949.925
1796.16064	18878.325
1799.3509	18850.925
1802.53907	18874.125
1805.72514	18822.125
1808.90913	18779.225
1812.09102	18721.225
1815.27083	18686.625
1818.44856	18652.325
1821.6242	18605.325
1824.79776	18622.325
1827.96924	18591.325
1831.13864	18551.725
1834.30597	18571.925
1837.47122	18520.925
1840.6344	18558.025
1843.7955	18549.425
1846.95454	18570.125
1850.11151	18532.625
1853.26642	18508.325
1856.41926	18506.225
1859.57004	18524.925
1862.71876	18492.025
1865.86542	18515.825
1869.01003	18470.125
1872.15258	18516.525
1875.29308	18535.925
1878.43152	18530.325
1881.56792	18513.325
1884.70227	18501.925
1887.83457	18503.925
1890.96482	18470.125
1894.09304	18476.325
1897.21921	18428.625
1900.34335	18404.525
1903.46544	18397.425
1906.58551	18444.225
1909.70353	18471.825
1912.81953	18464.525
1915.93349	18453.225
1919.04543	18404.525
1922.15534	18392.225
1925.26322	18398.525
1928.36908	18339.925
1931.47292	18349.625
1934.57473	18264.025
1937.67453	18260.325
1940.77232	18186.925
1943.86808	18190.225
1946.96184	18164.325
1950.05358	18102.425
1953.14331	18052.525
1956.23103	18034.225
1959.31675	17955.925
1962.40046	17902.825
1965.48217	17870.425
1968.56188	17850.825
1971.63959	17814.825
1974.7153	17800.025
1977.78901	17746.925
1980.86073	17683.825
1983.93046	17643.225
1986.99819	17578.125
1990.06394	17558.725
1993.1277	17501.825
1996.18947	17439.325
1999.24925	17403.825
2002.30706	17340.125
2005.36288	17320.325
2008.41672	17307.625
2011.46859	17238.125
2014.51848	17209.625
2017.56639	17169.025
2020.61233	17128.625
2023.6563	17097.425
2026.6983	17072.425
2029.73833	17030.025
2032.7764	17041.225
2035.8125	17027.325
2038.84664	16995.425
2041.87881	17027.325
2044.90903	17005.825
2047.93729	16962.125
2050.96359	16930.725
2053.98794	16922.025
2057.01034	16940.125
2060.03078	16937.325
2063.04927	16916.925
2066.06582	16904.725
2069.08042	16917.025
2072.09307	16856.125
2075.10378	16853.225
2078.11255	16822.625
2081.11938	16805.525
2084.12426	16780.425
2087.12722	16783.725
2090.12824	16812.625
2093.12732	16821.725
2096.12447	16774.325
2099.11969	16786.725
2102.11299	16790.325
2105.10435	16815.825
2108.09379	16836.125
2111.08131	16842.225
2114.0669	16811.725
2117.05057	16886.125
2120.03233	16898.325
2123.01216	16920.925
2125.99008	16957.925
2128.96609	16942.525
2131.94018	16975.225
2134.91236	16986.425
2137.88263	16992.225
2140.851	16984.925
2143.81746	16987.425
2146.78201	16978.825
2149.74466	17017.125
2152.7054	17072.825
2155.66425	17037.925
2158.6212	17037.425
2161.57625	17031.225
2164.52941	17040.425
2167.48067	17032.825
2170.43004	17025.625
2173.37752	17041.525
2176.32311	17027.725
2179.26681	17038.025
2182.20863	17065.225
2185.14856	17076.425
2188.08661	17061.725
2191.02278	17093.825
2193.95707	17133.825
2196.88948	17133.725
2199.82001	17169.825
2202.74867	17155.225
2205.67545	17155.025
2208.60037	17173.525
2211.52341	17196.625
2214.44458	17150.925
2217.36388	17168.125
2220.28132	17154.825
2223.1969	17103.425
2226.11061	17108.725
2229.02246	17088.025
2231.93245	17056.225
2234.84058	17036.625
2237.74686	16976.725
2240.65128	16961.725
2243.55385	16918.925
2246.45456	16929.225
2249.35343	16899.925
2252.25044	16921.625
2255.14561	16927.025
2258.03893	16908.925
2260.93041	16884.025
2263.82004	16852.325
2266.70783	16824.525
2269.59378	16780.325
2272.4779	16789.325
2275.36017	16727.525
2278.24061	16644.425
2281.11922	16670.625
2283.996	16652.325
2286.87094	16610.025
2289.74405	16602.625
2292.61534	16584.125
2295.4848	16571.225
2298.35243	16603.725
2301.21824	16650.325
2304.08223	16641.525
2306.94439	16709.225
2309.80474	16739.125
2312.66327	16750.525
2315.51999	16735.725
2318.37489	16773.025
2321.22797	16799.525
2324.07925	16785.625
2326.92871	16716.925
2329.77637	16746.725
2332.62222	16728.925
2335.46626	16746.125
2338.3085	16782.825
2341.14893	16780.425
2343.98756	16853.125
2346.8244	16912.725
2349.65943	16951.025
2352.49267	16943.525
2355.32411	16906.425
2358.15376	16890.725
2360.98161	16877.725
2363.80768	16862.125
2366.63195	16834.525
2369.45444	16824.825
2372.27514	16785.525
2375.09405	16741.925
2377.91118	16733.925
2380.72652	16659.925
2383.54009	16624.025
2386.35187	16607.425
2389.16188	16565.725
2391.97011	16531.825
2394.77657	16518.825
2397.58125	16517.225
2400.38416	16484.725
2403.18529	16459.825
2405.98466	16414.525
2408.78226	16344.425
2411.57809	16310.825
2414.37216	16308.025
2417.16446	16298.125
2419.955	16248.825
2422.74378	16305.125
2425.5308	16265.425
2428.31606	16241.125
2431.09956	16254.525
2433.88131	16230.125
2436.6613	16297.525
2439.43954	16253.225
2442.21603	16232.525
2444.99077	16230.325
2447.76377	16233.125
2450.53501	16229.425
2453.30451	16239.325
2456.07226	16221.125
2458.83827	16227.625
2461.60254	16213.025
2464.36507	16167.125
2467.12586	16180.225
2469.88492	16181.925
2472.64224	16234.425
2475.39782	16240.125
2478.15167	16277.025
2480.90379	16281.025
2483.65417	16312.225
2486.40283	16361.025
2489.14976	16390.525
2491.89497	16397.825
2494.63845	16445.925
2497.3802	16398.625
2500.12024	16419.725
2502.85855	16397.625
2505.59514	16363.125
2508.33002	16339.925
2511.06318	16329.325
2513.79462	16306.925
2516.52435	16297.425
2519.25237	16270.425
2521.97867	16211.725
2524.70327	16231.225
2527.42616	16212.125
2530.14734	16213.025
2532.86681	16231.325
2535.58458	16250.125
2538.30065	16221.825
2541.01501	16244.425
2543.72768	16233.525
2546.43864	16238.925
2549.14791	16237.325
2551.85548	16234.225
2554.56136	16195.225
2557.26554	16188.525
2559.96803	16157.725
2562.66883	16162.425
2565.36794	16179.725
2568.06536	16173.925
2570.7611	16137.425
2573.45514	16154.625
2576.14751	16157.325
2578.83819	16143.725
2581.52719	16138.025
2584.21451	16154.425
2586.90015	16164.725
2589.58411	16161.325
2592.2664	16175.625
2594.94701	16145.725
2597.62594	16134.925
2600.30321	16144.325
2602.9788	16124.525
2605.65273	16116.925
2608.32498	16172.925
2610.99557	16161.725
2613.66449	16203.225
2616.33175	16178.625
2618.99734	16239.825
2621.66128	16259.525
2624.32355	16262.525
2626.98416	16274.025
2629.64311	16266.925
2632.30041	16297.725
2634.95605	16275.725
2637.61004	16300.725
2640.26238	16267.325
2642.91306	16267.925
2645.56209	16245.125
2648.20948	16162.925
2650.85521	16127.725
2653.4993	16115.325
2656.14175	16108.725
2658.78255	16124.725
2661.42171	16116.325
2664.05923	16138.225
2666.6951	16201.725
2669.32934	16252.125
2671.96194	16258.325
2674.59291	16227.225
2677.22224	16239.925
2679.84993	16237.225
2682.476	16194.225
2685.10043	16224.225
2687.72324	16151.925
2690.34441	16150.325
2692.96396	16152.325
2695.58188	16132.825
2698.19818	16097.825
2700.81285	16111.025
2703.4259	16090.625
2706.03733	16120.825
2708.64714	16105.025
2711.25533	16104.425
2713.86191	16108.025
2716.46687	16126.325
2719.07021	16137.625
2721.67194	16180.225
2724.27206	16144.325
2726.87057	16161.825
2729.46747	16124.125
2732.06276	16154.925
2734.65644	16148.025
2737.24852	16151.725
2739.83899	16141.725
2742.42786	16180.125
2745.01513	16151.625
2747.60079	16139.825
2750.18486	16084.925
2752.76733	16098.725
2755.3482	16075.925
2757.92747	16116.325
2760.50515	16085.225
2763.08123	16074.625
2765.65573	16092.525
2768.22863	16119.525
2770.79994	16143.125
2773.36967	16121.725
2775.9378	16105.525
2778.50435	16082.025
2781.06932	16103.125
2783.6327	16135.425
2786.1945	16118.325
2788.75471	16103.025
2791.31335	16063.225
2793.87041	16048.825
2796.42589	16002.625
2798.97979	16011.425
2801.53212	15943.825
2804.08288	15974.725
2806.63206	15916.025
2809.17967	15915.725
2811.72571	15867.625
2814.27018	15905.425
2816.81308	15883.125
2819.35442	15909.025
2821.89419	15894.825
2824.43239	15862.125
2826.96904	15899.025
2829.50412	15878.625
2832.03763	15819.325
2834.56959	15835.625
2837.1	15808.425
2839.62884	15810.025
2842.15613	15799.025
2844.68186	15796.125
2847.20604	15808.425
2849.72867	15780.725
2852.24974	15741.025
2854.76927	15756.325
2857.28724	15746.425
2859.80367	15778.825
2862.31855	15757.925
2864.83189	15731.525
2867.34368	15735.525
2869.85393	15748.925
2872.36264	15735.325
2874.8698	15721.125
2877.37543	15715.825
2879.87952	15720.125
2882.38207	15718.825
2884.88308	15715.825
2887.38256	15749.425
2889.88051	15723.625
2892.37692	15748.525
2894.8718	15719.525
2897.36515	15767.325
2899.85698	15750.025
2902.34727	15827.525
2904.83604	15836.525
2907.32328	15896.625
2909.809	15904.025
2912.29319	15844.025
2914.77587	15885.025
2917.25702	15852.625
2919.73665	15866.525
2922.21476	15849.725
2924.69136	15826.425
2927.16644	15790.225
2929.64	15756.825
2932.11205	15746.025
2934.58258	15689.025
2937.05161	15738.225
2939.51912	15720.925
2941.98513	15746.025
2944.44962	15696.025
2946.91261	15645.325
2949.37409	15699.425
2951.83407	15696.825
2954.29254	15699.525
2956.74951	15705.625
2959.20498	15688.325
2961.65895	15644.525
2964.11142	15642.625
2966.56239	15605.925
2969.01186	15629.225
2971.45984	15577.925
2973.90632	15640.325
2976.35131	15546.325
2978.7948	15523.025
2981.23681	15491.125
2983.67732	15492.125
2986.11635	15429.925
2988.55388	15427.625
2990.98993	15386.825
2993.4245	15347.525
2995.85758	15318.225
2998.28917	15324.225
3000.71928	15312.725
3003.14791	15274.325
3005.57506	15248.025
3008.00073	15199.125
3010.42493	15209.825
3012.84764	15183.725
3015.26888	15175.225
3017.68865	15113.525
3020.10694	15109.825
3022.52376	15063.825
3024.9391	15011.725
3027.35298	15031.825
3029.76539	15011.225
3032.17632	14995.825
3034.5858	14993.225
3036.9938	14975.325
3039.40034	14992.325
3041.80542	14961.025
3044.20903	14939.525
3046.61118	14947.925
3049.01187	14910.225
3051.4111	14913.125
3053.80888	14859.125
3056.20519	14856.225
3058.60005	14792.925
3060.99345	14775.425
3063.3854	14744.725
3065.7759	14687.325
3068.16494	14704.525
3070.55254	14648.225
3072.93868	14609.125
3075.32338	14537.525
3077.70662	14542.625
3080.08842	14517.025
3082.46878	14533.025
3084.84769	14477.625
3087.22515	14468.925
3089.60118	14531.525
3091.97576	14496.825
3094.3489	14479.625
3096.72061	14458.425
3099.09087	14486.125
3101.4597	14470.525
3103.82709	14455.025
3106.19305	14457.525
3108.55757	14476.625
3110.92066	14437.625
3113.28232	14415.925
3115.64255	14387.725
3118.00134	14386.825
3120.35871	14392.725
3122.71466	14365.025
3125.06917	14309.625
3127.42226	14335.125
3129.77393	14308.125
