Data from AgNPs_UA_100uM_CRN_0uM_R6G_10uM_Q_RamanShift__34__13-52-05-353.txt Node

Date: Tue Jul 26 13:52:05 BST 2022
User: TCL
Spectrometer: QEP01345
Trigger mode: 4
Integration Time (sec): 7.000000E0
Scans to average: 10
Electric dark correction enabled: true
Nonlinearity correction enabled: false
Boxcar width: 0
XAxis mode: Raman Shifts
Number of Pixels in Spectrum: 1044
>>>>>Begin Spectral Data<<<<<
46.04893	0.375
50.45542	-0.325
54.85868	-0.425
59.25871	-0.125
63.6555	48.075
68.04907	50.975
72.43941	59.875
76.82654	63.575
81.21044	66.775
85.59113	64.875
89.96862	69.475
94.34289	75.275
98.71396	75.075
103.08183	75.375
107.4465	79.375
111.80798	78.475
116.16626	79.675
120.52136	79.475
124.87327	84.675
129.222	84.975
133.56755	91.775
137.90993	88.275
142.24913	91.975
146.58517	96.275
150.91804	104.075
155.24774	119.875
159.57429	141.575
163.89768	171.075
168.21792	220.875
172.53501	285.975
176.84895	382.775
181.15975	527.075
185.46741	728.875
189.77193	991.875
194.07331	1329.075
198.37157	1714.675
202.6667	2118.575
206.9587	2529.375
211.24758	2943.075
215.53334	3399.575
219.81599	3933.175
224.09553	4528.875
228.37195	5182.375
232.64527	5877.075
236.91549	6535.475
241.18261	7075.575
245.44663	7488.775
249.70755	7758.375
253.96539	7986.875
258.22014	8183.375
262.4718	8353.175
266.72039	8420.675
270.96589	8342.675
275.20832	8183.175
279.44768	7915.875
283.68397	7645.975
287.91719	7557.375
292.14735	7672.675
296.37445	8037.475
300.59849	8693.775
304.81948	9422.075
309.03742	9948.675
313.25231	9940.275
317.46415	9297.475
321.67296	8280.575
325.87872	7432.875
330.08145	7105.175
334.28114	7125.675
338.47781	7517.475
342.67145	7764.475
346.86207	8247.675
351.04966	9046.175
355.23424	9903.575
359.4158	10486.175
363.59435	10712.475
367.76989	10675.175
371.94243	10577.975
376.11196	10388.875
380.27849	10237.975
384.44203	9989.175
388.60257	9738.875
392.76012	9550.375
396.91468	9564.375
401.06626	9836.375
405.21485	9958.175
409.36047	9538.375
413.50311	8703.275
417.64277	7944.275
421.77947	7507.375
425.9132	7275.075
430.04396	7211.275
434.17176	7271.475
438.2966	7444.375
442.41849	7710.575
446.53742	7987.075
450.6534	8207.075
454.76644	8266.775
458.87653	8208.775
462.98368	8050.975
467.08789	7877.975
471.18916	7669.275
475.2875	7425.475
479.38291	7204.775
483.4754	7046.675
487.56496	6942.575
491.6516	6931.475
495.73531	6921.875
499.81612	7003.375
503.89401	7143.575
507.96899	7341.375
512.04106	7623.775
516.11023	7930.075
520.1765	8132.775
524.23987	8143.975
528.30034	7984.175
532.35792	7805.475
536.41261	7601.175
540.46441	7366.475
544.51333	7218.475
548.55936	7241.475
552.60252	7400.675
556.64279	7636.475
560.6802	7778.775
564.71473	8101.175
568.7464	8655.475
572.7752	8726.175
576.80114	8022.775
580.82422	7380.075
584.84444	7121.375
588.86181	7117.975
592.87633	7212.775
596.888	7449.575
600.89682	8041.275
604.9028	9997.675
608.90594	14856.175
612.90624	20343.975
616.90371	18446.575
620.89834	11418.275
624.89015	8425.475
628.87913	8008.075
632.86528	8289.975
636.84862	8543.875
640.82913	8286.275
644.80683	7621.075
648.78172	7183.675
652.75379	7239.275
656.72306	7739.975
660.68952	8235.875
664.65319	7882.875
668.61405	7185.075
672.57211	6926.775
676.52738	6892.975
680.47986	6871.875
684.42955	6770.875
688.37646	6727.175
692.32058	6767.575
696.26192	6844.775
700.20048	6954.875
704.13626	7022.875
708.06928	6995.775
711.99952	6905.075
715.927	6928.175
719.85171	7044.875
723.77365	7133.175
727.69284	7093.475
731.60928	7038.275
735.52295	7019.475
739.43388	7034.075
743.34206	7061.475
747.24749	7073.375
751.15017	7108.275
755.05012	7314.775
758.94733	8004.975
762.8418	9674.375
766.73354	12179.375
770.62254	14427.175
774.50882	15585.375
778.39237	14810.775
782.27321	12166.675
786.15132	9550.175
790.02671	8081.675
793.89938	7460.575
797.76935	7221.175
801.6366	7137.175
805.50115	7111.975
809.36299	7118.575
813.22213	7133.275
817.07857	7085.275
820.93231	7058.175
824.78336	7075.775
828.63172	7126.275
832.47738	7117.075
836.32036	7026.075
840.16066	6939.675
843.99827	6881.575
847.8332	6846.475
851.66546	6865.375
855.49504	6875.275
859.32195	6856.875
863.1462	6827.775
866.96777	6804.575
870.78668	6832.075
874.60293	6890.175
878.41652	7004.675
882.22745	7116.775
886.03573	7203.675
889.84136	7221.375
893.64433	7171.675
897.44466	7138.175
901.24235	7101.075
905.0374	7026.975
908.8298	6884.575
912.61957	6820.775
916.40671	6766.475
920.19121	6803.275
923.97308	6881.875
927.75233	7087.875
931.52895	7293.475
935.30295	7172.775
939.07433	6868.575
942.84309	6616.875
946.60924	6485.075
950.37278	6423.375
954.13371	6390.875
957.89203	6371.775
961.64774	6355.175
965.40086	6349.575
969.15137	6317.175
972.89929	6315.175
976.64461	6306.175
980.38733	6322.175
984.12747	6345.175
987.86502	6368.975
991.59999	6409.875
995.33237	6525.975
999.06217	6654.575
1002.78939	6840.075
1006.51404	7032.175
1010.23611	7223.675
1013.95561	7282.675
1017.67255	7265.975
1021.38692	7173.675
1025.09872	7075.075
1028.80796	6992.875
1032.51465	7040.375
1036.21877	7116.875
1039.92035	7163.175
1043.61937	7180.875
1047.31584	7125.275
1051.00976	7070.275
1054.70114	7013.775
1058.38998	6948.175
1062.07627	6966.875
1065.76003	6994.375
1069.44126	7010.675
1073.11995	7095.175
1076.79611	7285.475
1080.46974	7572.975
1084.14085	7991.275
1087.80943	8320.375
1091.47549	8358.275
1095.13903	8078.175
1098.80005	7663.075
1102.45857	7432.975
1106.11456	7444.875
1109.76805	7635.875
1113.41903	8054.675
1117.06751	8669.175
1120.71348	9456.475
1124.35696	10374.775
1127.99793	10839.575
1131.63641	10354.675
1135.2724	9399.675
1138.90589	8702.875
1142.5369	8219.975
1146.16542	7874.475
1149.79145	7630.075
1153.415	7542.775
1157.03607	7576.675
1160.65467	7731.675
1164.27079	8075.475
1167.88443	8629.075
1171.49561	9542.675
1175.10432	11101.275
1178.71056	13256.375
1182.31434	14970.475
1185.91565	15209.075
1189.51451	14358.575
1193.11091	12943.375
1196.70485	11573.275
1200.29634	10755.975
1203.88538	10132.775
1207.47197	9320.075
1211.05612	8570.975
1214.63782	8141.075
1218.21708	7923.375
1221.79391	7852.375
1225.36829	7833.575
1228.94024	7834.375
1232.50976	7788.975
1236.07685	7802.675
1239.6415	7888.175
1243.20374	7971.775
1246.76355	8074.975
1250.32093	8187.975
1253.8759	8390.075
1257.42845	8674.875
1260.97859	9052.475
1264.52631	9492.775
1268.07163	9843.475
1271.61453	10097.775
1275.15503	10196.775
1278.69312	10188.775
1282.22882	10268.875
1285.76211	10613.875
1289.29301	11139.875
1292.82151	11630.975
1296.34761	12184.975
1299.87133	13269.575
1303.39266	15123.975
1306.9116	17941.875
1310.42815	20587.375
1313.94233	20996.375
1317.45412	18985.975
1320.96354	16263.975
1324.47058	13870.575
1327.97525	12127.575
1331.47754	11202.875
1334.97747	10955.875
1338.47502	11245.975
1341.97022	12075.375
1345.46305	13464.375
1348.95352	15260.375
1352.44163	17554.575
1355.92738	20828.275
1359.41078	25587.075
1362.89183	28882.275
1366.37053	26305.075
1369.84688	20450.575
1373.32088	15868.975
1376.79254	13209.675
1380.26186	11751.675
1383.72883	10815.475
1387.19347	10048.975
1390.65578	9378.175
1394.11575	8850.175
1397.57339	8592.175
1401.0287	8468.375
1404.48168	8439.775
1407.93234	8483.375
1411.38068	8618.775
1414.82669	8817.575
1418.27039	8906.175
1421.71177	8860.975
1425.15083	8739.975
1428.58758	8771.675
1432.02203	8951.875
1435.45416	9046.375
1438.88399	8980.475
1442.31151	8883.475
1445.73673	8920.675
1449.15965	8928.575
1452.58027	8867.375
1455.9986	8680.375
1459.41463	8631.975
1462.82837	8770.575
1466.23982	9043.575
1469.64898	9307.975
1473.05586	9472.675
1476.46045	9567.575
1479.86276	9800.575
1483.26279	10159.275
1486.66054	10674.175
1490.05602	11410.675
1493.44922	12515.475
1496.84016	14261.175
1500.22882	17027.075
1503.61521	20890.375
1506.99934	25076.375
1510.38121	27808.875
1513.76081	27411.375
1517.13816	23877.375
1520.51324	19065.775
1523.88607	15244.175
1527.25665	12965.575
1530.62498	11724.175
1533.99105	11014.175
1537.35488	10617.075
1540.71647	10458.775
1544.07581	10498.675
1547.4329	10638.075
1550.78776	10789.475
1554.14038	10883.775
1557.49077	11014.875
1560.83892	11251.775
1564.18484	11783.075
1567.52853	12509.075
1570.86999	13099.575
1574.20922	13370.175
1577.54624	13059.075
1580.88103	11917.075
1584.2136	10557.175
1587.54395	9791.175
1590.87208	9731.275
1594.19801	10324.675
1597.52172	11163.775
1600.84321	11505.775
1604.16251	11105.175
1607.47959	10411.575
1610.79447	9652.275
1614.10715	8899.775
1617.41763	8341.775
1620.7259	8033.775
1624.03199	7878.475
1627.33587	7961.675
1630.63757	8226.775
1633.93707	8687.475
1637.23439	9547.875
1640.52951	10886.175
1643.82246	12981.875
1647.11321	15524.375
1650.40179	17108.175
1653.68819	16159.475
1656.97241	13404.375
1660.25446	10693.675
1663.53433	8928.675
1666.81203	7943.475
1670.08756	7385.375
1673.36092	7045.875
1676.63211	6837.975
1679.90115	6669.175
1683.16801	6562.175
1686.43272	6453.875
1689.69527	6404.075
1692.95567	6343.075
1696.2139	6305.775
1699.46999	6297.775
1702.72392	6252.575
1705.97571	6256.675
1709.22535	6252.375
1712.47284	6254.175
1715.71819	6227.775
1718.96139	6234.475
1722.20246	6194.175
1725.44139	6128.975
1728.67818	6090.675
1731.91284	6025.575
1735.14537	5995.675
1738.37576	5932.375
1741.60403	5934.675
1744.83017	5917.075
1748.05418	5891.275
1751.27607	5869.475
1754.49584	5839.175
1757.71349	5815.875
1760.92903	5807.375
1764.14244	5785.675
1767.35375	5815.675
1770.56294	5748.675
1773.77002	5736.075
1776.97499	5710.775
1780.17785	5712.475
1783.37861	5685.975
1786.57727	5677.675
1789.77382	5668.675
1792.96828	5647.575
1796.16064	5661.175
1799.3509	5636.275
1802.53907	5631.575
1805.72514	5613.475
1808.90913	5576.575
1812.09102	5556.175
1815.27083	5558.175
1818.44856	5558.075
1821.6242	5512.775
1824.79776	5492.575
1827.96924	5485.575
1831.13864	5494.075
1834.30597	5492.875
1837.47122	5451.675
1840.6344	5463.275
1843.7955	5446.075
1846.95454	5432.475
1850.11151	5436.675
1853.26642	5443.975
1856.41926	5427.875
1859.57004	5440.975
1862.71876	5461.975
1865.86542	5447.375
1869.01003	5438.875
1872.15258	5433.575
1875.29308	5434.275
1878.43152	5448.175
1881.56792	5438.275
1884.70227	5402.775
1887.83457	5409.675
1890.96482	5420.275
1894.09304	5397.775
1897.21921	5382.475
1900.34335	5391.975
1903.46544	5389.775
1906.58551	5404.875
1909.70353	5381.975
1912.81953	5391.775
1915.93349	5368.775
1919.04543	5364.075
1922.15534	5382.475
1925.26322	5360.575
1928.36908	5356.375
1931.47292	5336.475
1934.57473	5297.875
1937.67453	5294.075
1940.77232	5278.175
1943.86808	5268.875
1946.96184	5235.575
1950.05358	5226.775
1953.14331	5204.475
1956.23103	5209.175
1959.31675	5184.075
1962.40046	5178.675
1965.48217	5178.875
1968.56188	5166.675
1971.63959	5149.575
1974.7153	5149.175
1977.78901	5102.875
1980.86073	5102.275
1983.93046	5061.475
1986.99819	5050.775
1990.06394	5040.175
1993.1277	5029.875
1996.18947	5001.975
1999.24925	4975.575
2002.30706	4969.975
2005.36288	4937.975
2008.41672	4941.775
2011.46859	4910.075
2014.51848	4907.175
2017.56639	4897.275
2020.61233	4876.375
2023.6563	4872.275
2026.6983	4856.175
2029.73833	4830.575
2032.7764	4822.275
2035.8125	4813.975
2038.84664	4819.975
2041.87881	4808.075
2044.90903	4810.075
2047.93729	4803.475
2050.96359	4777.375
2053.98794	4787.675
2057.01034	4785.975
2060.03078	4775.775
2063.04927	4771.475
2066.06582	4763.175
2069.08042	4749.075
2072.09307	4750.475
2075.10378	4739.075
2078.11255	4750.475
2081.11938	4754.075
2084.12426	4749.275
2087.12722	4744.375
2090.12824	4726.475
2093.12732	4741.875
2096.12447	4740.975
2099.11969	4731.775
2102.11299	4737.975
2105.10435	4735.175
2108.09379	4738.075
2111.08131	4745.475
2114.0669	4745.875
2117.05057	4754.575
2120.03233	4761.875
2123.01216	4779.975
2125.99008	4777.275
2128.96609	4764.875
2131.94018	4786.775
2134.91236	4778.075
2137.88263	4781.475
2140.851	4777.775
2143.81746	4786.075
2146.78201	4774.475
2149.74466	4766.175
2152.7054	4778.375
2155.66425	4769.075
2158.6212	4749.575
2161.57625	4754.175
2164.52941	4744.975
2167.48067	4744.675
2170.43004	4747.875
2173.37752	4742.675
2176.32311	4754.875
2179.26681	4745.475
2182.20863	4744.475
2185.14856	4745.275
2188.08661	4740.375
2191.02278	4736.075
2193.95707	4739.975
2196.88948	4721.475
2199.82001	4740.575
2202.74867	4715.975
2205.67545	4725.475
2208.60037	4719.075
2211.52341	4729.075
2214.44458	4720.775
2217.36388	4699.075
2220.28132	4695.675
2223.1969	4667.075
2226.11061	4667.875
2229.02246	4647.375
2231.93245	4652.675
2234.84058	4641.375
2237.74686	4627.375
2240.65128	4613.175
2243.55385	4615.275
2246.45456	4618.575
2249.35343	4598.675
2252.25044	4616.375
2255.14561	4622.175
2258.03893	4616.375
2260.93041	4631.775
2263.82004	4614.275
2266.70783	4616.375
2269.59378	4595.175
2272.4779	4579.775
2275.36017	4588.475
2278.24061	4563.175
2281.11922	4549.675
2283.996	4554.475
2286.87094	4537.575
2289.74405	4518.775
2292.61534	4508.475
2295.4848	4500.875
2298.35243	4507.375
2301.21824	4500.875
2304.08223	4499.975
2306.94439	4492.575
2309.80474	4502.475
2312.66327	4502.075
2315.51999	4488.675
2318.37489	4496.575
2321.22797	4482.675
2324.07925	4473.275
2326.92871	4470.175
2329.77637	4462.575
2332.62222	4465.075
2335.46626	4451.275
2338.3085	4437.375
2341.14893	4443.975
2343.98756	4456.775
2346.8244	4442.375
2349.65943	4444.275
2352.49267	4449.875
2355.32411	4453.575
2358.15376	4473.275
2360.98161	4472.775
2363.80768	4474.175
2366.63195	4498.075
2369.45444	4489.275
2372.27514	4498.475
2375.09405	4487.175
2377.91118	4486.375
2380.72652	4466.475
2383.54009	4426.475
2386.35187	4404.975
2389.16188	4380.975
2391.97011	4383.975
2394.77657	4365.675
2397.58125	4368.375
2400.38416	4335.175
2403.18529	4335.375
2405.98466	4314.975
2408.78226	4321.475
2411.57809	4307.975
2414.37216	4296.475
2417.16446	4305.675
2419.955	4293.075
2422.74378	4282.475
2425.5308	4288.375
2428.31606	4286.575
2431.09956	4290.675
2433.88131	4281.375
2436.6613	4289.075
2439.43954	4281.775
2442.21603	4276.175
2444.99077	4280.675
2447.76377	4291.475
2450.53501	4290.975
2453.30451	4281.575
2456.07226	4262.775
2458.83827	4280.675
2461.60254	4264.475
2464.36507	4268.475
2467.12586	4269.075
2469.88492	4249.375
2472.64224	4266.575
2475.39782	4271.675
2478.15167	4287.875
2480.90379	4284.575
2483.65417	4293.475
2486.40283	4309.575
2489.14976	4306.575
2491.89497	4321.075
2494.63845	4312.875
2497.3802	4317.675
2500.12024	4316.275
2502.85855	4309.675
2505.59514	4278.175
2508.33002	4253.475
2511.06318	4239.675
2513.79462	4229.775
2516.52435	4190.475
2519.25237	4171.775
2521.97867	4159.175
2524.70327	4149.375
2527.42616	4132.775
2530.14734	4139.975
2532.86681	4147.975
2535.58458	4121.075
2538.30065	4138.775
2541.01501	4139.475
2543.72768	4131.075
2546.43864	4124.175
2549.14791	4119.775
2551.85548	4137.375
2554.56136	4116.775
2557.26554	4129.075
2559.96803	4105.175
2562.66883	4082.875
2565.36794	4106.375
2568.06536	4103.175
2570.7611	4084.775
2573.45514	4067.575
2576.14751	4073.675
2578.83819	4072.675
2581.52719	4070.275
2584.21451	4050.075
2586.90015	4036.875
2589.58411	4033.075
2592.2664	4033.075
2594.94701	4023.575
2597.62594	4016.575
2600.30321	4017.275
2602.9788	4018.175
2605.65273	4018.175
2608.32498	4012.775
2610.99557	4016.975
2613.66449	4009.975
2616.33175	4011.675
2618.99734	4023.175
2621.66128	4008.475
2624.32355	3994.175
2626.98416	3987.675
2629.64311	3992.775
2632.30041	3984.875
2634.95605	3985.575
2637.61004	3964.075
2640.26238	3964.075
2642.91306	3953.175
2645.56209	3941.975
2648.20948	3943.775
2650.85521	3933.575
2653.4993	3929.275
2656.14175	3923.875
2658.78255	3932.975
2661.42171	3933.375
2664.05923	3960.775
2666.6951	3943.075
2669.32934	3964.675
2671.96194	3974.275
2674.59291	3957.975
2677.22224	3956.975
2679.84993	3979.275
2682.476	3969.175
2685.10043	3956.775
2687.72324	3956.675
2690.34441	3955.675
2692.96396	3945.575
2695.58188	3934.975
2698.19818	3930.975
2700.81285	3938.775
2703.4259	3931.575
2706.03733	3940.975
2708.64714	3952.475
2711.25533	3938.475
2713.86191	3945.475
2716.46687	3951.175
2719.07021	3955.375
2721.67194	3942.475
2724.27206	3951.575
2726.87057	3957.175
2729.46747	3942.475
2732.06276	3964.575
2734.65644	3946.775
2737.24852	3937.975
2739.83899	3923.175
2742.42786	3927.375
2745.01513	3917.475
2747.60079	3913.675
2750.18486	3882.975
2752.76733	3901.375
2755.3482	3886.775
2757.92747	3866.675
2760.50515	3876.375
2763.08123	3878.475
2765.65573	3861.475
2768.22863	3869.675
2770.79994	3860.175
2773.36967	3856.375
2775.9378	3842.875
2778.50435	3848.975
2781.06932	3850.975
2783.6327	3840.775
2786.1945	3861.575
2788.75471	3854.775
2791.31335	3850.075
2793.87041	3841.875
2796.42589	3849.075
2798.97979	3825.675
2801.53212	3825.575
2804.08288	3828.275
2806.63206	3833.575
2809.17967	3820.475
2811.72571	3814.975
2814.27018	3823.375
2816.81308	3814.775
2819.35442	3823.975
2821.89419	3826.075
2824.43239	3835.975
2826.96904	3837.575
2829.50412	3838.975
2832.03763	3812.475
2834.56959	3817.075
2837.1	3814.375
2839.62884	3821.375
2842.15613	3811.275
2844.68186	3821.875
2847.20604	3805.375
2849.72867	3814.475
2852.24974	3813.475
2854.76927	3803.875
2857.28724	3825.375
2859.80367	3820.875
2862.31855	3838.175
2864.83189	3840.575
2867.34368	3823.975
2869.85393	3840.275
2872.36264	3836.875
2874.8698	3828.475
2877.37543	3838.475
2879.87952	3843.975
2882.38207	3834.475
2884.88308	3821.975
2887.38256	3822.775
2889.88051	3802.675
2892.37692	3812.675
2894.8718	3798.875
2897.36515	3809.075
2899.85698	3812.675
2902.34727	3803.875
2904.83604	3817.975
2907.32328	3825.075
2909.809	3816.075
2912.29319	3824.175
2914.77587	3805.675
2917.25702	3810.575
2919.73665	3802.375
2922.21476	3800.375
2924.69136	3784.775
2927.16644	3781.275
2929.64	3775.275
2932.11205	3769.175
2934.58258	3745.675
2937.05161	3755.575
2939.51912	3759.075
2941.98513	3757.775
2944.44962	3749.175
2946.91261	3741.775
2949.37409	3755.375
2951.83407	3729.075
2954.29254	3730.175
2956.74951	3719.375
2959.20498	3727.475
2961.65895	3742.875
2964.11142	3715.675
2966.56239	3721.875
2969.01186	3726.475
2971.45984	3701.875
2973.90632	3722.275
2976.35131	3695.975
2978.7948	3694.875
2981.23681	3690.575
2983.67732	3673.875
2986.11635	3670.275
2988.55388	3667.675
2990.98993	3661.175
2993.4245	3645.875
2995.85758	3651.075
2998.28917	3652.075
3000.71928	3656.875
3003.14791	3635.075
3005.57506	3630.475
3008.00073	3640.975
3010.42493	3614.175
3012.84764	3626.075
3015.26888	3613.275
3017.68865	3619.375
3020.10694	3616.475
3022.52376	3601.575
3024.9391	3591.675
3027.35298	3587.475
3029.76539	3578.875
3032.17632	3595.175
3034.5858	3584.275
3036.9938	3571.575
3039.40034	3563.175
3041.80542	3574.575
3044.20903	3561.375
3046.61118	3568.175
3049.01187	3539.875
3051.4111	3541.675
3053.80888	3535.075
3056.20519	3546.375
3058.60005	3526.275
3060.99345	3513.675
3063.3854	3504.475
3065.7759	3516.075
3068.16494	3505.975
3070.55254	3483.675
3072.93868	3489.275
3075.32338	3482.975
3077.70662	3477.475
3080.08842	3466.775
3082.46878	3479.375
3084.84769	3482.575
3087.22515	3466.375
3089.60118	3468.675
3091.97576	3474.575
3094.3489	3464.775
3096.72061	3477.175
3099.09087	3478.875
3101.4597	3481.875
3103.82709	3487.075
3106.19305	3484.875
3108.55757	3501.875
3110.92066	3480.875
3113.28232	3484.875
3115.64255	3474.775
3118.00134	3474.975
3120.35871	3474.575
3122.71466	3484.575
3125.06917	3468.475
3127.42226	3477.075
3129.77393	3486.875
3132.12417	3479.475
3134.47299	3479.375
3136.82039	3478.575
3139.16636	3489.375
3141.51092	3498.675
3143.85406	3485.675
3146.19579	3492.875
3148.53609	3515.775
3150.87499	3496.275
3153.21246	3521.175
3155.54853	3529.875
3157.88318	3541.275
3160.21642	3532.775
3162.54826	3539.675
3164.87868	3553.575
3167.2077	3552.775
3169.5353	3544.075
3171.86151	3566.075
3174.18631	3563.175
3176.5097	3557.275
3178.83169	3562.375
3181.15228	3565.075
3183.47147	3559.575
3185.78926	3553.075
3188.10565	3559.675
3190.42065	3568.175
3192.73424	3570.475
3195.04645	3569.675
3197.35725	3587.275
3199.66667	3580.875
3201.97469	3586.475
3204.28132	3595.375
3206.58656	3597.975
3208.8904	3606.375
3211.19287	3606.475
3213.49394	3616.375
3215.79363	3614.375
3218.09193	3637.475
3220.38884	3633.575
3222.68438	3636.275
3224.97853	3642.775
3227.2713	3638.075
