Data from AgNPs_UA_5uM_CRN_0uM_R6G_10uM_Q_RamanShift__27__11-20-45-323.txt Node

Date: Mon Jul 18 11:20:45 BST 2022
User: TCL
Spectrometer: QEP01345
Trigger mode: 4
Integration Time (sec): 7.000000E0
Scans to average: 10
Electric dark correction enabled: true
Nonlinearity correction enabled: false
Boxcar width: 0
XAxis mode: Raman Shifts
Number of Pixels in Spectrum: 1044
>>>>>Begin Spectral Data<<<<<
46.04893	-1.5625
50.45542	-2.2625
54.85868	-3.2625
59.25871	-2.2625
63.6555	153.1375
68.04907	154.8375
72.43941	163.3375
76.82654	163.0375
81.21044	173.2375
85.59113	174.5375
89.96862	185.8375
94.34289	184.6375
98.71396	195.0375
103.08183	198.4375
107.4465	203.7375
111.80798	210.8375
116.16626	220.6375
120.52136	228.2375
124.87327	236.2375
129.222	247.4375
133.56755	268.8375
137.90993	288.8375
142.24913	313.8375
146.58517	360.9375
150.91804	420.4375
155.24774	502.7375
159.57429	630.1375
163.89768	800.4375
168.21792	1069.0375
172.53501	1451.4375
176.84895	2026.0375
181.15975	2830.8375
185.46741	4001.2375
189.77193	5494.4375
194.07331	7329.2375
198.37157	9430.8375
202.6667	11607.5375
206.9587	13790.3375
211.24758	15899.7375
215.53334	18096.3375
219.81599	20399.5375
224.09553	23072.7375
228.37195	26061.0375
232.64527	29331.5375
236.91549	32649.4375
241.18261	35938.4375
245.44663	38900.8375
249.70755	41441.9375
253.96539	43700.0375
258.22014	45564.8375
262.4718	47157.6375
266.72039	48231.1375
270.96589	48739.4375
275.20832	48742.2375
279.44768	48390.4375
283.68397	47814.7375
287.91719	47389.6375
292.14735	47215.3375
296.37445	47424.2375
300.59849	48075.1375
304.81948	48912.9375
309.03742	49396.0375
313.25231	49210.0375
317.46415	48045.0375
321.67296	46334.2375
325.87872	44991.6375
330.08145	44508.1375
334.28114	44792.2375
338.47781	45429.6375
342.67145	46319.0375
346.86207	47552.1375
351.04966	49159.9375
355.23424	50989.6375
359.4158	52609.9375
363.59435	53812.6375
367.76989	54602.4375
371.94243	55040.1375
376.11196	55297.6375
380.27849	55573.1375
384.44203	55829.8375
388.60257	55936.4375
392.76012	56227.0375
396.91468	56915.4375
401.06626	58185.4375
405.21485	59014.7375
409.36047	58804.8375
413.50311	57623.3375
417.64277	56694.7375
421.77947	56268.3375
425.9132	56317.0375
430.04396	56741.2375
434.17176	57524.2375
438.2966	58684.3375
442.41849	60493.7375
446.53742	62823.3375
450.6534	65363.9375
454.76644	67354.1375
458.87653	68014.1375
462.98368	67297.7375
467.08789	65782.0375
471.18916	63807.9375
475.2875	61818.0375
479.38291	60293.2375
483.4754	59171.1375
487.56496	58158.2375
491.6516	57188.5375
495.73531	56435.8375
499.81612	56264.5375
503.89401	56516.3375
507.96899	56665.4375
512.04106	56878.4375
516.11023	57339.3375
520.1765	57693.5375
524.23987	57809.8375
528.30034	57568.5375
532.35792	57161.6375
536.41261	56546.1375
540.46441	55829.8375
544.51333	55791.6375
548.55936	56323.2375
552.60252	57273.6375
556.64279	57951.4375
560.6802	58130.8375
564.71473	58537.9375
568.7464	59576.1375
572.7752	60463.9375
576.80114	60302.0375
580.82422	60385.0375
584.84444	61309.6375
588.86181	62812.0375
592.87633	64599.4375
596.888	66095.1375
600.89682	67846.4375
604.9028	73562.4375
608.90594	85187.5375
612.90624	94658.8375
616.90371	86862.8375
620.89834	70928.8375
624.89015	65433.7375
628.87913	65065.5375
632.86528	63448.1375
636.84862	61245.3375
640.82913	59416.1375
644.80683	57473.8375
648.78172	56320.7375
652.75379	56692.5375
656.72306	58288.7375
660.68952	60034.0375
664.65319	59821.3375
668.61405	58619.3375
672.57211	58102.5375
676.52738	57827.1375
680.47986	57592.0375
684.42955	57479.2375
688.37646	57687.0375
692.32058	58055.4375
696.26192	58475.4375
700.20048	59033.3375
704.13626	59112.9375
708.06928	58400.6375
711.99952	57915.0375
715.927	57905.2375
719.85171	58033.7375
723.77365	57641.6375
727.69284	57115.5375
731.60928	56894.8375
735.52295	57126.1375
739.43388	57624.4375
743.34206	58206.5375
747.24749	58848.4375
751.15017	59449.1375
755.05012	60623.3375
758.94733	62632.7375
762.8418	66544.6375
766.73354	72481.9375
770.62254	78188.0375
774.50882	80065.1375
778.39237	76433.6375
782.27321	69719.4375
786.15132	63936.7375
790.02671	60751.2375
793.89938	59403.4375
797.76935	59029.3375
801.6366	58935.5375
805.50115	58566.1375
809.36299	58223.3375
813.22213	57873.2375
817.07857	57669.6375
820.93231	57640.9375
824.78336	57841.2375
828.63172	58150.1375
832.47738	58374.2375
836.32036	58729.8375
840.16066	59397.8375
843.99827	59862.0375
847.8332	59430.4375
851.66546	58781.1375
855.49504	58608.2375
859.32195	58454.6375
863.1462	57991.8375
866.96777	57537.1375
870.78668	57329.7375
874.60293	57451.6375
878.41652	57615.7375
882.22745	57963.0375
886.03573	58157.3375
889.84136	58040.2375
893.64433	57727.5375
897.44466	57460.5375
901.24235	57372.6375
905.0374	57427.9375
908.8298	57361.8375
912.61957	57629.9375
916.40671	58258.6375
920.19121	59366.0375
923.97308	60707.9375
927.75233	61750.1375
931.52895	62111.6375
935.30295	61288.5375
939.07433	59747.8375
942.84309	58772.5375
946.60924	58418.0375
950.37278	58019.7375
954.13371	57217.6375
957.89203	56602.9375
961.64774	56315.7375
965.40086	56035.8375
969.15137	55832.6375
972.89929	55700.3375
976.64461	55830.4375
980.38733	56126.7375
984.12747	56629.2375
987.86502	57437.8375
991.59999	58658.1375
995.33237	61203.2375
999.06217	65381.8375
1002.78939	69702.6375
1006.51404	71124.2375
1010.23611	71189.4375
1013.95561	71949.8375
1017.67255	72884.3375
1021.38692	72774.3375
1025.09872	73271.0375
1028.80796	76086.5375
1032.51465	81030.5375
1036.21877	84622.5375
1039.92035	83962.2375
1043.61937	80342.1375
1047.31584	75129.4375
1051.00976	70211.5375
1054.70114	67763.8375
1058.38998	67142.0375
1062.07627	66929.4375
1065.76003	66498.7375
1069.44126	66101.1375
1073.11995	66295.4375
1076.79611	66667.2375
1080.46974	67226.7375
1084.14085	68088.1375
1087.80943	68969.8375
1091.47549	68824.2375
1095.13903	67537.8375
1098.80005	65999.9375
1102.45857	65054.6375
1106.11456	64960.4375
1109.76805	65566.0375
1113.41903	66602.9375
1117.06751	67751.6375
1120.71348	68911.3375
1124.35696	69851.8375
1127.99793	70621.9375
1131.63641	70478.0375
1135.2724	69379.0375
1138.90589	68146.0375
1142.5369	67189.3375
1146.16542	66560.3375
1149.79145	66485.3375
1153.415	66983.1375
1157.03607	67748.5375
1160.65467	68915.7375
1164.27079	71062.6375
1167.88443	74577.5375
1171.49561	79846.5375
1175.10432	87489.9375
1178.71056	97430.7375
1182.31434	106626.9375
1185.91565	112196.0375
1189.51451	112060.0375
1193.11091	106204.5375
1196.70485	98247.6375
1200.29634	91933.7375
1203.88538	87434.2375
1207.47197	83947.4375
1211.05612	81625.7375
1214.63782	81126.0375
1218.21708	82217.0375
1221.79391	83855.6375
1225.36829	84913.8375
1228.94024	84443.0375
1232.50976	82447.3375
1236.07685	81038.9375
1239.6415	80670.8375
1243.20374	80868.8375
1246.76355	81696.6375
1250.32093	83235.8375
1253.8759	85878.1375
1257.42845	89183.3375
1260.97859	91643.2375
1264.52631	93425.4375
1268.07163	95385.1375
1271.61453	98099.1375
1275.15503	101784.1375
1278.69312	106158.7375
1282.22882	109708.2375
1285.76211	111887.9375
1289.29301	113118.9375
1292.82151	114703.8375
1296.34761	117504.4375
1299.87133	122649.1375
1303.39266	130802.8375
1306.9116	142426.3375
1310.42815	155008.4375
1313.94233	162862.2375
1317.45412	161705.8375
1320.96354	154713.4375
1324.47058	146785.0375
1327.97525	140466.7375
1331.47754	137377.6375
1334.97747	137353.9375
1338.47502	138939.9375
1341.97022	141150.9375
1345.46305	142577.4375
1348.95352	143029.9375
1352.44163	144181.2375
1355.92738	148939.5375
1359.41078	158925.1375
1362.89183	167010.8375
1366.37053	161680.7375
1369.84688	144272.0375
1373.32088	126501.4375
1376.79254	114846.7375
1380.26186	108969.8375
1383.72883	106550.2375
1387.19347	104824.3375
1390.65578	102666.0375
1394.11575	101266.8375
1397.57339	101851.9375
1401.0287	104226.4375
1404.48168	107185.5375
1407.93234	110456.0375
1411.38068	113393.1375
1414.82669	114122.2375
1418.27039	111486.3375
1421.71177	107317.1375
1425.15083	104115.1375
1428.58758	103073.0375
1432.02203	104057.0375
1435.45416	105746.8375
1438.88399	106784.8375
1442.31151	107176.8375
1445.73673	107460.7375
1449.15965	107483.8375
1452.58027	106583.2375
1455.9986	104957.9375
1459.41463	104145.8375
1462.82837	104851.9375
1466.23982	106994.9375
1469.64898	109495.1375
1473.05586	111471.1375
1476.46045	113248.7375
1479.86276	114995.3375
1483.26279	116242.7375
1486.66054	117317.4375
1490.05602	118762.6375
1493.44922	120590.1375
1496.84016	122565.5375
1500.22882	124989.6375
1503.61521	128642.3375
1506.99934	133369.0375
1510.38121	137837.5375
1513.76081	138801.4375
1517.13816	134965.4375
1520.51324	128336.2375
1523.88607	122049.7375
1527.25665	117524.0375
1530.62498	114737.3375
1533.99105	112869.8375
1537.35488	111822.0375
1540.71647	111353.8375
1544.07581	110621.2375
1547.4329	109290.9375
1550.78776	107306.2375
1554.14038	105415.1375
1557.49077	104073.6375
1560.83892	103263.9375
1564.18484	102788.5375
1567.52853	102403.4375
1570.86999	102015.2375
1574.20922	101974.9375
1577.54624	101801.3375
1580.88103	100642.1375
1584.2136	100124.6375
1587.54395	102555.3375
1590.87208	109456.5375
1594.19801	120850.8375
1597.52172	133733.6375
1600.84321	141158.2375
1604.16251	137779.3375
1607.47959	126219.9375
1610.79447	112347.4375
1614.10715	100367.9375
1617.41763	92001.9375
1620.7259	86924.2375
1624.03199	84798.3375
1627.33587	85657.5375
1630.63757	89207.8375
1633.93707	95269.8375
1637.23439	102854.6375
1640.52951	111180.7375
1643.82246	118899.4375
1647.11321	123461.9375
1650.40179	122402.6375
1653.68819	113847.8375
1656.97241	100399.1375
1660.25446	87767.0375
1663.53433	78665.1375
1666.81203	72917.6375
1670.08756	69181.8375
1673.36092	66770.5375
1676.63211	65075.0375
1679.90115	63882.2375
1683.16801	62896.4375
1686.43272	62205.8375
1689.69527	61706.5375
1692.95567	61373.0375
1696.2139	61136.1375
1699.46999	60974.0375
1702.72392	60919.4375
1705.97571	60845.8375
1709.22535	60788.6375
1712.47284	60865.1375
1715.71819	60887.9375
1718.96139	60809.4375
1722.20246	60613.6375
1725.44139	60233.6375
1728.67818	59957.3375
1731.91284	59729.1375
1735.14537	59369.0375
1738.37576	59156.8375
1741.60403	59073.9375
1744.83017	58856.6375
1748.05418	58782.6375
1751.27607	58667.6375
1754.49584	58611.5375
1757.71349	58555.8375
1760.92903	58525.0375
1764.14244	58535.7375
1767.35375	58435.0375
1770.56294	58354.2375
1773.77002	58346.0375
1776.97499	58392.5375
1780.17785	58315.3375
1783.37861	58236.7375
1786.57727	58204.9375
1789.77382	58224.3375
1792.96828	58215.8375
1796.16064	58173.1375
1799.3509	58248.9375
1802.53907	58089.0375
1805.72514	58086.6375
1808.90913	57992.5375
1812.09102	57936.9375
1815.27083	57774.3375
1818.44856	57679.0375
1821.6242	57640.7375
1824.79776	57547.0375
1827.96924	57433.4375
1831.13864	57408.1375
1834.30597	57384.5375
1837.47122	57345.6375
1840.6344	57363.3375
1843.7955	57506.4375
1846.95454	57518.5375
1850.11151	57373.1375
1853.26642	57297.8375
1856.41926	57379.9375
1859.57004	57434.3375
1862.71876	57521.5375
1865.86542	57559.3375
1869.01003	57676.1375
1872.15258	57644.3375
1875.29308	57671.4375
1878.43152	57640.4375
1881.56792	57633.4375
1884.70227	57579.0375
1887.83457	57563.1375
1890.96482	57567.0375
1894.09304	57608.1375
1897.21921	57612.4375
1900.34335	57636.4375
1903.46544	57624.9375
1906.58551	57535.9375
1909.70353	57545.8375
1912.81953	57568.8375
1915.93349	57502.1375
1919.04543	57489.1375
1922.15534	57521.5375
1925.26322	57445.3375
1928.36908	57376.5375
1931.47292	57336.6375
1934.57473	57244.7375
1937.67453	57174.8375
1940.77232	57115.1375
1943.86808	56874.4375
1946.96184	56698.2375
1950.05358	56531.5375
1953.14331	56348.2375
1956.23103	56190.4375
1959.31675	56012.0375
1962.40046	55951.2375
1965.48217	55835.4375
1968.56188	55608.7375
1971.63959	55486.2375
1974.7153	55373.1375
1977.78901	55211.8375
1980.86073	55083.9375
1983.93046	54853.6375
1986.99819	54665.1375
1990.06394	54562.2375
1993.1277	54414.4375
1996.18947	54277.4375
1999.24925	54137.7375
2002.30706	54025.8375
2005.36288	54078.8375
2008.41672	53888.9375
2011.46859	53772.0375
2014.51848	53581.3375
2017.56639	53566.8375
2020.61233	53517.4375
2023.6563	53413.2375
2026.6983	53239.0375
2029.73833	53170.3375
2032.7764	53058.8375
2035.8125	53066.3375
2038.84664	53065.0375
2041.87881	52966.3375
2044.90903	52902.4375
2047.93729	52800.7375
2050.96359	52900.9375
2053.98794	52834.6375
2057.01034	52825.9375
2060.03078	52772.0375
2063.04927	52700.8375
2066.06582	52629.8375
2069.08042	52511.5375
2072.09307	52522.0375
2075.10378	52442.5375
2078.11255	52369.3375
2081.11938	52321.9375
2084.12426	52249.2375
2087.12722	52170.4375
2090.12824	52053.9375
2093.12732	52104.3375
2096.12447	52133.5375
2099.11969	52190.1375
2102.11299	52206.3375
2105.10435	52290.3375
2108.09379	52233.0375
2111.08131	52330.3375
2114.0669	52201.4375
2117.05057	52237.6375
2120.03233	52332.4375
2123.01216	52351.1375
2125.99008	52384.6375
2128.96609	52450.9375
2131.94018	52514.6375
2134.91236	52495.7375
2137.88263	52579.8375
2140.851	52624.2375
2143.81746	52610.9375
2146.78201	52660.6375
2149.74466	52751.0375
2152.7054	52753.6375
2155.66425	52758.2375
2158.6212	52827.9375
2161.57625	52737.9375
2164.52941	52723.3375
2167.48067	52700.2375
2170.43004	52787.6375
2173.37752	52672.4375
2176.32311	52686.8375
2179.26681	52723.1375
2182.20863	52761.6375
2185.14856	52839.4375
2188.08661	52870.7375
2191.02278	53015.1375
2193.95707	53076.8375
2196.88948	53068.7375
2199.82001	53175.0375
2202.74867	53121.3375
2205.67545	53173.8375
2208.60037	53143.5375
2211.52341	53138.4375
2214.44458	53119.2375
2217.36388	53078.0375
2220.28132	53142.0375
2223.1969	53080.2375
2226.11061	53013.4375
2229.02246	52843.9375
2231.93245	52782.1375
2234.84058	52722.1375
2237.74686	52392.5375
2240.65128	52387.9375
2243.55385	52325.3375
2246.45456	52289.1375
2249.35343	52206.8375
2252.25044	52198.5375
2255.14561	52139.0375
2258.03893	52087.0375
2260.93041	52046.6375
2263.82004	51884.2375
2266.70783	51769.0375
2269.59378	51683.2375
2272.4779	51669.9375
2275.36017	51420.4375
2278.24061	51292.4375
2281.11922	51235.6375
2283.996	51151.9375
2286.87094	51154.9375
2289.74405	51063.7375
2292.61534	51059.0375
2295.4848	51100.4375
2298.35243	51156.2375
2301.21824	51214.0375
2304.08223	51232.2375
2306.94439	51348.3375
2309.80474	51531.7375
2312.66327	51680.7375
2315.51999	51756.8375
2318.37489	51873.4375
2321.22797	51906.0375
2324.07925	51793.5375
2326.92871	51701.5375
2329.77637	51723.7375
2332.62222	51800.4375
2335.46626	51860.7375
2338.3085	51982.6375
2341.14893	52160.6375
2343.98756	52260.9375
2346.8244	52391.5375
2349.65943	52592.5375
2352.49267	52579.7375
2355.32411	52573.0375
2358.15376	52439.0375
2360.98161	52302.1375
2363.80768	52276.2375
2366.63195	52111.4375
2369.45444	51839.3375
2372.27514	51741.4375
2375.09405	51609.7375
2377.91118	51485.5375
2380.72652	51188.7375
2383.54009	51073.8375
2386.35187	51064.6375
2389.16188	51017.6375
2391.97011	50957.9375
2394.77657	50981.3375
2397.58125	50971.7375
2400.38416	50759.6375
2403.18529	50625.3375
2405.98466	50574.9375
2408.78226	50452.2375
2411.57809	50293.6375
2414.37216	50113.5375
2417.16446	50082.4375
2419.955	49853.3375
2422.74378	49905.8375
2425.5308	49879.5375
2428.31606	49761.0375
2431.09956	49827.5375
2433.88131	49718.5375
2436.6613	49805.2375
2439.43954	49817.8375
2442.21603	49874.3375
2444.99077	49742.3375
2447.76377	49763.0375
2450.53501	49664.8375
2453.30451	49729.2375
2456.07226	49670.2375
2458.83827	49543.8375
2461.60254	49616.3375
2464.36507	49613.1375
2467.12586	49693.9375
2469.88492	49661.4375
2472.64224	49628.5375
2475.39782	49632.3375
2478.15167	49766.9375
2480.90379	49916.2375
2483.65417	50104.0375
2486.40283	50204.6375
2489.14976	50402.1375
2491.89497	50376.4375
2494.63845	50486.6375
2497.3802	50373.7375
2500.12024	50427.2375
2502.85855	50400.4375
2505.59514	50380.3375
2508.33002	50277.7375
2511.06318	50221.9375
2513.79462	50180.2375
2516.52435	50107.4375
2519.25237	50057.8375
2521.97867	50009.7375
2524.70327	50023.5375
2527.42616	50026.2375
2530.14734	50078.0375
2532.86681	50009.6375
2535.58458	50039.6375
2538.30065	50100.2375
2541.01501	50221.2375
2543.72768	50176.0375
2546.43864	50249.8375
2549.14791	50055.9375
2551.85548	50095.3375
2554.56136	50022.8375
2557.26554	49934.1375
2559.96803	49886.2375
2562.66883	49859.4375
2565.36794	49833.8375
2568.06536	49803.3375
2570.7611	49728.7375
2573.45514	49692.5375
2576.14751	49734.6375
2578.83819	49754.5375
2581.52719	49805.2375
2584.21451	49897.7375
2586.90015	49975.4375
2589.58411	49971.1375
2592.2664	50066.1375
2594.94701	50002.5375
2597.62594	50117.4375
2600.30321	50080.3375
2602.9788	50073.1375
2605.65273	49979.8375
2608.32498	49975.3375
2610.99557	50042.3375
2613.66449	50242.4375
2616.33175	50274.4375
2618.99734	50316.0375
2621.66128	50360.0375
2624.32355	50494.4375
2626.98416	50741.1375
2629.64311	50871.4375
2632.30041	50841.5375
2634.95605	50810.1375
2637.61004	50725.5375
2640.26238	50673.4375
2642.91306	50567.0375
2645.56209	50376.0375
2648.20948	50261.8375
2650.85521	50140.0375
2653.4993	50097.2375
2656.14175	50028.8375
2658.78255	50162.0375
2661.42171	50157.3375
2664.05923	50426.8375
2666.6951	50465.1375
2669.32934	50525.2375
2671.96194	50496.8375
2674.59291	50633.8375
2677.22224	50522.9375
2679.84993	50497.5375
2682.476	50381.9375
2685.10043	50358.6375
2687.72324	50287.3375
2690.34441	50215.3375
2692.96396	50072.0375
2695.58188	50069.4375
2698.19818	49955.4375
2700.81285	50061.7375
2703.4259	49977.1375
2706.03733	50022.2375
2708.64714	50053.5375
2711.25533	50049.5375
2713.86191	50028.0375
2716.46687	50254.9375
2719.07021	50179.9375
2721.67194	50142.9375
2724.27206	50096.3375
2726.87057	50181.0375
2729.46747	50118.3375
2732.06276	50187.4375
2734.65644	50165.9375
2737.24852	50190.5375
2739.83899	50202.5375
2742.42786	50195.5375
2745.01513	50053.5375
2747.60079	49978.0375
2750.18486	50001.5375
2752.76733	50164.8375
2755.3482	50160.3375
2757.92747	50202.5375
2760.50515	50229.2375
2763.08123	50141.7375
2765.65573	50077.0375
2768.22863	50077.4375
2770.79994	50147.8375
2773.36967	50243.8375
2775.9378	50236.0375
2778.50435	50207.0375
2781.06932	50306.4375
2783.6327	50380.7375
2786.1945	50276.5375
2788.75471	50280.1375
2791.31335	50108.4375
2793.87041	50044.2375
2796.42589	49864.7375
2798.97979	50012.5375
2801.53212	49800.6375
2804.08288	49821.8375
2806.63206	49737.6375
2809.17967	49700.6375
2811.72571	49630.0375
2814.27018	49614.3375
2816.81308	49396.9375
2819.35442	49388.5375
2821.89419	49315.6375
2824.43239	49419.3375
2826.96904	49339.8375
2829.50412	49417.1375
2832.03763	49432.7375
2834.56959	49460.2375
2837.1	49418.7375
2839.62884	49481.8375
2842.15613	49355.3375
2844.68186	49249.5375
2847.20604	49135.1375
2849.72867	49154.7375
2852.24974	49085.2375
2854.76927	49047.3375
2857.28724	48988.7375
2859.80367	48992.6375
2862.31855	48959.5375
2864.83189	49002.4375
2867.34368	48944.1375
2869.85393	48965.1375
2872.36264	48864.7375
2874.8698	48791.5375
2877.37543	48840.9375
2879.87952	48801.2375
2882.38207	48797.4375
2884.88308	48793.8375
2887.38256	48766.3375
2889.88051	48771.6375
2892.37692	48775.6375
2894.8718	48791.7375
2897.36515	49002.6375
2899.85698	48992.0375
2902.34727	49104.9375
2904.83604	49169.4375
2907.32328	49348.0375
2909.809	49474.5375
2912.29319	49527.6375
2914.77587	49514.8375
2917.25702	49515.8375
2919.73665	49412.3375
2922.21476	49348.5375
2924.69136	49268.7375
2927.16644	49246.8375
2929.64	49073.6375
2932.11205	49037.2375
2934.58258	48853.2375
2937.05161	48867.6375
2939.51912	48813.6375
2941.98513	48841.0375
2944.44962	48797.3375
2946.91261	48662.2375
2949.37409	48775.5375
2951.83407	48702.9375
2954.29254	48740.5375
2956.74951	48712.4375
2959.20498	48751.9375
2961.65895	48548.3375
2964.11142	48574.7375
2966.56239	48514.3375
2969.01186	48507.7375
2971.45984	48334.1375
2973.90632	48244.5375
2976.35131	48118.9375
2978.7948	48018.9375
2981.23681	47834.8375
2983.67732	47737.9375
2986.11635	47626.0375
2988.55388	47587.9375
2990.98993	47425.6375
2993.4245	47277.9375
2995.85758	47221.9375
2998.28917	47064.7375
3000.71928	47046.2375
3003.14791	46912.8375
3005.57506	46805.2375
3008.00073	46550.0375
3010.42493	46513.6375
3012.84764	46400.9375
