Data from AgNPs_UA_0uM_CRN_0uM_R6G_10uM_Q_RamanShift__22__11-44-08-771.txt Node

Date: Wed Jul 13 11:44:08 BST 2022
User: TCL
Spectrometer: QEP01345
Trigger mode: 4
Integration Time (sec): 7.000000E0
Scans to average: 10
Electric dark correction enabled: true
Nonlinearity correction enabled: false
Boxcar width: 0
XAxis mode: Raman Shifts
Number of Pixels in Spectrum: 1044
>>>>>Begin Spectral Data<<<<<
46.04893	-0.225
50.45542	-0.025
54.85868	-1.725
59.25871	-1.325
63.6555	55.675
68.04907	60.975
72.43941	66.375
76.82654	67.675
81.21044	72.475
85.59113	77.075
89.96862	80.875
94.34289	82.675
98.71396	85.075
103.08183	87.975
107.4465	88.775
111.80798	90.475
116.16626	93.875
120.52136	95.675
124.87327	93.875
129.222	99.475
133.56755	102.075
137.90993	112.475
142.24913	116.375
146.58517	130.175
150.91804	144.375
155.24774	162.175
159.57429	197.575
163.89768	245.275
168.21792	315.875
172.53501	432.275
176.84895	589.075
181.15975	824.875
185.46741	1144.375
189.77193	1567.475
194.07331	2073.475
198.37157	2662.575
202.6667	3259.175
206.9587	3882.875
211.24758	4476.175
215.53334	5131.875
219.81599	5812.375
224.09553	6596.075
228.37195	7450.375
232.64527	8407.675
236.91549	9300.475
241.18261	10161.975
245.44663	10923.875
249.70755	11540.475
253.96539	12112.675
258.22014	12595.675
262.4718	12969.875
266.72039	13209.675
270.96589	13278.275
275.20832	13162.975
279.44768	12973.275
283.68397	12708.075
287.91719	12549.675
292.14735	12489.275
296.37445	12632.775
300.59849	12918.575
304.81948	13299.775
309.03742	13619.175
313.25231	13718.175
317.46415	13377.375
321.67296	12808.675
325.87872	12300.675
330.08145	12036.875
334.28114	12043.975
338.47781	12175.575
342.67145	12456.475
346.86207	12812.775
351.04966	13336.675
355.23424	13869.775
359.4158	14219.175
363.59435	14340.575
367.76989	14318.975
371.94243	14288.775
376.11196	14203.975
380.27849	14194.875
384.44203	14105.575
388.60257	14097.775
392.76012	14142.475
396.91468	14308.875
401.06626	14571.075
405.21485	14726.675
409.36047	14490.275
413.50311	13962.275
417.64277	13543.875
421.77947	13297.075
425.9132	13302.375
430.04396	13306.475
434.17176	13415.375
438.2966	13577.675
442.41849	13938.275
446.53742	14349.275
450.6534	14737.475
454.76644	14897.975
458.87653	14800.975
462.98368	14555.575
467.08789	14270.675
471.18916	13959.975
475.2875	13626.275
479.38291	13400.675
483.4754	13230.375
487.56496	13089.875
491.6516	12991.275
495.73531	12967.175
499.81612	12976.375
503.89401	13129.275
507.96899	13253.075
512.04106	13408.175
516.11023	13536.975
520.1765	13585.875
524.23987	13629.275
528.30034	13582.275
532.35792	13475.275
536.41261	13270.675
540.46441	13017.575
544.51333	12888.075
548.55936	12974.975
552.60252	13222.875
556.64279	13532.375
560.6802	13740.375
564.71473	13927.475
568.7464	14232.775
572.7752	14443.675
576.80114	14228.775
580.82422	14134.375
584.84444	14242.675
588.86181	14644.775
592.87633	15230.375
596.888	15603.775
600.89682	15697.675
604.9028	16666.075
608.90594	19767.275
612.90624	23108.475
616.90371	21202.275
620.89834	16064.875
624.89015	13868.975
628.87913	13503.975
632.86528	13621.175
636.84862	13689.175
640.82913	13418.775
644.80683	12925.375
648.78172	12662.975
652.75379	12691.975
656.72306	13070.175
660.68952	13442.875
664.65319	13236.175
668.61405	12766.875
672.57211	12615.775
676.52738	12602.175
680.47986	12576.675
684.42955	12462.075
688.37646	12362.375
692.32058	12390.575
696.26192	12519.275
700.20048	12660.175
704.13626	12755.775
708.06928	12680.475
711.99952	12599.575
715.927	12544.075
719.85171	12588.175
723.77365	12605.575
727.69284	12503.875
731.60928	12451.975
735.52295	12469.875
739.43388	12540.275
743.34206	12540.175
747.24749	12550.375
751.15017	12594.975
755.05012	12788.575
758.94733	13317.175
762.8418	14536.975
766.73354	16478.675
770.62254	18212.775
774.50882	18673.975
778.39237	17634.975
782.27321	15798.575
786.15132	14107.575
790.02671	13109.675
793.89938	12644.775
797.76935	12391.675
801.6366	12297.675
805.50115	12236.975
809.36299	12145.875
813.22213	12067.775
817.07857	12053.275
820.93231	12007.675
824.78336	12000.975
828.63172	12048.275
832.47738	12027.675
836.32036	12001.275
840.16066	11989.575
843.99827	11984.475
847.8332	11963.875
851.66546	11944.775
855.49504	11920.975
859.32195	11905.175
863.1462	11853.775
866.96777	11838.475
870.78668	11804.775
874.60293	11811.175
878.41652	11846.375
882.22745	11888.975
886.03573	11947.975
889.84136	11921.875
893.64433	11866.675
897.44466	11838.475
901.24235	11827.075
905.0374	11775.075
908.8298	11721.675
912.61957	11673.475
916.40671	11683.975
920.19121	11795.175
923.97308	11954.275
927.75233	12130.575
931.52895	12167.275
935.30295	11995.875
939.07433	11683.175
942.84309	11402.975
946.60924	11293.975
950.37278	11213.775
954.13371	11159.575
957.89203	11104.875
961.64774	11057.575
965.40086	10996.875
969.15137	10951.475
972.89929	10896.375
976.64461	10889.475
980.38733	10859.275
984.12747	10861.075
987.86502	10925.175
991.59999	10995.975
995.33237	11176.775
999.06217	11456.575
1002.78939	11735.175
1006.51404	11947.175
1010.23611	12131.175
1013.95561	12217.875
1017.67255	12207.375
1021.38692	12045.475
1025.09872	11802.675
1028.80796	11724.975
1032.51465	11809.975
1036.21877	11930.275
1039.92035	11897.875
1043.61937	11823.275
1047.31584	11680.975
1051.00976	11589.975
1054.70114	11504.275
1058.38998	11499.775
1062.07627	11533.675
1065.76003	11554.775
1069.44126	11588.475
1073.11995	11712.775
1076.79611	11875.075
1080.46974	12112.075
1084.14085	12390.775
1087.80943	12691.475
1091.47549	12704.675
1095.13903	12470.375
1098.80005	12106.475
1102.45857	11825.875
1106.11456	11723.075
1109.76805	11755.975
1113.41903	11951.175
1117.06751	12257.975
1120.71348	12623.275
1124.35696	13098.875
1127.99793	13452.575
1131.63641	13288.775
1135.2724	12821.775
1138.90589	12344.875
1142.5369	12081.575
1146.16542	11905.275
1149.79145	11849.175
1153.415	11849.775
1157.03607	11949.775
1160.65467	12188.075
1164.27079	12651.775
1167.88443	13394.775
1171.49561	14477.375
1175.10432	16151.075
1178.71056	18233.375
1182.31434	19791.775
1185.91565	20247.075
1189.51451	19567.475
1193.11091	18413.775
1196.70485	17191.975
1200.29634	16194.375
1203.88538	15299.975
1207.47197	14470.375
1211.05612	13847.375
1214.63782	13539.775
1218.21708	13431.575
1221.79391	13562.975
1225.36829	13706.675
1228.94024	13666.175
1232.50976	13381.575
1236.07685	13171.575
1239.6415	13076.175
1243.20374	13044.375
1246.76355	13040.875
1250.32093	13214.475
1253.8759	13417.875
1257.42845	13812.875
1260.97859	14259.775
1264.52631	14774.375
1268.07163	15280.375
1271.61453	15724.275
1275.15503	16092.475
1278.69312	16320.875
1282.22882	16534.275
1285.76211	16954.675
1289.29301	17446.375
1292.82151	18077.575
1296.34761	18804.475
1299.87133	19853.775
1303.39266	21445.775
1306.9116	23758.775
1310.42815	26403.375
1313.94233	28023.375
1317.45412	27642.175
1320.96354	25779.975
1324.47058	23697.375
1327.97525	21852.375
1331.47754	20633.275
1334.97747	19977.575
1338.47502	19809.875
1341.97022	20046.675
1345.46305	20622.075
1348.95352	21630.075
1352.44163	22950.275
1355.92738	24973.475
1359.41078	28005.375
1362.89183	30815.475
1366.37053	29944.175
1369.84688	25627.675
1373.32088	21156.575
1376.79254	18377.975
1380.26186	17095.575
1383.72883	16510.775
1387.19347	16005.375
1390.65578	15474.075
1394.11575	15211.575
1397.57339	15245.675
1401.0287	15464.575
1404.48168	15658.875
1407.93234	15694.875
1411.38068	15575.075
1414.82669	15385.775
1418.27039	14987.975
1421.71177	14635.375
1425.15083	14327.875
1428.58758	14225.175
1432.02203	14464.475
1435.45416	14767.975
1438.88399	14998.875
1442.31151	15101.975
1445.73673	15151.375
1449.15965	15246.175
1452.58027	15156.675
1455.9986	15041.575
1459.41463	15062.975
1462.82837	15330.975
1466.23982	15729.875
1469.64898	16043.275
1473.05586	16217.975
1476.46045	16266.275
1479.86276	16322.875
1483.26279	16392.875
1486.66054	16523.075
1490.05602	16900.475
1493.44922	17499.375
1496.84016	18381.475
1500.22882	19771.075
1503.61521	21791.075
1506.99934	24188.475
1510.38121	26295.375
1513.76081	26946.675
1517.13816	25409.475
1520.51324	22436.075
1523.88607	19666.475
1527.25665	17921.775
1530.62498	16956.575
1533.99105	16370.275
1537.35488	15963.475
1540.71647	15632.175
1544.07581	15368.075
1547.4329	15166.775
1550.78776	15042.275
1554.14038	14943.175
1557.49077	15028.975
1560.83892	15193.675
1564.18484	15521.675
1567.52853	15995.375
1570.86999	16339.175
1574.20922	16589.275
1577.54624	16481.575
1580.88103	15833.775
1584.2136	14977.475
1587.54395	14700.075
1590.87208	15103.475
1594.19801	16214.275
1597.52172	17597.575
1600.84321	18211.575
1604.16251	17493.575
1607.47959	16170.175
1610.79447	14756.875
1614.10715	13491.975
1617.41763	12468.875
1620.7259	11806.675
1624.03199	11484.875
1627.33587	11532.175
1630.63757	11906.875
1633.93707	12724.975
1637.23439	14120.575
1640.52951	16266.975
1643.82246	18931.575
1647.11321	21359.675
1650.40179	22261.175
1653.68819	20793.275
1656.97241	17608.975
1660.25446	14485.775
1663.53433	12310.775
1666.81203	10961.175
1670.08756	10186.775
1673.36092	9726.375
1676.63211	9420.975
1679.90115	9185.675
1683.16801	9030.175
1686.43272	8900.775
1689.69527	8823.075
1692.95567	8766.075
1696.2139	8727.875
1699.46999	8694.075
1702.72392	8641.475
1705.97571	8629.175
1709.22535	8608.175
1712.47284	8584.175
1715.71819	8605.375
1718.96139	8591.975
1722.20246	8549.575
1725.44139	8531.075
1728.67818	8467.475
1731.91284	8389.575
1735.14537	8322.775
1738.37576	8295.375
1741.60403	8252.375
1744.83017	8223.875
1748.05418	8191.275
1751.27607	8171.075
1754.49584	8135.675
1757.71349	8139.975
1760.92903	8109.575
1764.14244	8092.675
1767.35375	8074.275
1770.56294	8064.875
1773.77002	8040.175
1776.97499	8029.175
1780.17785	8007.375
1783.37861	7971.175
1786.57727	7930.875
1789.77382	7909.075
1792.96828	7923.175
1796.16064	7888.875
1799.3509	7885.075
1802.53907	7859.475
1805.72514	7833.575
1808.90913	7836.675
1812.09102	7790.775
1815.27083	7762.575
1818.44856	7750.675
1821.6242	7725.375
1824.79776	7694.275
1827.96924	7684.275
1831.13864	7717.775
1834.30597	7663.575
1837.47122	7652.075
1840.6344	7647.775
1843.7955	7658.775
1846.95454	7654.775
1850.11151	7641.975
1853.26642	7629.275
1856.41926	7623.975
1859.57004	7611.475
1862.71876	7606.575
1865.86542	7612.575
1869.01003	7588.675
1872.15258	7589.875
1875.29308	7578.075
1878.43152	7561.775
1881.56792	7532.875
1884.70227	7556.275
1887.83457	7553.075
1890.96482	7527.075
1894.09304	7514.975
1897.21921	7518.875
1900.34335	7511.175
1903.46544	7518.075
1906.58551	7502.775
1909.70353	7486.975
1912.81953	7500.275
1915.93349	7501.475
1919.04543	7456.775
1922.15534	7430.675
1925.26322	7417.375
1928.36908	7378.275
1931.47292	7355.775
1934.57473	7347.875
1937.67453	7278.275
1940.77232	7284.875
1943.86808	7238.775
1946.96184	7235.575
1950.05358	7204.475
1953.14331	7188.075
1956.23103	7171.675
1959.31675	7154.475
1962.40046	7131.575
1965.48217	7125.175
1968.56188	7102.875
1971.63959	7082.775
1974.7153	7046.775
1977.78901	7031.775
1980.86073	7016.275
1983.93046	6983.275
1986.99819	6939.375
1990.06394	6898.475
1993.1277	6875.275
1996.18947	6858.475
1999.24925	6844.375
2002.30706	6830.775
2005.36288	6800.975
2008.41672	6794.275
2011.46859	6739.675
2014.51848	6738.175
2017.56639	6720.075
2020.61233	6717.275
2023.6563	6702.275
2026.6983	6666.075
2029.73833	6640.675
2032.7764	6640.475
2035.8125	6630.475
2038.84664	6624.875
2041.87881	6621.275
2044.90903	6597.075
2047.93729	6589.675
2050.96359	6582.275
2053.98794	6553.075
2057.01034	6558.975
2060.03078	6545.775
2063.04927	6528.075
2066.06582	6538.875
2069.08042	6525.475
2072.09307	6515.775
2075.10378	6494.575
2078.11255	6485.275
2081.11938	6501.475
2084.12426	6488.675
2087.12722	6492.275
2090.12824	6491.075
2093.12732	6496.275
2096.12447	6499.375
2099.11969	6483.575
2102.11299	6487.575
2105.10435	6480.375
2108.09379	6488.875
2111.08131	6480.975
2114.0669	6485.375
2117.05057	6499.975
2120.03233	6473.675
2123.01216	6507.675
2125.99008	6514.775
2128.96609	6523.075
2131.94018	6511.775
2134.91236	6514.275
2137.88263	6517.775
2140.851	6536.575
2143.81746	6507.575
2146.78201	6497.475
2149.74466	6501.875
2152.7054	6498.075
2155.66425	6487.875
2158.6212	6509.475
2161.57625	6477.675
2164.52941	6464.675
2167.48067	6487.875
2170.43004	6463.675
2173.37752	6456.075
2176.32311	6486.775
2179.26681	6493.175
2182.20863	6497.675
2185.14856	6486.175
2188.08661	6474.075
2191.02278	6471.375
2193.95707	6481.975
2196.88948	6472.175
2199.82001	6470.375
2202.74867	6451.475
2205.67545	6443.075
2208.60037	6441.175
2211.52341	6414.575
2214.44458	6412.675
2217.36388	6399.375
2220.28132	6397.075
2223.1969	6371.775
2226.11061	6375.975
2229.02246	6364.675
2231.93245	6360.575
2234.84058	6335.375
2237.74686	6321.075
2240.65128	6314.375
2243.55385	6320.475
2246.45456	6317.175
2249.35343	6304.675
2252.25044	6288.075
2255.14561	6278.875
2258.03893	6276.275
2260.93041	6296.475
2263.82004	6266.775
2266.70783	6244.875
2269.59378	6235.475
2272.4779	6204.375
2275.36017	6210.275
2278.24061	6193.175
2281.11922	6167.475
2283.996	6163.175
2286.87094	6150.375
2289.74405	6134.575
2292.61534	6133.475
2295.4848	6119.475
2298.35243	6119.775
2301.21824	6113.175
2304.08223	6114.575
2306.94439	6115.575
2309.80474	6130.275
2312.66327	6125.475
2315.51999	6113.575
2318.37489	6108.375
2321.22797	6097.375
2324.07925	6109.875
2326.92871	6113.375
2329.77637	6078.775
2332.62222	6085.975
2335.46626	6051.775
2338.3085	6072.575
2341.14893	6037.375
2343.98756	6059.675
2346.8244	6063.975
2349.65943	6075.975
2352.49267	6091.475
2355.32411	6105.975
2358.15376	6098.475
2360.98161	6099.975
2363.80768	6085.275
2366.63195	6084.075
2369.45444	6085.275
2372.27514	6089.275
2375.09405	6072.375
2377.91118	6053.075
2380.72652	6034.775
2383.54009	6025.775
2386.35187	5999.775
2389.16188	5966.275
2391.97011	5951.275
2394.77657	5939.175
2397.58125	5947.475
2400.38416	5928.275
2403.18529	5905.975
2405.98466	5929.775
2408.78226	5894.875
2411.57809	5886.475
2414.37216	5852.775
2417.16446	5849.575
2419.955	5871.075
2422.74378	5866.275
2425.5308	5881.275
2428.31606	5850.775
2431.09956	5855.775
2433.88131	5857.875
2436.6613	5839.575
2439.43954	5867.875
2442.21603	5850.575
2444.99077	5853.875
2447.76377	5851.475
2450.53501	5867.375
2453.30451	5869.875
2456.07226	5857.575
2458.83827	5837.675
2461.60254	5843.375
2464.36507	5853.275
2467.12586	5840.175
2469.88492	5850.575
2472.64224	5842.875
2475.39782	5841.875
2478.15167	5857.875
2480.90379	5863.675
2483.65417	5865.775
2486.40283	5870.575
2489.14976	5892.675
2491.89497	5878.275
2494.63845	5892.875
2497.3802	5884.575
2500.12024	5886.975
2502.85855	5889.075
2505.59514	5879.075
2508.33002	5846.375
2511.06318	5860.975
2513.79462	5821.175
2516.52435	5789.075
2519.25237	5783.075
2521.97867	5783.075
2524.70327	5761.975
2527.42616	5761.575
2530.14734	5747.175
2532.86681	5730.175
2535.58458	5740.975
2538.30065	5748.675
2541.01501	5754.275
2543.72768	5754.875
2546.43864	5746.875
2549.14791	5750.175
2551.85548	5752.775
2554.56136	5735.775
2557.26554	5739.975
2559.96803	5728.775
2562.66883	5719.975
2565.36794	5731.275
2568.06536	5725.675
2570.7611	5696.775
2573.45514	5709.975
2576.14751	5698.075
2578.83819	5681.075
2581.52719	5690.875
2584.21451	5667.275
2586.90015	5677.675
2589.58411	5673.875
2592.2664	5670.175
2594.94701	5654.975
2597.62594	5668.575
2600.30321	5644.975
2602.9788	5662.375
2605.65273	5661.175
2608.32498	5640.175
2610.99557	5650.575
2613.66449	5643.975
2616.33175	5636.075
2618.99734	5644.275
2621.66128	5638.975
2624.32355	5653.075
2626.98416	5648.775
2629.64311	5626.375
2632.30041	5633.675
2634.95605	5641.575
2637.61004	5617.075
2640.26238	5602.375
2642.91306	5579.075
2645.56209	5593.775
2648.20948	5560.675
2650.85521	5573.675
2653.4993	5568.975
2656.14175	5580.975
2658.78255	5612.875
2661.42171	5607.275
2664.05923	5595.075
2666.6951	5607.475
2669.32934	5597.275
2671.96194	5596.475
2674.59291	5623.175
2677.22224	5626.275
2679.84993	5614.175
2682.476	5618.675
2685.10043	5613.775
2687.72324	5585.775
2690.34441	5594.975
2692.96396	5576.975
2695.58188	5595.975
2698.19818	5582.175
2700.81285	5586.975
2703.4259	5583.575
2706.03733	5577.275
2708.64714	5593.175
2711.25533	5588.975
2713.86191	5588.475
2716.46687	5616.275
2719.07021	5622.075
2721.67194	5635.875
2724.27206	5614.675
2726.87057	5623.675
2729.46747	5628.575
2732.06276	5625.875
2734.65644	5603.575
2737.24852	5620.175
2739.83899	5608.875
2742.42786	5613.575
2745.01513	5616.275
2747.60079	5613.975
2750.18486	5603.175
2752.76733	5593.075
2755.3482	5576.575
2757.92747	5568.275
2760.50515	5558.575
2763.08123	5571.075
2765.65573	5544.675
2768.22863	5541.375
2770.79994	5555.075
2773.36967	5553.675
2775.9378	5570.575
2778.50435	5550.675
2781.06932	5541.575
2783.6327	5559.975
2786.1945	5556.575
2788.75471	5531.875
2791.31335	5543.375
2793.87041	5541.075
2796.42589	5530.275
2798.97979	5522.275
2801.53212	5521.275
2804.08288	5481.075
2806.63206	5492.875
2809.17967	5473.275
2811.72571	5481.575
2814.27018	5470.575
2816.81308	5463.375
2819.35442	5459.375
2821.89419	5447.775
2824.43239	5466.075
2826.96904	5465.075
2829.50412	5450.175
2832.03763	5435.375
2834.56959	5450.575
2837.1	5450.475
2839.62884	5452.675
2842.15613	5464.175
2844.68186	5480.375
2847.20604	5465.075
2849.72867	5479.475
2852.24974	5457.475
2854.76927	5479.375
2857.28724	5488.475
2859.80367	5482.075
2862.31855	5463.675
2864.83189	5479.775
2867.34368	5473.075
2869.85393	5465.575
2872.36264	5459.075
2874.8698	5473.775
2877.37543	5463.275
2879.87952	5453.075
2882.38207	5461.375
2884.88308	5447.875
2887.38256	5453.075
2889.88051	5428.375
2892.37692	5455.275
2894.8718	5444.075
2897.36515	5463.975
2899.85698	5455.975
2902.34727	5479.075
2904.83604	5488.275
2907.32328	5499.375
2909.809	5496.375
2912.29319	5516.175
2914.77587	5513.775
2917.25702	5523.175
2919.73665	5499.075
2922.21476	5506.575
2924.69136	5489.175
2927.16644	5457.775
2929.64	5471.275
2932.11205	5452.875
2934.58258	5438.675
2937.05161	5431.975
2939.51912	5447.175
2941.98513	5417.975
2944.44962	5419.175
2946.91261	5387.275
2949.37409	5403.575
2951.83407	5394.975
2954.29254	5403.275
2956.74951	5388.275
2959.20498	5379.275
2961.65895	5396.775
2964.11142	5391.075
2966.56239	5375.575
2969.01186	5380.175
2971.45984	5350.575
2973.90632	5352.675
2976.35131	5354.875
2978.7948	5332.275
2981.23681	5325.775
2983.67732	5317.375
2986.11635	5289.475
2988.55388	5272.875
2990.98993	5268.175
2993.4245	5248.475
2995.85758	5244.975
2998.28917	5235.875
3000.71928	5239.075
3003.14791	5226.475
3005.57506	5224.975
3008.00073	5203.375
3010.42493	5213.375
3012.84764	5210.275
3015.26888	5205.675
3017.68865	5185.175
3020.10694	5178.075
3022.52376	5170.875
3024.9391	5181.175
3027.35298	5147.675
3029.76539	5167.275
3032.17632	5173.075
3034.5858	5141.975
3036.9938	5130.275
3039.40034	5124.175
3041.80542	5111.775
3044.20903	5099.575
3046.61118	5113.275
3049.01187	5094.775
3051.4111	5094.775
3053.80888	5109.575
3056.20519	5081.175
3058.60005	5071.975
3060.99345	5065.575
3063.3854	5057.175
3065.7759	5054.975
3068.16494	5036.375
3070.55254	5015.675
3072.93868	5004.175
3075.32338	4997.375
3077.70662	4991.375
3080.08842	4987.575
3082.46878	4991.075
3084.84769	4990.075
3087.22515	4979.675
3089.60118	4976.975
3091.97576	4992.375
3094.3489	4982.975
3096.72061	4981.175
3099.09087	4984.575
3101.4597	4971.275
3103.82709	4991.075
3106.19305	4985.675
3108.55757	4974.275
3110.92066	4965.575
3113.28232	4967.175
3115.64255	4979.675
3118.00134	4956.675
3120.35871	4954.075
3122.71466	4949.475
3125.06917	4942.575
3127.42226	4950.975
3129.77393	4951.575
3132.12417	4933.575
3134.47299	4917.175
3136.82039	4935.275
3139.16636	4926.275
3141.51092	4949.275
3143.85406	4941.275
3146.19579	4944.875
3148.53609	4936.275
3150.87499	4964.375
3153.21246	4966.575
3155.54853	4973.175
3157.88318	4973.675
3160.21642	4993.375
3162.54826	5001.175
3164.87868	4988.075
3167.2077	4991.675
3169.5353	4995.675
3171.86151	4985.275
3174.18631	5000.775
3176.5097	5013.875
3178.83169	5004.975
3181.15228	4988.275
3183.47147	5005.175
3185.78926	4986.675
3188.10565	4986.975
3190.42065	4981.575
3192.73424	4983.775
