Data from AgNPs_UA_1uM_CRN_0uM_R6G_10uM_Q_RamanShift__14__12-27-05-881.txt Node

Date: Wed Jul 13 12:27:05 BST 2022
User: TCL
Spectrometer: QEP01345
Trigger mode: 4
Integration Time (sec): 7.000000E0
Scans to average: 10
Electric dark correction enabled: true
Nonlinearity correction enabled: false
Boxcar width: 0
XAxis mode: Raman Shifts
Number of Pixels in Spectrum: 1044
>>>>>Begin Spectral Data<<<<<
46.04893	-1.05
50.45542	-2.55
54.85868	-1.35
59.25871	-0.45
63.6555	121.05
68.04907	127.85
72.43941	130.85
76.82654	140.35
81.21044	144.95
85.59113	145.65
89.96862	150.75
94.34289	159.05
98.71396	161.75
103.08183	165.65
107.4465	170.55
111.80798	175.35
116.16626	179.25
120.52136	189.45
124.87327	197.05
129.222	210.95
133.56755	219.05
137.90993	236.85
142.24913	263.05
146.58517	293.75
150.91804	334.05
155.24774	398.85
159.57429	492.45
163.89768	631.35
168.21792	834.95
172.53501	1138.85
176.84895	1589.65
181.15975	2224.55
185.46741	3134.65
189.77193	4334.95
194.07331	5790.75
198.37157	7487.25
202.6667	9250.55
206.9587	10988.95
211.24758	12676.15
215.53334	14421.75
219.81599	16215.15
224.09553	18211.25
228.37195	20397.65
232.64527	22744.55
236.91549	25197.95
241.18261	27771.95
245.44663	30180.35
249.70755	32317.75
253.96539	34306.35
258.22014	35967.65
262.4718	37328.15
266.72039	38160.15
270.96589	38549.45
275.20832	38620.55
279.44768	38342.85
283.68397	37954.55
287.91719	37621.55
292.14735	37385.55
296.37445	37305.85
300.59849	37357.55
304.81948	37552.35
309.03742	37757.65
313.25231	37764.95
317.46415	37531.35
321.67296	37028.25
325.87872	36637.75
330.08145	36517.65
334.28114	36693.85
338.47781	37091.75
342.67145	37596.65
346.86207	38242.35
351.04966	39016.25
355.23424	39680.05
359.4158	40341.85
363.59435	40782.55
367.76989	41139.55
371.94243	41397.85
376.11196	41575.15
380.27849	41718.65
384.44203	41964.05
388.60257	42255.95
392.76012	42583.65
396.91468	43139.65
401.06626	43700.25
405.21485	44024.25
409.36047	43894.95
413.50311	43535.45
417.64277	43311.25
421.77947	43333.75
425.9132	43469.55
430.04396	43695.95
434.17176	43903.05
438.2966	44265.95
442.41849	44717.25
446.53742	45241.35
450.6534	45833.25
454.76644	46300.85
458.87653	46626.95
462.98368	46729.25
467.08789	46751.55
471.18916	46561.75
475.2875	46329.55
479.38291	46073.35
483.4754	45915.55
487.56496	45854.25
491.6516	45864.15
495.73531	45880.85
499.81612	45850.65
503.89401	46106.35
507.96899	46367.95
512.04106	46477.15
516.11023	46570.35
520.1765	46602.35
524.23987	46616.75
528.30034	46546.85
532.35792	46474.55
536.41261	46329.15
540.46441	46082.25
544.51333	46182.85
548.55936	46409.95
552.60252	46800.75
556.64279	47316.45
560.6802	47693.05
564.71473	48002.75
568.7464	48452.45
572.7752	48902.25
576.80114	49296.85
580.82422	49758.85
584.84444	50233.35
588.86181	50756.35
592.87633	51191.25
596.888	51513.15
600.89682	51729.85
604.9028	52947.55
608.90594	56316.35
612.90624	59471.65
616.90371	56792.65
620.89834	51408.25
624.89015	49243.15
628.87913	49044.55
632.86528	49438.75
636.84862	49659.25
640.82913	49402.35
644.80683	48788.65
648.78172	48541.85
652.75379	48590.15
656.72306	49117.45
660.68952	49713.45
664.65319	49574.75
668.61405	49296.65
672.57211	49363.35
676.52738	49476.35
680.47986	49416.55
684.42955	49268.85
688.37646	49194.75
692.32058	49392.95
696.26192	49837.05
700.20048	50280.95
704.13626	50584.65
708.06928	50645.85
711.99952	50568.05
715.927	50422.55
719.85171	50484.35
723.77365	50434.95
727.69284	50276.15
731.60928	50123.15
735.52295	50089.45
739.43388	50151.75
743.34206	50293.05
747.24749	50519.15
751.15017	50667.35
755.05012	51114.65
758.94733	51853.65
762.8418	53472.35
766.73354	55868.65
770.62254	57756.85
774.50882	58025.25
778.39237	56877.05
782.27321	55093.45
786.15132	53376.85
790.02671	52127.75
793.89938	51469.45
797.76935	51170.15
801.6366	51040.75
805.50115	50949.75
809.36299	50869.65
813.22213	50894.45
817.07857	50886.75
820.93231	50967.95
824.78336	51003.45
828.63172	51057.05
832.47738	51042.35
836.32036	51050.05
840.16066	51084.65
843.99827	51163.95
847.8332	51255.75
851.66546	51286.35
855.49504	51451.95
859.32195	51462.05
863.1462	51500.95
866.96777	51596.45
870.78668	51596.05
874.60293	51781.05
878.41652	51904.65
882.22745	52134.25
886.03573	52225.25
889.84136	52257.65
893.64433	52284.35
897.44466	52275.35
901.24235	52194.35
905.0374	52074.45
908.8298	52021.55
912.61957	51975.45
916.40671	52082.95
920.19121	52285.55
923.97308	52560.15
927.75233	52680.65
931.52895	52627.65
935.30295	52310.55
939.07433	51910.65
942.84309	51622.75
946.60924	51506.55
950.37278	51463.95
954.13371	51433.55
957.89203	51386.65
961.64774	51320.85
965.40086	51244.65
969.15137	51182.25
972.89929	51151.65
976.64461	51129.85
980.38733	51090.55
984.12747	51219.55
987.86502	51339.25
991.59999	51390.75
995.33237	51538.95
999.06217	51886.75
1002.78939	52186.85
1006.51404	52700.45
1010.23611	53135.35
1013.95561	53345.85
1017.67255	53428.65
1021.38692	53212.95
1025.09872	52948.85
1028.80796	52698.65
1032.51465	52624.35
1036.21877	52595.75
1039.92035	52627.55
1043.61937	52755.45
1047.31584	52900.45
1051.00976	53054.65
1054.70114	53218.35
1058.38998	53363.25
1062.07627	53627.05
1065.76003	53848.75
1069.44126	54193.85
1073.11995	54847.85
1076.79611	55480.45
1080.46974	55840.55
1084.14085	56019.85
1087.80943	56240.55
1091.47549	56323.35
1095.13903	56283.55
1098.80005	55991.75
1102.45857	55772.05
1106.11456	55413.85
1109.76805	55039.15
1113.41903	54859.45
1117.06751	55036.65
1120.71348	55302.65
1124.35696	55815.85
1127.99793	56200.75
1131.63641	56075.55
1135.2724	55603.75
1138.90589	55266.25
1142.5369	55096.05
1146.16542	54900.65
1149.79145	54826.75
1153.415	54840.15
1157.03607	54864.75
1160.65467	55178.15
1164.27079	55833.45
1167.88443	56698.75
1171.49561	58070.15
1175.10432	59925.55
1178.71056	62285.75
1182.31434	64078.75
1185.91565	64892.85
1189.51451	64845.75
1193.11091	64304.05
1196.70485	63419.35
1200.29634	62404.75
1203.88538	61493.75
1207.47197	60476.95
1211.05612	59715.45
1214.63782	58950.15
1218.21708	58265.45
1221.79391	57756.25
1225.36829	57432.75
1228.94024	57301.25
1232.50976	57198.75
1236.07685	57206.05
1239.6415	57166.85
1243.20374	57258.95
1246.76355	57404.45
1250.32093	57634.95
1253.8759	57962.95
1257.42845	58697.75
1260.97859	59614.75
1264.52631	60408.65
1268.07163	61085.25
1271.61453	61602.95
1275.15503	62024.25
1278.69312	62399.85
1282.22882	62747.35
1285.76211	63267.75
1289.29301	64042.05
1292.82151	64840.35
1296.34761	65737.55
1299.87133	67053.45
1303.39266	68698.55
1306.9116	70961.05
1310.42815	73204.75
1313.94233	74061.15
1317.45412	73299.45
1320.96354	71835.65
1324.47058	70647.25
1327.97525	69592.85
1331.47754	68877.05
1334.97747	68619.95
1338.47502	68761.55
1341.97022	69489.85
1345.46305	70685.95
1348.95352	72146.15
1352.44163	73313.75
1355.92738	74365.35
1359.41078	75998.35
1362.89183	77529.05
1366.37053	76038.95
1369.84688	71638.75
1373.32088	66985.15
1376.79254	63895.35
1380.26186	62329.85
1383.72883	61456.65
1387.19347	60742.35
1390.65578	59929.65
1394.11575	59274.15
1397.57339	58903.15
1401.0287	58612.25
1404.48168	58507.35
1407.93234	58459.85
1411.38068	58243.75
1414.82669	57936.55
1418.27039	57548.15
1421.71177	57035.25
1425.15083	56601.35
1428.58758	56355.55
1432.02203	56566.55
1435.45416	56887.75
1438.88399	57220.45
1442.31151	57390.55
1445.73673	57484.85
1449.15965	57540.25
1452.58027	57609.75
1455.9986	57610.25
1459.41463	57787.95
1462.82837	58266.75
1466.23982	58819.45
1469.64898	59307.85
1473.05586	59721.35
1476.46045	59953.45
1479.86276	60163.15
1483.26279	60496.25
1486.66054	60853.65
1490.05602	61544.35
1493.44922	62518.65
1496.84016	64042.95
1500.22882	66193.15
1503.61521	68952.35
1506.99934	71611.15
1510.38121	73434.35
1513.76081	73236.75
1517.13816	71017.25
1520.51324	67938.65
1523.88607	65348.05
1527.25665	63829.25
1530.62498	62955.25
1533.99105	62468.05
1537.35488	62035.05
1540.71647	61460.55
1544.07581	60946.85
1547.4329	60493.45
1550.78776	60187.85
1554.14038	59869.95
1557.49077	59854.05
1560.83892	60035.45
1564.18484	60393.55
1567.52853	60929.25
1570.86999	61355.65
1574.20922	61696.15
1577.54624	61660.45
1580.88103	60851.85
1584.2136	59878.85
1587.54395	59622.65
1590.87208	60124.95
1594.19801	61243.45
1597.52172	62572.65
1600.84321	62888.45
1604.16251	62137.55
1607.47959	61071.05
1610.79447	59664.95
1614.10715	57904.95
1617.41763	56207.85
1620.7259	54979.75
1624.03199	54217.55
1627.33587	54105.95
1630.63757	54391.75
1633.93707	55312.65
1637.23439	57116.15
1640.52951	59989.55
1643.82246	63516.45
1647.11321	66713.35
1650.40179	68100.05
1653.68819	66336.85
1656.97241	62384.05
1660.25446	58137.75
1663.53433	55060.45
1666.81203	53081.65
1670.08756	51805.15
1673.36092	51061.75
1676.63211	50540.85
1679.90115	50144.85
1683.16801	49828.45
1686.43272	49581.15
1689.69527	49435.75
1692.95567	49271.85
1696.2139	49192.45
1699.46999	49115.55
1702.72392	49064.05
1705.97571	49094.85
1709.22535	49115.15
1712.47284	49115.35
1715.71819	49142.55
1718.96139	49071.05
1722.20246	48945.55
1725.44139	48855.55
1728.67818	48769.45
1731.91284	48639.45
1735.14537	48547.05
1738.37576	48423.75
1741.60403	48303.95
1744.83017	48266.05
1748.05418	48185.35
1751.27607	48059.45
1754.49584	48019.95
1757.71349	48020.95
1760.92903	47941.45
1764.14244	47845.95
1767.35375	47900.85
1770.56294	47853.25
1773.77002	47818.05
1776.97499	47848.45
1780.17785	47793.85
1783.37861	47731.15
1786.57727	47556.15
1789.77382	47522.75
1792.96828	47471.45
1796.16064	47427.45
1799.3509	47419.45
1802.53907	47394.05
1805.72514	47264.25
1808.90913	47183.65
1812.09102	47177.85
1815.27083	46965.85
1818.44856	46886.95
1821.6242	46808.55
1824.79776	46755.45
1827.96924	46734.05
1831.13864	46722.25
1834.30597	46671.45
1837.47122	46580.35
1840.6344	46475.55
1843.7955	46550.25
1846.95454	46447.45
1850.11151	46444.05
1853.26642	46400.55
1856.41926	46320.75
1859.57004	46331.05
1862.71876	46356.25
1865.86542	46347.95
1869.01003	46305.05
1872.15258	46198.05
1875.29308	46197.75
1878.43152	46075.95
1881.56792	46032.15
1884.70227	45936.25
1887.83457	45899.15
1890.96482	45858.75
1894.09304	45797.35
1897.21921	45730.65
1900.34335	45681.55
1903.46544	45656.05
1906.58551	45577.95
1909.70353	45553.25
1912.81953	45530.05
1915.93349	45498.35
1919.04543	45384.45
1922.15534	45357.55
1925.26322	45227.75
1928.36908	45130.85
1931.47292	45035.05
1934.57473	44950.75
1937.67453	44823.95
1940.77232	44738.45
1943.86808	44646.65
1946.96184	44602.75
1950.05358	44397.45
1953.14331	44295.05
1956.23103	44225.45
1959.31675	44095.05
1962.40046	43930.65
1965.48217	43834.15
1968.56188	43663.75
1971.63959	43556.35
1974.7153	43411.45
1977.78901	43389.55
1980.86073	43245.25
1983.93046	43136.45
1986.99819	42944.75
1990.06394	42836.15
1993.1277	42690.35
1996.18947	42538.45
1999.24925	42540.45
2002.30706	42387.95
2005.36288	42181.65
2008.41672	42119.45
2011.46859	41988.35
2014.51848	41857.85
2017.56639	41779.65
2020.61233	41681.45
2023.6563	41565.45
2026.6983	41375.95
2029.73833	41334.85
2032.7764	41176.05
2035.8125	41128.45
2038.84664	40995.55
2041.87881	40953.85
2044.90903	40917.65
2047.93729	40748.45
2050.96359	40757.15
2053.98794	40648.15
2057.01034	40656.95
2060.03078	40656.35
2063.04927	40563.85
2066.06582	40623.35
2069.08042	40527.45
2072.09307	40536.35
2075.10378	40427.45
2078.11255	40412.75
2081.11938	40413.35
2084.12426	40382.45
2087.12722	40364.85
2090.12824	40323.75
2093.12732	40308.95
2096.12447	40354.25
2099.11969	40376.75
2102.11299	40319.75
2105.10435	40367.15
2108.09379	40388.85
2111.08131	40392.25
2114.0669	40416.15
2117.05057	40451.55
2120.03233	40518.45
2123.01216	40605.45
2125.99008	40579.95
2128.96609	40598.25
2131.94018	40630.45
2134.91236	40651.45
2137.88263	40669.85
2140.851	40747.55
2143.81746	40738.25
2146.78201	40762.55
2149.74466	40764.75
2152.7054	40789.05
2155.66425	40748.65
2158.6212	40736.65
2161.57625	40651.95
2164.52941	40697.35
2167.48067	40679.95
2170.43004	40653.45
2173.37752	40641.35
2176.32311	40703.55
2179.26681	40736.35
2182.20863	40662.35
2185.14856	40741.75
2188.08661	40635.95
2191.02278	40621.25
2193.95707	40619.75
2196.88948	40593.35
2199.82001	40557.15
2202.74867	40481.25
2205.67545	40414.35
2208.60037	40375.75
2211.52341	40259.75
2214.44458	40226.25
2217.36388	40143.05
2220.28132	40070.65
2223.1969	39968.85
2226.11061	39884.35
2229.02246	39826.85
2231.93245	39720.75
2234.84058	39687.25
2237.74686	39662.05
2240.65128	39614.65
2243.55385	39562.15
2246.45456	39560.75
2249.35343	39469.35
2252.25044	39459.75
2255.14561	39349.15
2258.03893	39290.65
2260.93041	39235.55
2263.82004	39068.05
2266.70783	39042.45
2269.59378	38964.95
2272.4779	38885.25
2275.36017	38737.65
2278.24061	38633.15
2281.11922	38589.05
2283.996	38523.75
2286.87094	38485.65
2289.74405	38358.65
2292.61534	38336.45
2295.4848	38237.85
2298.35243	38255.85
2301.21824	38221.15
2304.08223	38139.85
2306.94439	38180.95
2309.80474	38192.25
2312.66327	38161.75
2315.51999	38077.35
2318.37489	37983.65
2321.22797	37911.45
2324.07925	37911.25
2326.92871	37830.55
2329.77637	37773.35
2332.62222	37695.05
2335.46626	37615.05
2338.3085	37547.95
2341.14893	37424.25
2343.98756	37394.65
2346.8244	37354.35
2349.65943	37307.45
2352.49267	37320.15
2355.32411	37364.55
2358.15376	37353.55
2360.98161	37278.85
2363.80768	37218.25
2366.63195	37216.75
2369.45444	37235.85
2372.27514	37166.15
2375.09405	37162.45
2377.91118	37033.65
2380.72652	36990.05
2383.54009	36919.45
2386.35187	36797.85
2389.16188	36698.55
2391.97011	36639.75
2394.77657	36590.65
2397.58125	36468.35
2400.38416	36413.35
2403.18529	36330.35
2405.98466	36331.25
2408.78226	36274.55
2411.57809	36230.55
2414.37216	36117.25
2417.16446	36213.35
2419.955	36091.45
2422.74378	36096.85
2425.5308	36038.35
2428.31606	36060.15
2431.09956	36070.55
2433.88131	35934.35
2436.6613	35969.45
2439.43954	35850.65
2442.21603	35878.65
2444.99077	35828.15
2447.76377	35763.95
2450.53501	35744.55
2453.30451	35674.95
2456.07226	35613.45
2458.83827	35531.75
2461.60254	35504.55
2464.36507	35395.05
2467.12586	35407.85
2469.88492	35404.35
2472.64224	35335.25
2475.39782	35328.85
2478.15167	35284.45
2480.90379	35207.35
2483.65417	35272.05
2486.40283	35214.45
2489.14976	35219.05
2491.89497	35167.95
2494.63845	35166.25
2497.3802	35128.35
2500.12024	35085.05
2502.85855	35056.25
2505.59514	35028.15
2508.33002	34953.35
2511.06318	34949.95
2513.79462	34810.45
2516.52435	34757.85
2519.25237	34724.85
2521.97867	34694.15
2524.70327	34682.35
2527.42616	34578.05
2530.14734	34588.75
2532.86681	34448.95
2535.58458	34468.05
2538.30065	34398.35
2541.01501	34406.85
2543.72768	34256.55
2546.43864	34223.55
2549.14791	34201.85
2551.85548	34132.65
2554.56136	34043.65
2557.26554	33938.15
2559.96803	33921.95
2562.66883	33832.55
2565.36794	33775.35
2568.06536	33666.75
2570.7611	33641.15
2573.45514	33613.65
2576.14751	33628.95
2578.83819	33509.05
2581.52719	33491.15
2584.21451	33377.55
2586.90015	33310.05
2589.58411	33219.35
2592.2664	33194.95
2594.94701	33116.75
2597.62594	33073.55
2600.30321	32982.05
2602.9788	32920.65
2605.65273	32864.75
2608.32498	32785.05
2610.99557	32749.35
2613.66449	32707.85
2616.33175	32673.35
2618.99734	32657.95
2621.66128	32571.55
2624.32355	32523.45
2626.98416	32529.55
2629.64311	32442.05
2632.30041	32457.55
2634.95605	32390.85
2637.61004	32298.75
2640.26238	32198.55
2642.91306	32136.15
2645.56209	32111.35
2648.20948	32060.75
2650.85521	32013.75
2653.4993	32067.25
2656.14175	32066.55
2658.78255	32023.05
2661.42171	32040.85
2664.05923	32033.15
2666.6951	31990.75
2669.32934	32021.55
2671.96194	31957.55
2674.59291	31954.45
2677.22224	31938.85
2679.84993	32013.15
2682.476	32015.75
2685.10043	31992.55
2687.72324	31852.95
2690.34441	31918.75
2692.96396	31900.65
2695.58188	31875.75
2698.19818	31878.55
2700.81285	31866.65
2703.4259	31812.35
2706.03733	31878.85
2708.64714	31857.35
2711.25533	31878.95
2713.86191	31865.75
2716.46687	31898.15
2719.07021	31834.55
2721.67194	31836.65
2724.27206	31825.45
2726.87057	31817.05
2729.46747	31794.65
2732.06276	31882.15
2734.65644	31840.45
2737.24852	31807.25
2739.83899	31706.75
2742.42786	31705.85
2745.01513	31570.85
2747.60079	31614.75
2750.18486	31561.35
2752.76733	31412.35
2755.3482	31410.65
2757.92747	31384.75
2760.50515	31293.45
2763.08123	31313.05
2765.65573	31277.75
2768.22863	31254.65
2770.79994	31177.35
2773.36967	31142.75
2775.9378	31092.95
2778.50435	31025.45
2781.06932	31000.05
2783.6327	30965.65
2786.1945	30854.05
2788.75471	30838.65
2791.31335	30727.15
2793.87041	30757.65
2796.42589	30639.85
2798.97979	30625.75
2801.53212	30510.65
2804.08288	30441.85
2806.63206	30312.75
2809.17967	30256.05
2811.72571	30127.05
2814.27018	30104.45
2816.81308	30097.25
2819.35442	30021.35
2821.89419	29895.75
2824.43239	29882.75
2826.96904	29847.65
2829.50412	29811.35
2832.03763	29777.35
2834.56959	29758.45
2837.1	29719.35
2839.62884	29692.75
2842.15613	29603.25
2844.68186	29647.35
2847.20604	29577.05
2849.72867	29529.05
2852.24974	29458.85
2854.76927	29480.75
2857.28724	29424.15
2859.80367	29393.15
2862.31855	29321.95
2864.83189	29287.65
2867.34368	29200.85
2869.85393	29194.35
2872.36264	29122.55
2874.8698	29085.65
2877.37543	29057.15
2879.87952	28994.95
2882.38207	28962.05
2884.88308	28899.85
2887.38256	28904.95
2889.88051	28845.05
2892.37692	28900.15
2894.8718	28871.35
2897.36515	28925.15
2899.85698	28889.95
2902.34727	28933.95
2904.83604	28889.85
2907.32328	28890.05
2909.809	28905.05
2912.29319	28958.45
2914.77587	28929.55
2917.25702	28918.95
2919.73665	28904.05
2922.21476	28885.95
2924.69136	28789.45
2927.16644	28800.05
2929.64	28763.95
2932.11205	28741.05
2934.58258	28566.55
2937.05161	28670.05
2939.51912	28682.55
2941.98513	28640.55
2944.44962	28587.25
2946.91261	28468.65
2949.37409	28518.35
2951.83407	28538.85
2954.29254	28503.65
2956.74951	28459.75
2959.20498	28487.05
2961.65895	28439.85
2964.11142	28477.05
2966.56239	28507.75
2969.01186	28538.35
2971.45984	28453.55
2973.90632	28422.65
2976.35131	28356.15
2978.7948	28322.35
2981.23681	28263.75
2983.67732	28228.25
2986.11635	28133.45
2988.55388	28061.45
2990.98993	27988.85
2993.4245	27937.35
2995.85758	27853.35
2998.28917	27807.55
3000.71928	27759.35
3003.14791	27713.85
3005.57506	27678.15
3008.00073	27607.65
3010.42493	27582.95
3012.84764	27509.75
3015.26888	27485.45
3017.68865	27417.05
3020.10694	27411.05
3022.52376	27283.55
3024.9391	27269.45
3027.35298	27177.45
3029.76539	27239.15
3032.17632	27186.65
3034.5858	27094.15
3036.9938	27089.15
3039.40034	27039.15
3041.80542	26984.15
3044.20903	26923.45
3046.61118	26875.25
3049.01187	26837.65
3051.4111	26860.15
3053.80888	26765.65
3056.20519	26774.35
3058.60005	26664.65
3060.99345	26674.55
3063.3854	26582.15
3065.7759	26487.15
3068.16494	26448.15
3070.55254	26302.35
3072.93868	26277.55
3075.32338	26182.65
3077.70662	26163.45
3080.08842	26085.75
3082.46878	26136.25
3084.84769	26034.15
3087.22515	26013.25
3089.60118	25977.75
3091.97576	25949.75
3094.3489	25949.25
3096.72061	25923.55
3099.09087	25940.45
3101.4597	25947.85
3103.82709	25920.65
3106.19305	25906.85
3108.55757	25830.65
3110.92066	25808.75
3113.28232	25804.45
3115.64255	25729.55
3118.00134	25665.15
3120.35871	25640.05
3122.71466	25565.15
3125.06917	25519.55
3127.42226	25461.55
3129.77393	25473.25
3132.12417	25397.25
3134.47299	25343.95
3136.82039	25298.65
3139.16636	25350.95
3141.51092	25310.85
3143.85406	25292.45
3146.19579	25244.25
3148.53609	25231.65
3150.87499	25243.45
3153.21246	25221.05
3155.54853	25260.05
3157.88318	25216.35
3160.21642	25288.35
3162.54826	25246.25
3164.87868	25233.25
3167.2077	25216.05
3169.5353	25183.25
3171.86151	25179.75
3174.18631	25115.85
3176.5097	25102.45
3178.83169	25043.85
3181.15228	25001.15
3183.47147	24930.15
3185.78926	24937.85
3188.10565	24866.55
3190.42065	24828.95
3192.73424	24825.05
3195.04645	24773.85
3197.35725	24734.75
3199.66667	24647.85
3201.97469	24690.75
3204.28132	24683.75
3206.58656	24675.65
3208.8904	24665.15
3211.19287	24652.35
3213.49394	24636.15
3215.79363	24632.35
3218.09193	24660.85
3220.38884	24729.55
3222.68438	24705.25
3224.97853	24590.35
3227.2713	24606.05
3229.56269	24550.45
3231.8527	24546.55
3234.14133	24491.45
3236.42858	24425.75
3238.71446	24379.55
3240.99896	24297.95
