Data from AgNPs_UA_10uM_CRN_0uM_R6G_10uM_Q_RamanShift__3__11-52-12-625.txt Node

Date: Mon Jul 18 11:52:12 BST 2022
User: TCL
Spectrometer: QEP01345
Trigger mode: 4
Integration Time (sec): 7.000000E0
Scans to average: 10
Electric dark correction enabled: true
Nonlinearity correction enabled: false
Boxcar width: 0
XAxis mode: Raman Shifts
Number of Pixels in Spectrum: 1044
>>>>>Begin Spectral Data<<<<<
46.04893	-1.25
50.45542	-0.85
54.85868	-1.85
59.25871	-1.15
63.6555	110.55
68.04907	115.95
72.43941	124.95
76.82654	130.15
81.21044	130.75
85.59113	138.15
89.96862	140.55
94.34289	146.85
98.71396	152.45
103.08183	156.55
107.4465	164.95
111.80798	164.95
116.16626	170.75
120.52136	182.65
124.87327	192.95
129.222	199.15
133.56755	212.35
137.90993	228.45
142.24913	245.75
146.58517	279.55
150.91804	329.15
155.24774	393.45
159.57429	490.05
163.89768	638.25
168.21792	843.85
172.53501	1154.95
176.84895	1607.15
181.15975	2259.75
185.46741	3201.35
189.77193	4423.15
194.07331	5911.05
198.37157	7579.05
202.6667	9350.45
206.9587	11144.75
211.24758	12921.15
215.53334	14708.25
219.81599	16687.55
224.09553	18872.35
228.37195	21270.45
232.64527	23846.25
236.91549	26357.55
241.18261	28685.65
245.44663	30660.95
249.70755	32362.55
253.96539	33842.35
258.22014	35154.25
262.4718	36247.15
266.72039	37051.45
270.96589	37350.75
275.20832	37324.15
279.44768	36982.25
283.68397	36452.55
287.91719	36172.75
292.14735	36215.45
296.37445	36660.05
300.59849	37487.95
304.81948	38554.85
309.03742	39349.05
313.25231	39475.55
317.46415	38586.25
321.67296	36985.35
325.87872	35448.05
330.08145	34744.85
334.28114	34739.25
338.47781	35114.05
342.67145	35777.15
346.86207	36771.85
351.04966	38033.85
355.23424	39373.95
359.4158	40203.25
363.59435	40524.35
367.76989	40529.75
371.94243	40335.15
376.11196	40107.45
380.27849	39975.15
384.44203	39923.85
388.60257	39918.85
392.76012	40154.95
396.91468	40714.15
401.06626	41465.35
405.21485	41827.35
409.36047	41180.55
413.50311	39939.55
417.64277	38904.95
421.77947	38476.15
425.9132	38329.85
430.04396	38363.85
434.17176	38488.25
438.2966	38828.75
442.41849	39606.05
446.53742	40617.75
450.6534	41632.35
454.76644	42293.95
458.87653	42284.25
462.98368	41991.25
467.08789	41453.05
471.18916	40829.95
475.2875	40053.95
479.38291	39468.75
483.4754	38996.35
487.56496	38572.45
491.6516	38285.05
495.73531	38177.75
499.81612	38280.25
503.89401	38517.55
507.96899	38696.75
512.04106	38773.75
516.11023	38877.65
520.1765	38938.25
524.23987	38898.25
528.30034	38693.75
532.35792	38455.25
536.41261	37918.75
540.46441	37349.55
544.51333	37250.65
548.55936	37660.15
552.60252	38462.15
556.64279	39488.25
560.6802	40081.55
564.71473	40605.95
568.7464	41558.85
572.7752	42330.45
576.80114	42328.95
580.82422	42720.55
584.84444	43580.95
588.86181	44668.75
592.87633	45670.95
596.888	45914.05
600.89682	45840.65
604.9028	48366.55
608.90594	56078.05
612.90624	63790.35
616.90371	57999.25
620.89834	45133.55
624.89015	39847.75
628.87913	39287.75
632.86528	39800.95
636.84862	40037.65
640.82913	39158.75
644.80683	37750.95
648.78172	36939.35
652.75379	37108.25
656.72306	38188.25
660.68952	39210.15
664.65319	38727.25
668.61405	37652.25
672.57211	37460.65
676.52738	37538.95
680.47986	37332.25
684.42955	36869.15
688.37646	36703.65
692.32058	37012.35
696.26192	37618.35
700.20048	38192.15
704.13626	38421.65
708.06928	38239.75
711.99952	37990.15
715.927	38014.25
719.85171	38187.15
723.77365	38079.05
727.69284	37574.45
731.60928	37138.45
735.52295	37046.45
739.43388	37184.65
743.34206	37357.95
747.24749	37533.85
751.15017	37793.95
755.05012	38536.85
758.94733	40216.75
762.8418	43829.55
766.73354	49241.35
770.62254	53516.05
774.50882	53688.05
778.39237	50634.95
782.27321	46236.35
786.15132	42071.15
790.02671	39431.95
793.89938	38059.05
797.76935	37479.45
801.6366	37298.55
805.50115	37087.05
809.36299	36833.55
813.22213	36624.75
817.07857	36537.55
820.93231	36546.15
824.78336	36553.35
828.63172	36625.15
832.47738	36557.35
836.32036	36529.15
840.16066	36564.45
843.99827	36650.45
847.8332	36541.95
851.66546	36480.85
855.49504	36538.35
859.32195	36528.35
863.1462	36376.95
866.96777	36373.85
870.78668	36317.75
874.60293	36399.35
878.41652	36518.25
882.22745	36721.75
886.03573	36855.75
889.84136	36834.35
893.64433	36618.25
897.44466	36493.45
901.24235	36404.05
905.0374	36258.35
908.8298	36099.95
912.61957	36089.95
916.40671	36241.65
920.19121	36637.75
923.97308	37133.75
927.75233	37529.35
931.52895	37657.25
935.30295	37194.35
939.07433	36290.05
942.84309	35652.25
946.60924	35324.55
950.37278	35243.85
954.13371	35149.85
957.89203	35142.15
961.64774	35194.35
965.40086	35209.75
969.15137	35247.35
972.89929	35184.85
976.64461	35247.35
980.38733	35297.35
984.12747	35408.15
987.86502	35602.35
991.59999	35806.75
995.33237	36207.15
999.06217	36843.95
1002.78939	37611.25
1006.51404	38274.45
1010.23611	38812.95
1013.95561	39114.95
1017.67255	39086.95
1021.38692	38654.85
1025.09872	38130.75
1028.80796	37903.05
1032.51465	38190.35
1036.21877	38759.95
1039.92035	38918.45
1043.61937	38809.85
1047.31584	38548.35
1051.00976	38217.75
1054.70114	38102.85
1058.38998	38164.15
1062.07627	38314.55
1065.76003	38648.05
1069.44126	39114.05
1073.11995	39870.95
1076.79611	40586.95
1080.46974	41175.45
1084.14085	41763.75
1087.80943	42473.45
1091.47549	42679.25
1095.13903	42351.45
1098.80005	41453.15
1102.45857	40585.95
1106.11456	39964.25
1109.76805	39801.85
1113.41903	39993.25
1117.06751	40661.55
1120.71348	41580.45
1124.35696	42694.45
1127.99793	43565.05
1131.63641	43284.45
1135.2724	42173.05
1138.90589	41250.75
1142.5369	40778.05
1146.16542	40565.35
1149.79145	40568.45
1153.415	40676.15
1157.03607	41060.45
1160.65467	41858.55
1164.27079	43367.65
1167.88443	45407.05
1171.49561	48365.65
1175.10432	52555.95
1178.71056	57833.15
1182.31434	62221.45
1185.91565	63631.85
1189.51451	62385.35
1193.11091	59767.05
1196.70485	56780.15
1200.29634	54274.75
1203.88538	52177.15
1207.47197	50220.25
1211.05612	48521.25
1214.63782	47248.95
1218.21708	46425.85
1221.79391	45951.25
1225.36829	45802.45
1228.94024	45473.05
1232.50976	44997.65
1236.07685	44422.55
1239.6415	44192.05
1243.20374	44220.95
1246.76355	44561.35
1250.32093	45192.55
1253.8759	46088.75
1257.42845	47344.15
1260.97859	48803.95
1264.52631	50354.95
1268.07163	51880.95
1271.61453	53264.25
1275.15503	54507.05
1278.69312	55541.55
1282.22882	56439.75
1285.76211	57838.75
1289.29301	59723.35
1292.82151	61853.75
1296.34761	64196.55
1299.87133	67445.15
1303.39266	72083.15
1306.9116	78218.15
1310.42815	84349.05
1313.94233	87174.15
1317.45412	84935.75
1320.96354	80414.45
1324.47058	76339.75
1327.97525	72968.25
1331.47754	70600.75
1334.97747	69379.35
1338.47502	68909.05
1341.97022	69182.15
1345.46305	70307.75
1348.95352	72305.75
1352.44163	75016.75
1355.92738	79142.45
1359.41078	85729.25
1362.89183	92137.65
1366.37053	89767.95
1369.84688	78835.65
1373.32088	67658.95
1376.79254	60821.75
1380.26186	57655.45
1383.72883	56333.55
1387.19347	55166.45
1390.65578	53913.95
1394.11575	52995.45
1397.57339	52636.55
1401.0287	52534.65
1404.48168	52372.55
1407.93234	52061.15
1411.38068	51636.15
1414.82669	51007.25
1418.27039	50159.85
1421.71177	49158.95
1425.15083	48199.65
1428.58758	47901.05
1432.02203	48545.85
1435.45416	49576.05
1438.88399	50367.05
1442.31151	50606.65
1445.73673	50763.25
1449.15965	50926.75
1452.58027	50869.15
1455.9986	50765.55
1459.41463	50827.35
1462.82837	51463.55
1466.23982	52416.85
1469.64898	53326.95
1473.05586	54087.15
1476.46045	54410.75
1479.86276	54606.15
1483.26279	54986.15
1486.66054	55823.15
1490.05602	57186.65
1493.44922	59288.65
1496.84016	62355.65
1500.22882	67008.35
1503.61521	73196.25
1506.99934	80337.05
1510.38121	85736.55
1513.76081	86422.75
1517.13816	81277.75
1520.51324	73177.15
1523.88607	66259.45
1527.25665	62179.55
1530.62498	59880.85
1533.99105	58503.05
1537.35488	57210.35
1540.71647	55852.55
1544.07581	54593.25
1547.4329	53509.85
1550.78776	52692.45
1554.14038	52430.85
1557.49077	52455.75
1560.83892	52976.75
1564.18484	54034.05
1567.52853	55392.15
1570.86999	56433.55
1574.20922	57217.75
1577.54624	57068.45
1580.88103	55423.25
1584.2136	53586.05
1587.54395	53118.95
1590.87208	54546.25
1594.19801	57393.45
1597.52172	60394.55
1600.84321	61119.05
1604.16251	58968.45
1607.47959	55515.55
1610.79447	51795.35
1614.10715	48199.65
1617.41763	45231.45
1620.7259	43301.85
1624.03199	42420.75
1627.33587	42530.85
1630.63757	43650.65
1633.93707	46029.95
1637.23439	50045.25
1640.52951	56160.85
1643.82246	63974.55
1647.11321	71189.35
1650.40179	74338.25
1653.68819	70302.15
1656.97241	61093.75
1660.25446	51726.05
1663.53433	44953.45
1666.81203	40901.45
1670.08756	38386.05
1673.36092	36946.25
1676.63211	35961.45
1679.90115	35310.05
1683.16801	34731.45
1686.43272	34341.85
1689.69527	34045.95
1692.95567	33791.15
1696.2139	33656.55
1699.46999	33522.95
1702.72392	33455.25
1705.97571	33396.75
1709.22535	33332.15
1712.47284	33373.85
1715.71819	33352.05
1718.96139	33316.45
1722.20246	33246.85
1725.44139	33022.05
1728.67818	32868.95
1731.91284	32617.85
1735.14537	32415.35
1738.37576	32314.75
1741.60403	32237.95
1744.83017	32204.15
1748.05418	32093.45
1751.27607	32020.95
1754.49584	31941.35
1757.71349	31906.55
1760.92903	31877.25
1764.14244	31828.25
1767.35375	31813.45
1770.56294	31749.35
1773.77002	31665.25
1776.97499	31654.25
1780.17785	31605.25
1783.37861	31522.25
1786.57727	31463.15
1789.77382	31395.25
1792.96828	31328.75
1796.16064	31267.95
1799.3509	31231.65
1802.53907	31158.05
1805.72514	31024.45
1808.90913	31010.75
1812.09102	30905.75
1815.27083	30867.45
1818.44856	30840.95
1821.6242	30787.85
1824.79776	30697.15
1827.96924	30691.55
1831.13864	30651.95
1834.30597	30591.65
1837.47122	30550.05
1840.6344	30527.55
1843.7955	30593.75
1846.95454	30532.45
1850.11151	30532.85
1853.26642	30490.75
1856.41926	30473.05
1859.57004	30459.85
1862.71876	30435.15
1865.86542	30392.85
1869.01003	30417.65
1872.15258	30393.35
1875.29308	30358.25
1878.43152	30281.25
1881.56792	30274.95
1884.70227	30245.95
1887.83457	30206.65
1890.96482	30184.25
1894.09304	30135.05
1897.21921	30114.15
1900.34335	30153.45
1903.46544	30057.85
1906.58551	30011.65
1909.70353	29978.85
1912.81953	29983.15
1915.93349	29934.95
1919.04543	29863.85
1922.15534	29816.15
1925.26322	29753.25
1928.36908	29701.95
1931.47292	29624.25
1934.57473	29524.45
1937.67453	29449.95
1940.77232	29435.95
1943.86808	29336.15
1946.96184	29319.95
1950.05358	29153.75
1953.14331	29063.05
1956.23103	29013.85
1959.31675	28923.45
1962.40046	28917.75
1965.48217	28830.25
1968.56188	28771.65
1971.63959	28697.95
1974.7153	28662.95
1977.78901	28528.45
1980.86073	28418.35
1983.93046	28343.25
1986.99819	28263.05
1990.06394	28170.55
1993.1277	28076.45
1996.18947	27971.15
1999.24925	27958.05
2002.30706	27874.75
2005.36288	27824.05
2008.41672	27794.35
2011.46859	27665.05
2014.51848	27598.65
2017.56639	27558.65
2020.61233	27508.75
2023.6563	27427.55
2026.6983	27279.65
2029.73833	27178.25
2032.7764	27158.85
2035.8125	27140.75
2038.84664	27086.75
2041.87881	27027.95
2044.90903	27000.65
2047.93729	26888.35
2050.96359	26939.05
2053.98794	26847.15
2057.01034	26872.45
2060.03078	26831.45
2063.04927	26809.85
2066.06582	26762.45
2069.08042	26761.75
2072.09307	26718.35
2075.10378	26718.45
2078.11255	26666.85
2081.11938	26713.35
2084.12426	26675.25
2087.12722	26652.45
2090.12824	26685.25
2093.12732	26702.15
2096.12447	26706.15
2099.11969	26724.25
2102.11299	26755.05
2105.10435	26741.85
2108.09379	26804.65
2111.08131	26776.35
2114.0669	26767.25
2117.05057	26762.05
2120.03233	26826.45
2123.01216	26869.45
2125.99008	26926.75
2128.96609	26895.45
2131.94018	27046.65
2134.91236	26986.85
2137.88263	27012.85
2140.851	27020.85
2143.81746	26979.85
2146.78201	27023.15
2149.74466	27056.95
2152.7054	27035.15
2155.66425	27013.25
2158.6212	27034.45
2161.57625	26946.65
2164.52941	26957.75
2167.48067	26960.65
2170.43004	26960.05
2173.37752	26939.35
2176.32311	26943.35
2179.26681	26972.55
2182.20863	26970.45
2185.14856	26959.55
2188.08661	26938.65
2191.02278	26918.75
2193.95707	26958.65
2196.88948	26921.55
2199.82001	26863.95
2202.74867	26822.05
2205.67545	26834.15
2208.60037	26787.95
2211.52341	26706.55
2214.44458	26721.15
2217.36388	26725.75
2220.28132	26692.15
2223.1969	26611.55
2226.11061	26512.35
2229.02246	26510.55
2231.93245	26479.65
2234.84058	26412.95
2237.74686	26374.95
2240.65128	26380.25
2243.55385	26271.75
2246.45456	26249.95
2249.35343	26251.95
2252.25044	26212.35
2255.14561	26200.45
2258.03893	26212.05
2260.93041	26145.55
2263.82004	26134.05
2266.70783	26122.65
2269.59378	26048.05
2272.4779	25983.85
2275.36017	25909.05
2278.24061	25892.45
2281.11922	25875.45
2283.996	25831.85
2286.87094	25712.55
2289.74405	25699.25
2292.61534	25651.55
2295.4848	25650.85
2298.35243	25687.25
2301.21824	25689.05
2304.08223	25650.75
2306.94439	25643.05
2309.80474	25620.95
2312.66327	25617.35
2315.51999	25590.25
2318.37489	25556.85
2321.22797	25574.35
2324.07925	25528.55
2326.92871	25467.55
2329.77637	25498.55
2332.62222	25452.25
2335.46626	25473.45
2338.3085	25460.75
2341.14893	25458.25
2343.98756	25408.35
2346.8244	25459.55
2349.65943	25546.15
2352.49267	25452.05
2355.32411	25434.15
2358.15376	25432.35
2360.98161	25455.15
2363.80768	25477.35
2366.63195	25459.55
2369.45444	25416.55
2372.27514	25439.95
2375.09405	25351.65
2377.91118	25302.95
2380.72652	25234.35
2383.54009	25129.45
2386.35187	25121.55
2389.16188	25033.65
2391.97011	25034.35
2394.77657	24971.85
2397.58125	24954.25
2400.38416	24891.25
2403.18529	24875.25
2405.98466	24856.55
2408.78226	24817.95
2411.57809	24760.45
2414.37216	24772.35
2417.16446	24822.35
2419.955	24751.25
2422.74378	24749.25
2425.5308	24691.15
2428.31606	24628.55
2431.09956	24662.85
2433.88131	24633.05
2436.6613	24632.35
2439.43954	24634.85
2442.21603	24648.15
2444.99077	24584.85
2447.76377	24622.15
2450.53501	24581.05
2453.30451	24563.55
2456.07226	24532.95
2458.83827	24535.15
2461.60254	24569.55
2464.36507	24532.75
2467.12586	24475.85
2469.88492	24462.95
2472.64224	24468.25
2475.39782	24465.55
2478.15167	24529.15
2480.90379	24555.75
2483.65417	24556.15
2486.40283	24613.95
2489.14976	24643.95
2491.89497	24674.75
2494.63845	24661.55
2497.3802	24610.15
2500.12024	24607.15
2502.85855	24534.15
2505.59514	24483.35
2508.33002	24450.95
2511.06318	24371.45
2513.79462	24352.35
2516.52435	24314.15
2519.25237	24274.65
2521.97867	24250.45
2524.70327	24236.05
2527.42616	24188.65
2530.14734	24200.45
2532.86681	24153.45
2535.58458	24189.75
2538.30065	24165.05
2541.01501	24183.65
2543.72768	24135.55
2546.43864	24109.15
2549.14791	24066.35
2551.85548	24044.65
2554.56136	23987.85
2557.26554	23972.15
2559.96803	23966.35
2562.66883	23939.35
2565.36794	23886.05
2568.06536	23948.05
2570.7611	23910.25
2573.45514	23863.55
2576.14751	23854.75
2578.83819	23813.25
2581.52719	23796.85
2584.21451	23764.75
2586.90015	23739.75
2589.58411	23744.75
2592.2664	23734.15
2594.94701	23691.75
2597.62594	23667.95
2600.30321	23637.85
2602.9788	23574.65
2605.65273	23509.25
2608.32498	23546.15
2610.99557	23547.45
2613.66449	23584.15
2616.33175	23492.25
2618.99734	23484.45
2621.66128	23466.25
2624.32355	23436.05
2626.98416	23489.15
2629.64311	23392.15
2632.30041	23366.15
2634.95605	23368.05
2637.61004	23332.35
2640.26238	23329.45
2642.91306	23315.35
2645.56209	23277.25
2648.20948	23306.65
2650.85521	23265.65
2653.4993	23207.45
2656.14175	23230.15
2658.78255	23320.85
2661.42171	23327.25
2664.05923	23362.55
2666.6951	23338.15
2669.32934	23341.85
2671.96194	23337.25
2674.59291	23339.05
2677.22224	23347.05
2679.84993	23385.75
2682.476	23307.95
2685.10043	23335.05
2687.72324	23264.55
2690.34441	23304.45
2692.96396	23286.55
2695.58188	23274.65
2698.19818	23251.25
2700.81285	23243.35
2703.4259	23234.75
2706.03733	23313.15
2708.64714	23302.05
2711.25533	23310.95
2713.86191	23306.45
2716.46687	23333.35
2719.07021	23340.05
2721.67194	23365.95
2724.27206	23327.95
2726.87057	23294.25
2729.46747	23343.05
2732.06276	23386.05
2734.65644	23356.55
2737.24852	23356.25
2739.83899	23306.15
2742.42786	23288.65
2745.01513	23213.95
2747.60079	23214.55
2750.18486	23237.35
2752.76733	23169.45
2755.3482	23185.25
2757.92747	23197.25
2760.50515	23147.75
2763.08123	23131.15
2765.65573	23084.85
2768.22863	23069.55
2770.79994	23078.95
2773.36967	23078.15
2775.9378	23029.55
2778.50435	22989.25
2781.06932	22990.05
2783.6327	22990.15
2786.1945	22995.45
2788.75471	22958.05
2791.31335	22877.55
2793.87041	22848.85
2796.42589	22803.65
2798.97979	22832.55
2801.53212	22777.15
2804.08288	22804.75
2806.63206	22713.45
2809.17967	22688.15
2811.72571	22671.05
2814.27018	22600.15
2816.81308	22549.75
2819.35442	22539.05
2821.89419	22537.15
2824.43239	22535.35
2826.96904	22477.05
2829.50412	22452.45
2832.03763	22428.25
2834.56959	22389.55
2837.1	22367.35
2839.62884	22345.05
2842.15613	22325.25
2844.68186	22319.25
2847.20604	22279.95
2849.72867	22285.45
2852.24974	22256.25
2854.76927	22237.75
2857.28724	22208.65
2859.80367	22261.75
2862.31855	22219.95
2864.83189	22246.45
2867.34368	22181.65
2869.85393	22230.05
2872.36264	22192.35
2874.8698	22121.55
2877.37543	22145.45
2879.87952	22141.55
2882.38207	22124.75
2884.88308	22091.75
2887.38256	22100.55
2889.88051	22063.95
2892.37692	22122.85
2894.8718	22145.65
2897.36515	22141.85
2899.85698	22106.95
2902.34727	22134.75
2904.83604	22153.15
2907.32328	22216.15
2909.809	22226.65
2912.29319	22229.35
2914.77587	22224.25
2917.25702	22218.45
2919.73665	22232.45
2922.21476	22198.85
2924.69136	22174.45
2927.16644	22149.85
2929.64	22090.75
2932.11205	22073.05
2934.58258	21989.35
2937.05161	21988.65
2939.51912	21991.65
2941.98513	22005.25
2944.44962	21962.15
2946.91261	21910.95
2949.37409	21991.25
2951.83407	21949.45
2954.29254	21911.95
2956.74951	21958.05
2959.20498	21923.15
2961.65895	21948.95
2964.11142	21989.85
2966.56239	21917.45
2969.01186	21923.55
2971.45984	21829.75
2973.90632	21831.45
2976.35131	21789.85
2978.7948	21733.35
2981.23681	21739.15
2983.67732	21761.95
2986.11635	21715.75
2988.55388	21682.35
2990.98993	21624.25
2993.4245	21594.05
2995.85758	21551.75
2998.28917	21495.25
3000.71928	21443.45
3003.14791	21373.05
3005.57506	21364.05
3008.00073	21302.65
3010.42493	21316.25
3012.84764	21243.75
3015.26888	21299.85
3017.68865	21256.25
3020.10694	21189.55
3022.52376	21167.85
3024.9391	21079.55
3027.35298	21119.15
3029.76539	21062.95
3032.17632	21070.15
3034.5858	21063.15
3036.9938	21066.55
3039.40034	21034.15
3041.80542	21005.35
3044.20903	20915.85
3046.61118	20942.45
3049.01187	20870.35
3051.4111	20803.85
3053.80888	20770.45
3056.20519	20772.25
3058.60005	20713.85
3060.99345	20677.05
3063.3854	20630.65
3065.7759	20571.15
3068.16494	20565.45
3070.55254	20459.95
3072.93868	20438.45
3075.32338	20379.05
3077.70662	20359.65
3080.08842	20275.05
3082.46878	20280.05
3084.84769	20282.95
3087.22515	20259.75
3089.60118	20277.95
3091.97576	20246.05
3094.3489	20264.25
3096.72061	20219.75
3099.09087	20227.25
3101.4597	20245.05
3103.82709	20245.95
3106.19305	20219.35
3108.55757	20206.95
3110.92066	20151.15
3113.28232	20150.95
3115.64255	20110.35
3118.00134	20069.75
3120.35871	20066.85
3122.71466	19991.95
3125.06917	19942.15
3127.42226	19916.95
3129.77393	19897.35
3132.12417	19869.65
3134.47299	19909.95
3136.82039	19874.35
3139.16636	19880.45
3141.51092	19850.05
3143.85406	19837.45
3146.19579	19790.25
3148.53609	19861.85
3150.87499	19858.75
3153.21246	19894.05
3155.54853	19882.55
3157.88318	19825.25
3160.21642	19859.55
3162.54826	19878.25
3164.87868	19902.45
3167.2077	19922.25
3169.5353	19900.65
3171.86151	19814.65
3174.18631	19814.15
3176.5097	19789.25
3178.83169	19791.65
3181.15228	19799.65
3183.47147	19793.25
3185.78926	19694.75
3188.10565	19638.25
3190.42065	19674.35
3192.73424	19632.05
3195.04645	19613.35
3197.35725	19585.05
3199.66667	19607.05
3201.97469	19620.25
3204.28132	19566.75
3206.58656	19597.35
3208.8904	19589.15
3211.19287	19579.95
3213.49394	19594.65
3215.79363	19621.65
3218.09193	19634.95
3220.38884	19613.65
3222.68438	19663.05
3224.97853	19625.55
3227.2713	19632.15
3229.56269	19631.25
3231.8527	19633.05
3234.14133	19600.15
3236.42858	19594.35
3238.71446	19546.05
3240.99896	19525.05
