Data from AgNPs_UA_50uM_CRN_0uM_R6G_10uM_Q_RamanShift__6__12-18-11-758.txt Node

Date: Tue Jul 26 12:18:11 BST 2022
User: TCL
Spectrometer: QEP01345
Trigger mode: 4
Integration Time (sec): 7.000000E0
Scans to average: 10
Electric dark correction enabled: true
Nonlinearity correction enabled: false
Boxcar width: 0
XAxis mode: Raman Shifts
Number of Pixels in Spectrum: 1044
>>>>>Begin Spectral Data<<<<<
46.04893	-0.55
50.45542	0.75
54.85868	-0.45
59.25871	-1.65
63.6555	117.15
68.04907	126.55
72.43941	131.35
76.82654	140.65
81.21044	143.15
85.59113	145.65
89.96862	151.25
94.34289	156.65
98.71396	167.85
103.08183	174.05
107.4465	172.25
111.80798	181.55
116.16626	185.15
120.52136	195.15
124.87327	197.75
129.222	208.95
133.56755	223.25
137.90993	242.55
142.24913	260.25
146.58517	298.15
150.91804	339.75
155.24774	401.75
159.57429	499.45
163.89768	641.75
168.21792	841.05
172.53501	1172.15
176.84895	1620.65
181.15975	2267.85
185.46741	3196.95
189.77193	4396.75
194.07331	5898.15
198.37157	7607.15
202.6667	9386.55
206.9587	11195.15
211.24758	12979.25
215.53334	14781.55
219.81599	16735.05
224.09553	18847.25
228.37195	21253.65
232.64527	23813.25
236.91549	26469.15
241.18261	28926.55
245.44663	31039.65
249.70755	32898.85
253.96539	34402.95
258.22014	35697.45
262.4718	36769.55
266.72039	37539.65
270.96589	37896.85
275.20832	37848.35
279.44768	37453.65
283.68397	36947.35
287.91719	36562.95
292.14735	36409.85
296.37445	36725.25
300.59849	37360.85
304.81948	38192.75
309.03742	38962.75
313.25231	39095.65
317.46415	38518.65
321.67296	37338.95
325.87872	36182.75
330.08145	35506.65
334.28114	35518.75
338.47781	35865.65
342.67145	36484.45
346.86207	37374.65
351.04966	38625.75
355.23424	39818.55
359.4158	40706.45
363.59435	41302.05
367.76989	41629.55
371.94243	41758.65
376.11196	41828.85
380.27849	41821.95
384.44203	41994.75
388.60257	42262.15
392.76012	42568.75
396.91468	43032.85
401.06626	43690.85
405.21485	44122.05
409.36047	43714.75
413.50311	42648.95
417.64277	41537.15
421.77947	40893.25
425.9132	40665.05
430.04396	40537.15
434.17176	40685.85
438.2966	41105.15
442.41849	41860.75
446.53742	42879.45
450.6534	43986.55
454.76644	44701.95
458.87653	45003.35
462.98368	44898.95
467.08789	44467.05
471.18916	43740.15
475.2875	42802.75
479.38291	41894.55
483.4754	41311.15
487.56496	40914.15
491.6516	40658.55
495.73531	40465.05
499.81612	40667.35
503.89401	41082.45
507.96899	41336.15
512.04106	41418.45
516.11023	41474.55
520.1765	41549.95
524.23987	41550.75
528.30034	41419.05
532.35792	41304.85
536.41261	40949.75
540.46441	40377.85
544.51333	40195.65
548.55936	40461.55
552.60252	41109.65
556.64279	42000.85
560.6802	42739.85
564.71473	43154.95
568.7464	43608.65
572.7752	43944.75
576.80114	43805.55
580.82422	43888.35
584.84444	44416.15
588.86181	45163.25
592.87633	45898.45
596.888	46333.15
600.89682	46980.05
604.9028	50046.35
608.90594	57938.55
612.90624	66333.95
616.90371	62368.15
620.89834	49430.55
624.89015	43376.35
628.87913	42651.75
632.86528	43334.75
636.84862	43893.85
640.82913	43135.45
644.80683	41548.75
648.78172	40412.75
652.75379	40352.85
656.72306	41359.15
660.68952	42568.65
664.65319	42432.55
668.61405	41705.25
672.57211	41942.55
676.52738	42210.55
680.47986	41558.55
684.42955	40772.15
688.37646	40444.35
692.32058	40754.65
696.26192	41555.75
700.20048	42362.55
704.13626	42655.25
708.06928	42278.75
711.99952	41711.45
715.927	41550.65
719.85171	41785.95
723.77365	41793.45
727.69284	41278.05
731.60928	40803.65
735.52295	40695.05
739.43388	40759.25
743.34206	40958.65
747.24749	41065.95
751.15017	41206.05
755.05012	41693.85
758.94733	43080.95
762.8418	46170.85
766.73354	51122.55
770.62254	55559.85
774.50882	57148.85
778.39237	55465.05
782.27321	51628.25
786.15132	47376.75
790.02671	44177.55
793.89938	42420.85
797.76935	41562.95
801.6366	41103.55
805.50115	40791.55
809.36299	40522.65
813.22213	40297.25
817.07857	40163.45
820.93231	40115.05
824.78336	40118.55
828.63172	40196.35
832.47738	40109.05
836.32036	40061.15
840.16066	39906.25
843.99827	39852.75
847.8332	39860.15
851.66546	39931.85
855.49504	40033.15
859.32195	40120.35
863.1462	40091.15
866.96777	40017.65
870.78668	40022.05
874.60293	40113.15
878.41652	40301.55
882.22745	40566.25
886.03573	40744.15
889.84136	40767.25
893.64433	40494.55
897.44466	40348.05
901.24235	40195.75
905.0374	40009.35
908.8298	39903.85
912.61957	39860.45
916.40671	39868.75
920.19121	40096.45
923.97308	40428.65
927.75233	40730.45
931.52895	40797.15
935.30295	40557.55
939.07433	39896.55
942.84309	39348.15
946.60924	39014.35
950.37278	38982.75
954.13371	39018.35
957.89203	38995.65
961.64774	38947.05
965.40086	38912.05
969.15137	38928.95
972.89929	38950.35
976.64461	38907.65
980.38733	38940.55
984.12747	39020.05
987.86502	39222.65
991.59999	39507.45
995.33237	39942.65
999.06217	40498.45
1002.78939	41323.35
1006.51404	42226.15
1010.23611	43127.55
1013.95561	43733.05
1017.67255	43913.55
1021.38692	43557.35
1025.09872	42916.75
1028.80796	42205.35
1032.51465	42016.25
1036.21877	42200.95
1039.92035	42325.65
1043.61937	42378.95
1047.31584	42361.35
1051.00976	42301.55
1054.70114	42341.25
1058.38998	42518.75
1062.07627	42895.45
1065.76003	43374.15
1069.44126	44021.75
1073.11995	45130.95
1076.79611	46372.05
1080.46974	47185.55
1084.14085	47670.55
1087.80943	48061.75
1091.47549	48391.55
1095.13903	48416.45
1098.80005	48179.25
1102.45857	47986.15
1106.11456	47585.35
1109.76805	46811.05
1113.41903	46461.35
1117.06751	46661.75
1120.71348	47281.05
1124.35696	48096.05
1127.99793	48801.35
1131.63641	48624.25
1135.2724	47620.45
1138.90589	46867.05
1142.5369	46313.75
1146.16542	45998.95
1149.79145	45782.55
1153.415	45505.85
1157.03607	45428.15
1160.65467	45884.05
1164.27079	47040.75
1167.88443	48822.85
1171.49561	51544.75
1175.10432	55339.65
1178.71056	60294.55
1182.31434	64843.75
1185.91565	67056.85
1189.51451	67206.65
1193.11091	65963.15
1196.70485	63808.45
1200.29634	61495.85
1203.88538	59279.55
1207.47197	57036.35
1211.05612	54959.25
1214.63782	53239.85
1218.21708	51867.95
1221.79391	51024.55
1225.36829	50623.25
1228.94024	50412.75
1232.50976	50001.35
1236.07685	49730.45
1239.6415	49573.35
1243.20374	49674.05
1246.76355	50054.45
1250.32093	50560.85
1253.8759	51469.35
1257.42845	53019.25
1260.97859	54853.05
1264.52631	56890.25
1268.07163	58587.05
1271.61453	59997.35
1275.15503	60793.25
1278.69312	61183.25
1282.22882	61343.95
1285.76211	61942.65
1289.29301	62942.55
1292.82151	64406.55
1296.34761	66335.75
1299.87133	69046.35
1303.39266	72964.45
1306.9116	78493.35
1310.42815	84347.95
1313.94233	87588.75
1317.45412	86603.05
1320.96354	83143.65
1324.47058	79517.75
1327.97525	75916.35
1331.47754	73372.85
1334.97747	72260.05
1338.47502	72519.45
1341.97022	73976.35
1345.46305	76627.35
1348.95352	79945.15
1352.44163	83373.95
1355.92738	87077.35
1359.41078	91842.25
1362.89183	96045.05
1366.37053	93497.75
1369.84688	83454.15
1373.32088	72639.55
1376.79254	65880.85
1380.26186	62660.75
1383.72883	61029.05
1387.19347	59878.05
1390.65578	58391.15
1394.11575	56964.65
1397.57339	55827.95
1401.0287	55314.95
1404.48168	55302.55
1407.93234	55679.45
1411.38068	56035.65
1414.82669	55982.05
1418.27039	55607.85
1421.71177	54959.15
1425.15083	54376.75
1428.58758	54163.25
1432.02203	54621.95
1435.45416	55448.95
1438.88399	55941.05
1442.31151	56070.35
1445.73673	56016.15
1449.15965	56032.95
1452.58027	55929.05
1455.9986	55667.95
1459.41463	55913.15
1462.82837	56808.95
1466.23982	57897.55
1469.64898	58922.25
1473.05586	59507.95
1476.46045	59879.55
1479.86276	60117.55
1483.26279	60409.85
1486.66054	61198.05
1490.05602	62435.45
1493.44922	64412.15
1496.84016	67424.85
1500.22882	71869.15
1503.61521	77617.95
1506.99934	83449.15
1510.38121	86992.25
1513.76081	86690.75
1517.13816	81954.65
1520.51324	74970.35
1523.88607	68917.55
1527.25665	65091.05
1530.62498	63030.35
1533.99105	61830.35
1537.35488	60846.35
1540.71647	59867.55
1544.07581	58995.85
1547.4329	58260.75
1550.78776	57556.25
1554.14038	57083.65
1557.49077	56988.35
1560.83892	57422.25
1564.18484	58510.55
1567.52853	59889.85
1570.86999	60818.05
1574.20922	61210.25
1577.54624	60848.35
1580.88103	59098.65
1584.2136	56955.25
1587.54395	56143.45
1590.87208	57003.45
1594.19801	59688.25
1597.52172	63045.75
1600.84321	64673.25
1604.16251	63597.45
1607.47959	60914.45
1610.79447	57487.65
1614.10715	53538.05
1617.41763	49905.75
1620.7259	47404.15
1624.03199	46020.95
1627.33587	45857.85
1630.63757	46625.95
1633.93707	48775.65
1637.23439	52573.45
1640.52951	58275.65
1643.82246	65576.05
1647.11321	72266.35
1650.40179	74746.75
1653.68819	70845.25
1656.97241	62421.35
1660.25446	53932.25
1663.53433	47763.75
1666.81203	43952.45
1670.08756	41648.45
1673.36092	40196.25
1676.63211	39260.45
1679.90115	38484.65
1683.16801	37948.75
1686.43272	37540.75
1689.69527	37217.95
1692.95567	37031.95
1696.2139	36847.25
1699.46999	36746.45
1702.72392	36665.15
1705.97571	36612.45
1709.22535	36569.05
1712.47284	36519.55
1715.71819	36463.55
1718.96139	36336.05
1722.20246	36187.15
1725.44139	36090.35
1728.67818	35942.45
1731.91284	35707.75
1735.14537	35517.95
1738.37576	35349.45
1741.60403	35215.75
1744.83017	35089.75
1748.05418	34888.85
1751.27607	34838.35
1754.49584	34706.35
1757.71349	34654.75
1760.92903	34579.05
1764.14244	34585.15
1767.35375	34493.35
1770.56294	34477.95
1773.77002	34399.75
1776.97499	34336.95
1780.17785	34261.15
1783.37861	34225.15
1786.57727	34145.45
1789.77382	34110.35
1792.96828	34068.75
1796.16064	34007.85
1799.3509	33922.45
1802.53907	33857.55
1805.72514	33779.65
1808.90913	33599.85
1812.09102	33545.05
1815.27083	33419.45
1818.44856	33308.05
1821.6242	33294.95
1824.79776	33163.25
1827.96924	33109.25
1831.13864	33081.25
1834.30597	33031.55
1837.47122	32979.25
1840.6344	32918.25
1843.7955	32923.85
1846.95454	32929.15
1850.11151	32847.75
1853.26642	32799.65
1856.41926	32790.05
1859.57004	32746.75
1862.71876	32647.85
1865.86542	32717.05
1869.01003	32692.65
1872.15258	32628.75
1875.29308	32627.35
1878.43152	32559.05
1881.56792	32495.15
1884.70227	32439.95
1887.83457	32439.35
1890.96482	32327.05
1894.09304	32294.95
1897.21921	32207.15
1900.34335	32175.05
1903.46544	32145.15
1906.58551	32137.35
1909.70353	32144.45
1912.81953	32064.45
1915.93349	32011.65
1919.04543	31914.65
1922.15534	31870.45
1925.26322	31758.25
1928.36908	31701.95
1931.47292	31621.35
1934.57473	31526.45
1937.67453	31462.15
1940.77232	31418.85
1943.86808	31373.25
1946.96184	31221.35
1950.05358	31117.75
1953.14331	31011.65
1956.23103	30950.45
1959.31675	30869.15
1962.40046	30776.15
1965.48217	30645.15
1968.56188	30572.05
1971.63959	30484.85
1974.7153	30415.55
1977.78901	30326.55
1980.86073	30251.85
1983.93046	30189.55
1986.99819	30039.55
1990.06394	29962.45
1993.1277	29860.55
1996.18947	29771.35
1999.24925	29700.05
2002.30706	29597.85
2005.36288	29480.95
2008.41672	29427.65
2011.46859	29342.35
2014.51848	29198.85
2017.56639	29106.85
2020.61233	29006.45
2023.6563	28948.45
2026.6983	28875.15
2029.73833	28828.05
2032.7764	28718.45
2035.8125	28670.05
2038.84664	28648.25
2041.87881	28619.05
2044.90903	28548.75
2047.93729	28480.35
2050.96359	28452.35
2053.98794	28415.85
2057.01034	28366.05
2060.03078	28341.85
2063.04927	28339.55
2066.06582	28282.95
2069.08042	28241.55
2072.09307	28169.45
2075.10378	28132.45
2078.11255	28094.15
2081.11938	28081.35
2084.12426	28062.05
2087.12722	28112.05
2090.12824	28108.45
2093.12732	28102.45
2096.12447	28054.35
2099.11969	28042.85
2102.11299	28053.45
2105.10435	28059.55
2108.09379	28083.95
2111.08131	28116.15
2114.0669	28083.15
2117.05057	28107.95
2120.03233	28176.45
2123.01216	28204.95
2125.99008	28216.85
2128.96609	28209.15
2131.94018	28197.25
2134.91236	28231.25
2137.88263	28259.65
2140.851	28220.75
2143.81746	28245.05
2146.78201	28224.95
2149.74466	28271.35
2152.7054	28291.25
2155.66425	28229.05
2158.6212	28196.05
2161.57625	28159.25
2164.52941	28145.35
2167.48067	28138.25
2170.43004	28165.95
2173.37752	28056.45
2176.32311	28050.15
2179.26681	28070.15
2182.20863	28069.15
2185.14856	28080.75
2188.08661	28043.65
2191.02278	27967.25
2193.95707	27942.45
2196.88948	27972.05
2199.82001	27964.35
2202.74867	27942.35
2205.67545	27924.45
2208.60037	27890.25
2211.52341	27831.45
2214.44458	27795.25
2217.36388	27753.75
2220.28132	27651.45
2223.1969	27561.05
2226.11061	27556.65
2229.02246	27498.95
2231.93245	27453.05
2234.84058	27389.15
2237.74686	27341.95
2240.65128	27305.55
2243.55385	27267.95
2246.45456	27228.85
2249.35343	27208.65
2252.25044	27150.25
2255.14561	27183.55
2258.03893	27159.45
2260.93041	27097.15
2263.82004	27025.45
2266.70783	26965.15
2269.59378	26905.75
2272.4779	26853.15
2275.36017	26815.65
2278.24061	26714.25
2281.11922	26721.55
2283.996	26641.45
2286.87094	26593.45
2289.74405	26518.55
2292.61534	26510.25
2295.4848	26440.85
2298.35243	26416.55
2301.21824	26440.35
2304.08223	26440.05
2306.94439	26378.15
2309.80474	26431.65
2312.66327	26342.55
2315.51999	26334.15
2318.37489	26340.45
2321.22797	26326.95
2324.07925	26216.75
2326.92871	26167.15
2329.77637	26134.35
2332.62222	26058.75
2335.46626	26070.75
2338.3085	26039.95
2341.14893	26040.55
2343.98756	26082.25
2346.8244	26085.65
2349.65943	26112.85
2352.49267	26093.25
2355.32411	26016.25
2358.15376	26025.85
2360.98161	26021.15
2363.80768	26035.95
2366.63195	26030.25
2369.45444	26001.55
2372.27514	25922.65
2375.09405	25918.45
2377.91118	25902.05
2380.72652	25818.15
2383.54009	25744.35
2386.35187	25692.75
2389.16188	25579.95
2391.97011	25577.05
2394.77657	25525.05
2397.58125	25418.45
2400.38416	25372.95
2403.18529	25353.05
2405.98466	25291.45
2408.78226	25229.75
2411.57809	25185.85
2414.37216	25227.05
2417.16446	25245.25
2419.955	25216.85
2422.74378	25223.05
2425.5308	25184.65
2428.31606	25184.95
2431.09956	25153.15
2433.88131	25073.15
2436.6613	25136.05
2439.43954	25110.85
2442.21603	25054.35
2444.99077	25041.65
2447.76377	25066.15
2450.53501	25010.75
2453.30451	24986.25
2456.07226	24918.75
2458.83827	24911.45
2461.60254	24886.25
2464.36507	24870.65
2467.12586	24868.75
2469.88492	24836.85
2472.64224	24869.25
2475.39782	24857.25
2478.15167	24861.45
2480.90379	24833.35
2483.65417	24858.25
2486.40283	24877.55
2489.14976	24916.15
2491.89497	24859.05
2494.63845	24861.65
2497.3802	24863.55
2500.12024	24778.35
2502.85855	24758.15
2505.59514	24686.95
2508.33002	24682.05
2511.06318	24631.65
2513.79462	24640.85
2516.52435	24614.35
2519.25237	24567.45
2521.97867	24472.65
2524.70327	24476.25
2527.42616	24403.65
2530.14734	24471.35
2532.86681	24437.55
2535.58458	24431.25
2538.30065	24378.75
2541.01501	24413.15
2543.72768	24346.65
2546.43864	24307.45
2549.14791	24273.95
2551.85548	24265.35
2554.56136	24233.25
2557.26554	24203.75
2559.96803	24139.25
2562.66883	24128.55
2565.36794	24090.25
2568.06536	24055.65
2570.7611	24011.65
2573.45514	23995.55
2576.14751	23979.95
2578.83819	23929.05
2581.52719	23874.55
2584.21451	23838.05
2586.90015	23821.95
2589.58411	23818.45
2592.2664	23807.75
2594.94701	23732.15
2597.62594	23695.25
2600.30321	23651.25
2602.9788	23629.45
2605.65273	23586.35
2608.32498	23627.95
2610.99557	23592.15
2613.66449	23553.95
2616.33175	23575.05
2618.99734	23595.05
2621.66128	23578.05
2624.32355	23521.25
2626.98416	23458.35
2629.64311	23424.55
2632.30041	23445.75
2634.95605	23407.15
2637.61004	23379.75
2640.26238	23371.55
2642.91306	23372.35
2645.56209	23306.45
2648.20948	23296.55
2650.85521	23239.25
2653.4993	23244.15
2656.14175	23214.75
2658.78255	23223.65
2661.42171	23197.55
2664.05923	23286.05
2666.6951	23320.85
2669.32934	23370.45
2671.96194	23377.85
2674.59291	23365.25
2677.22224	23318.55
2679.84993	23325.75
2682.476	23298.35
2685.10043	23289.55
2687.72324	23238.95
2690.34441	23238.95
2692.96396	23238.05
2695.58188	23216.35
2698.19818	23167.95
2700.81285	23229.65
2703.4259	23201.25
2706.03733	23231.95
2708.64714	23198.15
2711.25533	23221.45
2713.86191	23215.85
2716.46687	23229.35
2719.07021	23164.75
2721.67194	23299.25
2724.27206	23255.65
2726.87057	23249.05
2729.46747	23200.35
2732.06276	23229.55
2734.65644	23206.95
2737.24852	23159.45
2739.83899	23171.15
2742.42786	23214.95
2745.01513	23179.85
2747.60079	23086.85
2750.18486	23035.35
2752.76733	23030.35
2755.3482	23025.55
2757.92747	23011.25
2760.50515	22978.85
2763.08123	22972.15
2765.65573	22937.75
2768.22863	22943.95
2770.79994	22885.35
2773.36967	22870.55
2775.9378	22840.45
2778.50435	22840.65
2781.06932	22812.95
2783.6327	22813.85
2786.1945	22827.05
2788.75471	22788.05
2791.31335	22714.85
2793.87041	22672.95
2796.42589	22573.95
2798.97979	22567.05
2801.53212	22527.15
2804.08288	22537.75
2806.63206	22447.95
2809.17967	22390.85
2811.72571	22358.05
2814.27018	22347.45
2816.81308	22305.95
2819.35442	22277.15
2821.89419	22285.85
2824.43239	22223.25
2826.96904	22200.35
2829.50412	22163.15
2832.03763	22057.35
2834.56959	22049.15
2837.1	22010.15
2839.62884	22005.45
2842.15613	21950.05
2844.68186	21974.25
2847.20604	21933.25
2849.72867	21924.55
2852.24974	21883.65
2854.76927	21870.95
2857.28724	21870.05
2859.80367	21858.25
2862.31855	21848.65
2864.83189	21851.45
2867.34368	21815.35
2869.85393	21803.25
2872.36264	21778.25
2874.8698	21742.15
2877.37543	21708.95
2879.87952	21677.75
2882.38207	21653.75
2884.88308	21654.15
2887.38256	21684.55
2889.88051	21626.75
2892.37692	21623.35
2894.8718	21596.05
2897.36515	21618.35
2899.85698	21596.75
2902.34727	21635.05
2904.83604	21687.55
2907.32328	21778.45
2909.809	21757.05
2912.29319	21757.75
2914.77587	21724.35
2917.25702	21753.15
2919.73665	21736.95
2922.21476	21734.15
2924.69136	21645.45
2927.16644	21626.55
2929.64	21569.75
2932.11205	21554.65
2934.58258	21450.35
2937.05161	21486.75
2939.51912	21537.75
2941.98513	21467.65
2944.44962	21432.75
2946.91261	21346.25
2949.37409	21404.15
2951.83407	21397.25
2954.29254	21372.85
2956.74951	21351.75
2959.20498	21382.15
2961.65895	21301.35
2964.11142	21288.65
2966.56239	21243.45
2969.01186	21259.25
2971.45984	21246.95
2973.90632	21254.55
2976.35131	21214.95
2978.7948	21178.05
2981.23681	21129.55
2983.67732	21093.05
2986.11635	21087.35
2988.55388	21010.65
2990.98993	20982.05
2993.4245	20931.65
2995.85758	20920.85
2998.28917	20863.75
3000.71928	20869.95
3003.14791	20774.15
3005.57506	20757.65
3008.00073	20690.05
3010.42493	20652.15
3012.84764	20631.25
3015.26888	20588.05
3017.68865	20560.55
3020.10694	20496.05
3022.52376	20460.65
3024.9391	20411.35
3027.35298	20345.55
3029.76539	20357.05
3032.17632	20324.45
3034.5858	20318.05
3036.9938	20271.55
3039.40034	20248.75
3041.80542	20242.55
3044.20903	20179.15
3046.61118	20149.05
3049.01187	20092.15
3051.4111	20088.45
3053.80888	20063.65
3056.20519	19986.05
3058.60005	19939.25
3060.99345	19915.45
3063.3854	19875.95
3065.7759	19812.85
3068.16494	19792.85
3070.55254	19762.25
3072.93868	19692.05
3075.32338	19615.05
3077.70662	19558.25
3080.08842	19535.95
3082.46878	19530.25
3084.84769	19490.95
3087.22515	19498.45
3089.60118	19462.05
3091.97576	19506.15
3094.3489	19484.05
3096.72061	19443.95
3099.09087	19401.45
3101.4597	19377.45
3103.82709	19375.15
3106.19305	19355.65
3108.55757	19359.85
3110.92066	19291.85
3113.28232	19299.75
3115.64255	19234.95
3118.00134	19192.65
3120.35871	19182.95
3122.71466	19149.75
3125.06917	19060.55
3127.42226	19022.75
3129.77393	19039.55
3132.12417	18999.95
3134.47299	18976.55
3136.82039	18955.55
3139.16636	18954.45
3141.51092	18921.45
3143.85406	18918.15
3146.19579	18889.15
3148.53609	18907.55
3150.87499	18948.15
3153.21246	18943.25
3155.54853	18948.95
3157.88318	18914.95
3160.21642	18945.95
3162.54826	18915.65
3164.87868	18936.25
3167.2077	18920.45
3169.5353	18895.35
3171.86151	18896.85
3174.18631	18897.85
3176.5097	18842.25
3178.83169	18826.95
3181.15228	18752.85
3183.47147	18681.95
3185.78926	18665.95
3188.10565	18590.75
3190.42065	18622.25
3192.73424	18672.75
3195.04645	18626.75
3197.35725	18611.15
3199.66667	18584.35
3201.97469	18575.75
3204.28132	18564.55
3206.58656	18595.35
3208.8904	18603.95
3211.19287	18633.85
3213.49394	18590.25
3215.79363	18546.45
3218.09193	18579.55
3220.38884	18559.75
3222.68438	18601.75
3224.97853	18580.85
3227.2713	18583.35
3229.56269	18531.75
3231.8527	18546.05
3234.14133	18496.65
3236.42858	18451.15
3238.71446	18432.55
3240.99896	18386.15
