Data from AgNPs_UA_100uM_CRN_0uM_R6G_10uM_Q_RamanShift__23__13-39-15-338.txt Node

Date: Tue Jul 26 13:39:15 BST 2022
User: TCL
Spectrometer: QEP01345
Trigger mode: 4
Integration Time (sec): 7.000000E0
Scans to average: 10
Electric dark correction enabled: true
Nonlinearity correction enabled: false
Boxcar width: 0
XAxis mode: Raman Shifts
Number of Pixels in Spectrum: 1044
>>>>>Begin Spectral Data<<<<<
46.04893	-0.525
50.45542	1.875
54.85868	-0.125
59.25871	-0.825
63.6555	54.775
68.04907	58.575
72.43941	63.375
76.82654	66.075
81.21044	69.175
85.59113	73.275
89.96862	76.975
94.34289	77.575
98.71396	81.475
103.08183	84.475
107.4465	81.575
111.80798	84.775
116.16626	82.075
120.52136	88.975
124.87327	84.975
129.222	90.975
133.56755	95.875
137.90993	93.275
142.24913	95.375
146.58517	100.375
150.91804	115.175
155.24774	127.275
159.57429	144.175
163.89768	180.075
168.21792	229.275
172.53501	299.975
176.84895	403.475
181.15975	553.975
185.46741	764.475
189.77193	1049.075
194.07331	1391.075
198.37157	1784.675
202.6667	2188.575
206.9587	2585.575
211.24758	3001.975
215.53334	3417.075
219.81599	3871.475
224.09553	4373.175
228.37195	4917.475
232.64527	5520.275
236.91549	6158.175
241.18261	6746.075
245.44663	7249.775
249.70755	7692.575
253.96539	8080.575
258.22014	8386.475
262.4718	8662.375
266.72039	8828.675
270.96589	8935.075
275.20832	8912.675
279.44768	8757.575
283.68397	8612.375
287.91719	8472.875
292.14735	8451.075
296.37445	8516.275
300.59849	8680.975
304.81948	8871.275
309.03742	8983.675
313.25231	8952.675
317.46415	8750.375
321.67296	8430.375
325.87872	8150.775
330.08145	8043.575
334.28114	8094.075
338.47781	8209.875
342.67145	8350.375
346.86207	8560.575
351.04966	8898.075
355.23424	9241.775
359.4158	9517.275
363.59435	9719.775
367.76989	9823.775
371.94243	9871.775
376.11196	9946.675
380.27849	9998.075
384.44203	9981.575
388.60257	9983.675
392.76012	9998.675
396.91468	10077.975
401.06626	10218.875
405.21485	10337.875
409.36047	10251.075
413.50311	10000.275
417.64277	9752.975
421.77947	9632.775
425.9132	9567.475
430.04396	9584.975
434.17176	9655.275
438.2966	9769.875
442.41849	9972.575
446.53742	10162.675
450.6534	10416.575
454.76644	10532.475
458.87653	10592.875
462.98368	10584.275
467.08789	10484.575
471.18916	10373.375
475.2875	10214.175
479.38291	10117.775
483.4754	10022.775
487.56496	9968.675
491.6516	9939.275
495.73531	9898.575
499.81612	9911.475
503.89401	10004.275
507.96899	10057.875
512.04106	10121.775
516.11023	10215.375
520.1765	10300.675
524.23987	10305.175
528.30034	10300.575
532.35792	10242.475
536.41261	10175.275
540.46441	10082.275
544.51333	10029.275
548.55936	10071.875
552.60252	10167.375
556.64279	10284.775
560.6802	10355.475
564.71473	10429.975
568.7464	10594.375
572.7752	10689.475
576.80114	10569.875
580.82422	10449.375
584.84444	10467.275
588.86181	10537.775
592.87633	10687.475
596.888	10887.175
600.89682	11170.675
604.9028	12009.675
608.90594	14004.575
612.90624	16019.275
616.90371	15085.675
620.89834	12273.175
624.89015	11109.175
628.87913	11020.575
632.86528	11095.175
636.84862	11137.475
640.82913	10992.675
644.80683	10647.975
648.78172	10404.075
652.75379	10422.575
656.72306	10631.775
660.68952	10898.475
664.65319	10787.675
668.61405	10579.475
672.57211	10532.375
676.52738	10519.375
680.47986	10517.975
684.42955	10442.975
688.37646	10462.775
692.32058	10509.275
696.26192	10566.975
700.20048	10632.275
704.13626	10694.375
708.06928	10613.075
711.99952	10545.475
715.927	10547.475
719.85171	10565.675
723.77365	10610.275
727.69284	10592.775
731.60928	10533.575
735.52295	10567.975
739.43388	10581.975
743.34206	10609.475
747.24749	10625.975
751.15017	10673.375
755.05012	10743.275
758.94733	11055.675
762.8418	11681.075
766.73354	12743.275
770.62254	13847.775
774.50882	14364.875
778.39237	13883.575
782.27321	12790.875
786.15132	11716.175
790.02671	11099.475
793.89938	10810.775
797.76935	10709.775
801.6366	10660.375
805.50115	10654.075
809.36299	10652.675
813.22213	10598.575
817.07857	10577.075
820.93231	10558.875
824.78336	10577.975
828.63172	10607.475
832.47738	10608.575
836.32036	10609.675
840.16066	10627.375
843.99827	10644.175
847.8332	10643.475
851.66546	10604.275
855.49504	10624.475
859.32195	10645.875
863.1462	10605.275
866.96777	10581.175
870.78668	10595.175
874.60293	10621.375
878.41652	10659.375
882.22745	10737.775
886.03573	10773.075
889.84136	10771.675
893.64433	10738.075
897.44466	10698.375
901.24235	10653.575
905.0374	10612.475
908.8298	10571.675
912.61957	10554.475
916.40671	10600.675
920.19121	10641.875
923.97308	10742.975
927.75233	10828.575
931.52895	10885.575
935.30295	10854.875
939.07433	10672.575
942.84309	10545.975
946.60924	10537.275
950.37278	10476.375
954.13371	10441.675
957.89203	10398.675
961.64774	10364.975
965.40086	10337.975
969.15137	10310.875
972.89929	10284.375
976.64461	10296.175
980.38733	10310.875
984.12747	10341.375
987.86502	10459.175
991.59999	10563.975
995.33237	10762.375
999.06217	10991.875
1002.78939	11270.175
1006.51404	11418.275
1010.23611	11501.675
1013.95561	11610.175
1017.67255	11652.475
1021.38692	11597.575
1025.09872	11624.475
1028.80796	11725.075
1032.51465	11980.775
1036.21877	12171.375
1039.92035	12170.075
1043.61937	11999.775
1047.31584	11723.875
1051.00976	11482.175
1054.70114	11365.175
1058.38998	11338.175
1062.07627	11323.675
1065.76003	11319.875
1069.44126	11363.675
1073.11995	11448.075
1076.79611	11509.675
1080.46974	11683.075
1084.14085	11800.975
1087.80943	11922.275
1091.47549	11982.175
1095.13903	11854.675
1098.80005	11682.675
1102.45857	11572.975
1106.11456	11567.475
1109.76805	11655.675
1113.41903	11818.875
1117.06751	12037.275
1120.71348	12314.575
1124.35696	12597.775
1127.99793	12733.175
1131.63641	12723.975
1135.2724	12453.775
1138.90589	12162.275
1142.5369	11983.975
1146.16542	11803.275
1149.79145	11668.475
1153.415	11618.475
1157.03607	11626.275
1160.65467	11729.875
1164.27079	11963.375
1167.88443	12372.975
1171.49561	12944.575
1175.10432	13815.575
1178.71056	15035.875
1182.31434	16121.375
1185.91565	16557.375
1189.51451	16353.875
1193.11091	15706.275
1196.70485	14923.975
1200.29634	14357.675
1203.88538	13885.375
1207.47197	13415.075
1211.05612	12997.275
1214.63782	12736.575
1218.21708	12660.775
1221.79391	12689.075
1225.36829	12766.875
1228.94024	12738.475
1232.50976	12605.075
1236.07685	12497.975
1239.6415	12467.175
1243.20374	12530.575
1246.76355	12607.675
1250.32093	12765.875
1253.8759	12943.775
1257.42845	13241.875
1260.97859	13553.875
1264.52631	13806.375
1268.07163	14043.275
1271.61453	14342.675
1275.15503	14642.875
1278.69312	14901.275
1282.22882	15031.875
1285.76211	15224.475
1289.29301	15468.775
1292.82151	15758.175
1296.34761	16168.575
1299.87133	16847.675
1303.39266	17929.575
1306.9116	19364.475
1310.42815	20775.575
1313.94233	21332.075
1317.45412	20758.075
1320.96354	19623.075
1324.47058	18456.475
1327.97525	17523.575
1331.47754	16951.975
1334.97747	16709.475
1338.47502	16833.175
1341.97022	17162.775
1345.46305	17659.075
1348.95352	18313.575
1352.44163	19124.575
1355.92738	20370.975
1359.41078	22260.075
1362.89183	23804.975
1366.37053	22950.175
1369.84688	20127.975
1373.32088	17627.675
1376.79254	16088.175
1380.26186	15263.075
1383.72883	14805.475
1387.19347	14432.575
1390.65578	14088.175
1394.11575	13834.475
1397.57339	13736.075
1401.0287	13744.975
1404.48168	13780.275
1407.93234	13897.675
1411.38068	13985.975
1414.82669	14055.075
1418.27039	13977.975
1421.71177	13854.575
1425.15083	13698.175
1428.58758	13632.975
1432.02203	13701.075
1435.45416	13767.375
1438.88399	13835.175
1442.31151	13834.475
1445.73673	13804.575
1449.15965	13835.375
1452.58027	13810.175
1455.9986	13759.475
1459.41463	13766.275
1462.82837	13885.675
1466.23982	14071.075
1469.64898	14324.275
1473.05586	14500.175
1476.46045	14651.275
1479.86276	14774.175
1483.26279	14924.475
1486.66054	15163.675
1490.05602	15428.775
1493.44922	15851.375
1496.84016	16480.175
1500.22882	17468.775
1503.61521	18880.375
1506.99934	20377.875
1510.38121	21410.275
1513.76081	21237.375
1517.13816	19926.075
1520.51324	18172.975
1523.88607	16678.175
1527.25665	15741.675
1530.62498	15253.775
1533.99105	14976.475
1537.35488	14830.575
1540.71647	14738.175
1544.07581	14664.975
1547.4329	14662.175
1550.78776	14594.575
1554.14038	14598.175
1557.49077	14634.975
1560.83892	14716.675
1564.18484	14844.575
1567.52853	15081.375
1570.86999	15275.475
1574.20922	15395.975
1577.54624	15312.575
1580.88103	14906.175
1584.2136	14462.875
1587.54395	14312.575
1590.87208	14618.275
1594.19801	15378.175
1597.52172	16199.075
1600.84321	16573.375
1604.16251	16227.275
1607.47959	15520.075
1610.79447	14660.675
1614.10715	13867.175
1617.41763	13234.375
1620.7259	12799.175
1624.03199	12603.775
1627.33587	12615.775
1630.63757	12804.575
1633.93707	13264.575
1637.23439	13931.075
1640.52951	14857.275
1643.82246	15977.375
1647.11321	17115.575
1650.40179	17571.475
1653.68819	16857.475
1656.97241	15259.575
1660.25446	13665.475
1663.53433	12560.175
1666.81203	11902.775
1670.08756	11486.075
1673.36092	11199.275
1676.63211	11006.675
1679.90115	10889.775
1683.16801	10774.575
1686.43272	10695.175
1689.69527	10615.475
1692.95567	10570.275
1696.2139	10526.875
1699.46999	10475.975
1702.72392	10475.075
1705.97571	10425.175
1709.22535	10413.175
1712.47284	10406.775
1715.71819	10409.875
1718.96139	10379.075
1722.20246	10356.875
1725.44139	10317.375
1728.67818	10250.475
1731.91284	10233.875
1735.14537	10180.175
1738.37576	10149.175
1741.60403	10099.975
1744.83017	10098.375
1748.05418	10082.975
1751.27607	10044.975
1754.49584	10019.875
1757.71349	10034.675
1760.92903	10019.575
1764.14244	10012.175
1767.35375	10027.375
1770.56294	9991.175
1773.77002	9986.175
1776.97499	9973.075
1780.17785	9955.075
1783.37861	9966.275
1786.57727	9935.275
1789.77382	9949.575
1792.96828	9912.175
1796.16064	9937.675
1799.3509	9922.775
1802.53907	9888.875
1805.72514	9881.975
1808.90913	9846.675
1812.09102	9825.175
1815.27083	9814.775
1818.44856	9801.175
1821.6242	9813.975
1824.79776	9763.475
1827.96924	9789.675
1831.13864	9743.475
1834.30597	9760.675
1837.47122	9733.775
1840.6344	9757.275
1843.7955	9729.575
1846.95454	9714.075
1850.11151	9730.075
1853.26642	9730.775
1856.41926	9723.875
1859.57004	9753.275
1862.71876	9719.675
1865.86542	9701.675
1869.01003	9713.075
1872.15258	9707.475
1875.29308	9723.775
1878.43152	9706.575
1881.56792	9725.775
1884.70227	9683.875
1887.83457	9692.975
1890.96482	9689.775
1894.09304	9670.875
1897.21921	9663.275
1900.34335	9670.775
1903.46544	9649.875
1906.58551	9651.375
1909.70353	9626.875
1912.81953	9647.975
1915.93349	9641.675
1919.04543	9621.775
1922.15534	9623.175
1925.26322	9628.375
1928.36908	9603.675
1931.47292	9582.575
1934.57473	9574.575
1937.67453	9555.775
1940.77232	9526.775
1943.86808	9510.375
1946.96184	9483.675
1950.05358	9434.475
1953.14331	9440.375
1956.23103	9427.875
1959.31675	9381.975
1962.40046	9381.175
1965.48217	9351.275
1968.56188	9329.075
1971.63959	9280.575
1974.7153	9276.575
1977.78901	9245.075
1980.86073	9235.075
1983.93046	9209.675
1986.99819	9196.075
1990.06394	9191.075
1993.1277	9144.875
1996.18947	9098.475
1999.24925	9070.475
2002.30706	9073.675
2005.36288	9030.975
2008.41672	9036.075
2011.46859	8984.675
2014.51848	8976.875
2017.56639	8942.075
2020.61233	8954.375
2023.6563	8924.075
2026.6983	8904.475
2029.73833	8885.975
2032.7764	8878.975
2035.8125	8859.375
2038.84664	8858.575
2041.87881	8834.675
2044.90903	8839.875
2047.93729	8835.675
2050.96359	8831.775
2053.98794	8800.775
2057.01034	8780.275
2060.03078	8806.275
2063.04927	8786.775
2066.06582	8789.975
2069.08042	8797.575
2072.09307	8774.675
2075.10378	8765.975
2078.11255	8763.675
2081.11938	8761.875
2084.12426	8777.875
2087.12722	8766.475
2090.12824	8757.575
2093.12732	8777.675
2096.12447	8767.075
2099.11969	8758.675
2102.11299	8774.775
2105.10435	8776.575
2108.09379	8794.475
2111.08131	8774.975
2114.0669	8794.875
2117.05057	8818.075
2120.03233	8811.775
2123.01216	8848.775
2125.99008	8852.975
2128.96609	8863.075
2131.94018	8859.975
2134.91236	8858.275
2137.88263	8889.875
2140.851	8894.275
2143.81746	8927.675
2146.78201	8865.075
2149.74466	8886.975
2152.7054	8907.575
2155.66425	8891.575
2158.6212	8912.075
2161.57625	8895.975
2164.52941	8900.175
2167.48067	8899.975
2170.43004	8882.475
2173.37752	8872.275
2176.32311	8899.875
2179.26681	8902.575
2182.20863	8902.975
2185.14856	8942.175
2188.08661	8909.775
2191.02278	8921.675
2193.95707	8900.375
2196.88948	8912.175
2199.82001	8925.875
2202.74867	8942.475
2205.67545	8913.775
2208.60037	8939.375
2211.52341	8901.975
2214.44458	8920.375
2217.36388	8894.375
2220.28132	8877.575
2223.1969	8843.675
2226.11061	8840.475
2229.02246	8821.975
2231.93245	8820.575
2234.84058	8813.275
2237.74686	8789.475
2240.65128	8778.875
2243.55385	8788.375
2246.45456	8764.875
2249.35343	8760.075
2252.25044	8758.175
2255.14561	8743.975
2258.03893	8733.675
2260.93041	8705.475
2263.82004	8711.675
2266.70783	8721.875
2269.59378	8704.375
2272.4779	8690.575
2275.36017	8656.375
2278.24061	8652.775
2281.11922	8628.875
2283.996	8620.675
2286.87094	8608.875
2289.74405	8598.875
2292.61534	8591.275
2295.4848	8574.875
2298.35243	8610.475
2301.21824	8582.375
2304.08223	8604.975
2306.94439	8608.075
2309.80474	8619.075
2312.66327	8601.675
2315.51999	8613.775
2318.37489	8599.275
2321.22797	8586.675
2324.07925	8587.375
2326.92871	8581.075
2329.77637	8580.875
2332.62222	8578.875
2335.46626	8547.375
2338.3085	8555.575
2341.14893	8558.075
2343.98756	8570.875
2346.8244	8572.975
2349.65943	8589.775
2352.49267	8556.275
2355.32411	8550.275
2358.15376	8560.175
2360.98161	8535.375
2363.80768	8562.575
2366.63195	8546.375
2369.45444	8543.775
2372.27514	8522.075
2375.09405	8529.875
2377.91118	8493.875
2380.72652	8479.275
2383.54009	8436.975
2386.35187	8443.575
2389.16188	8417.775
2391.97011	8419.675
2394.77657	8402.175
2397.58125	8398.375
2400.38416	8385.975
2403.18529	8353.975
2405.98466	8376.775
2408.78226	8329.875
2411.57809	8321.475
2414.37216	8332.875
2417.16446	8316.475
2419.955	8310.475
2422.74378	8290.575
2425.5308	8299.875
2428.31606	8291.875
2431.09956	8288.975
2433.88131	8288.475
2436.6613	8287.475
2439.43954	8288.475
2442.21603	8296.975
2444.99077	8304.275
2447.76377	8285.075
2450.53501	8285.175
2453.30451	8258.675
2456.07226	8242.575
2458.83827	8255.475
2461.60254	8250.875
2464.36507	8264.975
2467.12586	8236.475
2469.88492	8242.475
2472.64224	8257.275
2475.39782	8252.575
2478.15167	8251.875
2480.90379	8268.575
2483.65417	8267.775
2486.40283	8264.475
2489.14976	8265.775
2491.89497	8274.575
2494.63845	8260.375
2497.3802	8267.375
2500.12024	8280.675
2502.85855	8258.375
2505.59514	8252.475
2508.33002	8217.375
2511.06318	8244.875
2513.79462	8215.875
2516.52435	8223.775
2519.25237	8212.375
2521.97867	8195.975
2524.70327	8177.175
2527.42616	8180.775
2530.14734	8178.175
2532.86681	8152.275
2535.58458	8151.775
2538.30065	8146.875
2541.01501	8160.375
2543.72768	8158.175
2546.43864	8144.375
2549.14791	8145.475
2551.85548	8115.575
2554.56136	8117.575
2557.26554	8129.775
2559.96803	8113.775
2562.66883	8115.175
2565.36794	8089.075
2568.06536	8053.375
2570.7611	8071.275
2573.45514	8042.875
2576.14751	8065.175
2578.83819	8063.875
2581.52719	8067.175
2584.21451	8039.375
2586.90015	8045.175
2589.58411	8036.275
2592.2664	8042.375
2594.94701	8038.975
2597.62594	8054.775
2600.30321	7999.175
2602.9788	8001.175
2605.65273	7985.075
2608.32498	8006.075
2610.99557	8010.075
2613.66449	7991.675
2616.33175	7999.275
2618.99734	8003.575
2621.66128	7977.775
2624.32355	7978.475
2626.98416	7973.775
2629.64311	7987.675
2632.30041	7989.475
2634.95605	7991.675
2637.61004	7982.475
2640.26238	7963.575
2642.91306	7957.575
2645.56209	7936.575
2648.20948	7940.275
2650.85521	7934.175
2653.4993	7944.375
2656.14175	7917.975
2658.78255	7924.175
2661.42171	7923.575
2664.05923	7936.675
2666.6951	7939.975
2669.32934	7954.775
2671.96194	7941.275
2674.59291	7938.775
2677.22224	7939.975
2679.84993	7954.975
2682.476	7956.475
2685.10043	7945.475
2687.72324	7936.775
2690.34441	7924.875
2692.96396	7927.675
2695.58188	7931.675
2698.19818	7926.675
2700.81285	7927.875
2703.4259	7906.075
2706.03733	7920.375
2708.64714	7926.775
2711.25533	7938.275
2713.86191	7954.375
2716.46687	7955.675
2719.07021	7945.775
2721.67194	7960.475
2724.27206	7944.075
2726.87057	7968.575
2729.46747	7959.975
2732.06276	7975.275
2734.65644	7958.975
2737.24852	7956.875
2739.83899	7957.675
2742.42786	7938.975
2745.01513	7933.575
2747.60079	7920.675
2750.18486	7910.575
2752.76733	7906.775
2755.3482	7907.675
2757.92747	7898.275
2760.50515	7895.975
2763.08123	7895.275
2765.65573	7897.175
2768.22863	7885.275
2770.79994	7875.075
2773.36967	7876.975
2775.9378	7866.775
2778.50435	7853.675
2781.06932	7872.275
2783.6327	7852.775
2786.1945	7855.075
2788.75471	7853.375
2791.31335	7826.175
2793.87041	7805.275
2796.42589	7823.075
2798.97979	7827.175
2801.53212	7795.575
2804.08288	7781.775
2806.63206	7760.875
2809.17967	7758.675
2811.72571	7737.475
2814.27018	7738.575
2816.81308	7740.675
2819.35442	7708.675
2821.89419	7711.275
2824.43239	7722.875
2826.96904	7701.375
2829.50412	7697.175
2832.03763	7663.875
2834.56959	7683.575
2837.1	7686.875
2839.62884	7685.575
2842.15613	7664.675
2844.68186	7664.075
2847.20604	7664.175
2849.72867	7679.475
2852.24974	7648.075
2854.76927	7627.675
2857.28724	7650.675
2859.80367	7631.475
2862.31855	7645.375
2864.83189	7630.175
2867.34368	7615.675
2869.85393	7633.975
2872.36264	7590.575
2874.8698	7594.275
2877.37543	7633.175
2879.87952	7589.875
2882.38207	7607.975
2884.88308	7626.675
2887.38256	7638.275
2889.88051	7632.575
2892.37692	7657.675
2894.8718	7629.375
2897.36515	7639.275
2899.85698	7630.975
2902.34727	7669.575
2904.83604	7659.575
2907.32328	7692.675
2909.809	7689.575
2912.29319	7692.075
2914.77587	7690.975
2917.25702	7677.475
2919.73665	7665.975
2922.21476	7673.275
2924.69136	7653.375
2927.16644	7672.175
2929.64	7658.075
2932.11205	7645.575
2934.58258	7609.475
2937.05161	7602.975
2939.51912	7625.575
2941.98513	7662.575
2944.44962	7648.775
2946.91261	7614.575
2949.37409	7614.975
2951.83407	7625.175
2954.29254	7626.675
2956.74951	7626.075
2959.20498	7632.675
2961.65895	7634.475
2964.11142	7617.575
2966.56239	7608.675
2969.01186	7615.275
2971.45984	7620.675
2973.90632	7598.675
2976.35131	7594.975
2978.7948	7584.275
2981.23681	7573.775
2983.67732	7553.375
2986.11635	7556.375
2988.55388	7541.775
2990.98993	7516.675
2993.4245	7528.575
2995.85758	7516.075
2998.28917	7494.575
3000.71928	7492.975
3003.14791	7475.775
3005.57506	7470.175
3008.00073	7438.975
3010.42493	7453.175
3012.84764	7440.375
3015.26888	7441.175
3017.68865	7415.775
3020.10694	7417.075
3022.52376	7377.175
3024.9391	7405.075
3027.35298	7404.975
3029.76539	7389.275
3032.17632	7395.775
3034.5858	7397.975
3036.9938	7363.775
3039.40034	7352.775
3041.80542	7372.375
3044.20903	7376.375
3046.61118	7371.175
3049.01187	7343.175
3051.4111	7347.875
3053.80888	7323.175
3056.20519	7317.075
3058.60005	7303.975
3060.99345	7275.875
3063.3854	7294.175
3065.7759	7272.475
3068.16494	7265.875
3070.55254	7239.175
3072.93868	7236.675
3075.32338	7211.175
3077.70662	7214.275
3080.08842	7180.375
3082.46878	7201.575
3084.84769	7182.775
3087.22515	7193.375
3089.60118	7207.175
3091.97576	7207.575
3094.3489	7228.175
3096.72061	7215.275
3099.09087	7225.475
3101.4597	7231.375
3103.82709	7264.675
3106.19305	7234.975
3108.55757	7239.275
3110.92066	7240.975
3113.28232	7208.275
3115.64255	7204.675
3118.00134	7215.775
3120.35871	7211.275
3122.71466	7193.675
3125.06917	7203.175
3127.42226	7166.675
3129.77393	7188.175
3132.12417	7176.375
3134.47299	7164.575
3136.82039	7172.075
3139.16636	7187.575
3141.51092	7175.475
3143.85406	7198.375
3146.19579	7200.275
3148.53609	7184.775
3150.87499	7206.275
3153.21246	7213.075
3155.54853	7236.675
3157.88318	7255.275
3160.21642	7262.475
3162.54826	7245.875
3164.87868	7259.975
3167.2077	7284.375
3169.5353	7277.575
3171.86151	7249.875
3174.18631	7285.975
3176.5097	7265.875
3178.83169	7279.075
3181.15228	7263.375
3183.47147	7259.675
3185.78926	7256.075
3188.10565	7243.075
3190.42065	7240.875
3192.73424	7255.975
3195.04645	7249.175
