Data from AgNPs_UA_5uM_CRN_0uM_R6G_10uM_Q_RamanShift__12__11-03-15-303.txt Node

Date: Mon Jul 18 11:03:15 BST 2022
User: TCL
Spectrometer: QEP01345
Trigger mode: 4
Integration Time (sec): 7.000000E0
Scans to average: 10
Electric dark correction enabled: true
Nonlinearity correction enabled: false
Boxcar width: 0
XAxis mode: Raman Shifts
Number of Pixels in Spectrum: 1044
>>>>>Begin Spectral Data<<<<<
46.04893	-0.8875
50.45542	-2.6875
54.85868	-1.8875
59.25871	-2.0875
63.6555	188.7125
68.04907	191.2125
72.43941	201.0125
76.82654	207.5125
81.21044	210.2125
85.59113	213.1125
89.96862	223.7125
94.34289	228.5125
98.71396	238.4125
103.08183	245.0125
107.4465	257.3125
111.80798	262.5125
116.16626	272.6125
120.52136	289.3125
124.87327	307.3125
129.222	320.6125
133.56755	346.4125
137.90993	378.2125
142.24913	420.7125
146.58517	478.4125
150.91804	560.8125
155.24774	680.3125
159.57429	877.1125
163.89768	1104.0125
168.21792	1471.8125
172.53501	2027.9125
176.84895	2845.5125
181.15975	4029.1125
185.46741	5700.7125
189.77193	7887.4125
194.07331	10574.3125
198.37157	13701.4125
202.6667	16936.6125
206.9587	20099.5125
211.24758	23317.4125
215.53334	26483.7125
219.81599	29836.7125
224.09553	33476.0125
228.37195	37583.3125
232.64527	42004.9125
236.91549	46612.3125
241.18261	51231.5125
245.44663	55505.3125
249.70755	59446.0125
253.96539	62798.0125
258.22014	65714.8125
262.4718	68016.1125
266.72039	69479.3125
270.96589	70184.9125
275.20832	70169.5125
279.44768	69554.0125
283.68397	68771.4125
287.91719	68042.5125
292.14735	67477.9125
296.37445	67469.4125
300.59849	67701.0125
304.81948	68104.1125
309.03742	68488.3125
313.25231	68501.9125
317.46415	67928.0125
321.67296	66782.4125
325.87872	65901.1125
330.08145	65567.5125
334.28114	65844.5125
338.47781	66665.2125
342.67145	67571.5125
346.86207	68739.9125
351.04966	70113.4125
355.23424	71603.7125
359.4158	72987.8125
363.59435	74104.7125
367.76989	74882.8125
371.94243	75428.4125
376.11196	75826.9125
380.27849	76264.7125
384.44203	76899.0125
388.60257	77604.4125
392.76012	78399.9125
396.91468	79307.7125
401.06626	80331.5125
405.21485	80908.0125
409.36047	80782.0125
413.50311	79952.8125
417.64277	79248.1125
421.77947	78960.3125
425.9132	78823.3125
430.04396	78974.8125
434.17176	79368.9125
438.2966	79965.0125
442.41849	80680.8125
446.53742	81761.9125
450.6534	83170.3125
454.76644	84452.4125
458.87653	85110.2125
462.98368	85394.2125
467.08789	85393.7125
471.18916	84973.1125
475.2875	84083.7125
479.38291	83357.6125
483.4754	82735.3125
487.56496	82256.9125
491.6516	82027.4125
495.73531	81801.3125
499.81612	82027.8125
503.89401	82675.2125
507.96899	82976.0125
512.04106	83112.7125
516.11023	83291.4125
520.1765	83394.7125
524.23987	83306.7125
528.30034	83176.1125
532.35792	83200.3125
536.41261	82849.0125
540.46441	82324.8125
544.51333	82320.7125
548.55936	82861.8125
552.60252	83747.0125
556.64279	84709.6125
560.6802	85459.2125
564.71473	86029.8125
568.7464	86450.9125
572.7752	86721.3125
576.80114	86822.6125
580.82422	87228.2125
584.84444	87818.9125
588.86181	88299.4125
592.87633	88550.1125
596.888	89121.0125
600.89682	90680.7125
604.9028	94926.0125
608.90594	103758.0125
612.90624	111387.6125
616.90371	105587.9125
620.89834	92772.0125
624.89015	87544.8125
628.87913	87207.4125
632.86528	88349.9125
636.84862	88955.0125
640.82913	88321.0125
644.80683	86803.9125
648.78172	85811.0125
652.75379	85760.0125
656.72306	86862.3125
660.68952	88329.7125
664.65319	88346.3125
668.61405	88046.0125
672.57211	88717.9125
676.52738	88838.0125
680.47986	87947.8125
684.42955	86925.6125
688.37646	86741.8125
692.32058	87262.0125
696.26192	88426.3125
700.20048	89473.9125
704.13626	89840.5125
708.06928	89503.4125
711.99952	88951.5125
715.927	88584.3125
719.85171	88753.7125
723.77365	88782.6125
727.69284	88408.2125
731.60928	87997.4125
735.52295	87800.7125
739.43388	87848.4125
743.34206	88096.7125
747.24749	88287.3125
751.15017	88506.4125
755.05012	89150.1125
758.94733	90573.9125
762.8418	93632.0125
766.73354	98553.6125
770.62254	102888.5125
774.50882	104314.4125
778.39237	103055.6125
782.27321	99913.8125
786.15132	95900.2125
790.02671	92615.6125
793.89938	90732.5125
797.76935	89709.0125
801.6366	89167.0125
805.50115	88864.7125
809.36299	88711.7125
813.22213	88567.8125
817.07857	88445.5125
820.93231	88552.0125
824.78336	88682.4125
828.63172	88833.3125
832.47738	88738.7125
836.32036	88622.5125
840.16066	88648.9125
843.99827	88618.2125
847.8332	88554.6125
851.66546	88776.2125
855.49504	89023.3125
859.32195	89174.5125
863.1462	89204.1125
866.96777	89347.0125
870.78668	89485.3125
874.60293	89672.3125
878.41652	89892.7125
882.22745	90245.1125
886.03573	90473.8125
889.84136	90427.6125
893.64433	90310.2125
897.44466	90160.3125
901.24235	90122.3125
905.0374	90072.1125
908.8298	90053.2125
912.61957	89865.6125
916.40671	90032.5125
920.19121	90203.3125
923.97308	90541.1125
927.75233	90930.0125
931.52895	91067.2125
935.30295	90855.2125
939.07433	90154.5125
942.84309	89501.9125
946.60924	89042.0125
950.37278	88895.8125
954.13371	88904.5125
957.89203	89020.4125
961.64774	89004.0125
965.40086	88989.3125
969.15137	88708.1125
972.89929	88645.8125
976.64461	88695.6125
980.38733	88869.5125
984.12747	89045.1125
987.86502	89323.4125
991.59999	89529.9125
995.33237	89861.5125
999.06217	90409.1125
1002.78939	91250.4125
1006.51404	92285.8125
1010.23611	93381.6125
1013.95561	94079.6125
1017.67255	94316.7125
1021.38692	94261.8125
1025.09872	93650.3125
1028.80796	92703.0125
1032.51465	92206.8125
1036.21877	92338.0125
1039.92035	92604.8125
1043.61937	92946.6125
1047.31584	93181.9125
1051.00976	93369.2125
1054.70114	93677.6125
1058.38998	94156.7125
1062.07627	94793.0125
1065.76003	95614.6125
1069.44126	96510.2125
1073.11995	98039.1125
1076.79611	99644.0125
1080.46974	100369.0125
1084.14085	100588.9125
1087.80943	100952.9125
1091.47549	101467.7125
1095.13903	101722.0125
1098.80005	102074.1125
1102.45857	102633.8125
1106.11456	102322.6125
1109.76805	100787.2125
1113.41903	99877.8125
1117.06751	99847.8125
1120.71348	100245.8125
1124.35696	100635.9125
1127.99793	101183.9125
1131.63641	100875.1125
1135.2724	99781.7125
1138.90589	98916.8125
1142.5369	98448.8125
1146.16542	98189.9125
1149.79145	98050.1125
1153.415	97691.2125
1157.03607	97473.6125
1160.65467	98093.7125
1164.27079	99441.0125
1167.88443	101516.4125
1171.49561	104296.5125
1175.10432	108083.9125
1178.71056	113004.9125
1182.31434	117231.2125
1185.91565	119631.8125
1189.51451	120401.6125
1193.11091	120127.5125
1196.70485	118771.2125
1200.29634	116764.7125
1203.88538	114427.3125
1207.47197	112032.6125
1211.05612	109682.7125
1214.63782	107782.7125
1218.21708	106187.5125
1221.79391	104816.1125
1225.36829	103901.6125
1228.94024	103583.9125
1232.50976	103600.5125
1236.07685	103720.3125
1239.6415	103959.5125
1243.20374	104355.9125
1246.76355	104801.8125
1250.32093	105393.4125
1253.8759	106412.3125
1257.42845	108242.6125
1260.97859	110195.4125
1264.52631	112178.2125
1268.07163	113661.4125
1271.61453	114684.0125
1275.15503	115298.5125
1278.69312	115569.7125
1282.22882	115720.9125
1285.76211	116286.6125
1289.29301	117203.4125
1292.82151	118353.1125
1296.34761	119831.7125
1299.87133	122079.3125
1303.39266	125227.4125
1306.9116	129746.1125
1310.42815	134561.0125
1313.94233	137194.1125
1317.45412	136477.5125
1320.96354	134636.0125
1324.47058	132471.0125
1327.97525	130269.3125
1331.47754	128627.0125
1334.97747	128063.2125
1338.47502	128852.3125
1341.97022	131376.0125
1345.46305	135350.3125
1348.95352	139638.7125
1352.44163	142929.5125
1355.92738	145483.1125
1359.41078	148002.9125
1362.89183	149756.7125
1366.37053	145719.8125
1369.84688	135914.6125
1373.32088	126093.6125
1376.79254	119609.0125
1380.26186	115977.5125
1383.72883	113911.7125
1387.19347	111966.0125
1390.65578	110088.7125
1394.11575	108334.5125
1397.57339	107029.7125
1401.0287	106363.0125
1404.48168	106240.9125
1407.93234	106637.8125
1411.38068	107213.0125
1414.82669	107365.5125
1418.27039	106655.9125
1421.71177	105775.5125
1425.15083	105256.4125
1428.58758	104896.9125
1432.02203	104846.8125
1435.45416	105203.7125
1438.88399	105411.2125
1442.31151	105489.2125
1445.73673	105770.2125
1449.15965	106082.1125
1452.58027	106188.0125
1455.9986	106039.4125
1459.41463	106547.4125
1462.82837	107719.1125
1466.23982	109296.9125
1469.64898	110673.4125
1473.05586	111711.1125
1476.46045	112660.5125
1479.86276	113252.7125
1483.26279	113710.9125
1486.66054	114373.0125
1490.05602	115641.9125
1493.44922	117804.9125
1496.84016	121180.1125
1500.22882	126185.2125
1503.61521	132276.6125
1506.99934	137670.5125
1510.38121	140455.4125
1513.76081	139083.9125
1517.13816	134096.3125
1520.51324	127670.8125
1523.88607	122110.3125
1527.25665	118461.5125
1530.62498	116517.8125
1533.99105	115337.3125
1537.35488	114215.9125
1540.71647	113295.2125
1544.07581	112499.1125
1547.4329	111775.0125
1550.78776	111015.2125
1554.14038	110461.0125
1557.49077	110323.5125
1560.83892	110641.0125
1564.18484	111444.2125
1567.52853	112570.4125
1570.86999	113520.2125
1574.20922	114208.3125
1577.54624	113955.5125
1580.88103	112172.0125
1584.2136	109960.4125
1587.54395	108839.9125
1590.87208	109521.7125
1594.19801	111901.7125
1597.52172	114916.4125
1600.84321	116474.7125
1604.16251	115690.7125
1607.47959	113681.2125
1610.79447	110362.2125
1614.10715	106437.7125
1617.41763	102540.4125
1620.7259	99431.5125
1624.03199	97528.1125
1627.33587	96903.7125
1630.63757	97528.1125
1633.93707	99494.4125
1637.23439	103052.5125
1640.52951	108424.2125
1643.82246	115638.1125
1647.11321	122099.4125
1650.40179	124868.7125
1653.68819	121431.4125
1656.97241	113423.9125
1660.25446	104776.1125
1663.53433	98341.5125
1666.81203	94066.2125
1670.08756	91438.3125
1673.36092	89744.0125
1676.63211	88445.9125
1679.90115	87576.0125
1683.16801	86759.3125
1686.43272	86132.6125
1689.69527	85726.9125
1692.95567	85315.2125
1696.2139	85051.6125
1699.46999	84879.5125
1702.72392	84742.3125
1705.97571	84751.3125
1709.22535	84669.5125
1712.47284	84738.7125
1715.71819	84832.8125
1718.96139	84773.5125
1722.20246	84506.1125
1725.44139	84171.9125
1728.67818	83865.7125
1731.91284	83620.5125
1735.14537	83366.7125
1738.37576	83120.0125
1741.60403	82931.1125
1744.83017	82755.0125
1748.05418	82591.4125
1751.27607	82512.9125
1754.49584	82269.4125
1757.71349	82207.8125
1760.92903	82069.3125
1764.14244	82152.2125
1767.35375	81865.8125
1770.56294	81706.4125
1773.77002	81701.9125
1776.97499	81684.5125
1780.17785	81521.1125
1783.37861	81323.3125
1786.57727	81236.9125
1789.77382	81173.4125
1792.96828	80944.1125
1796.16064	80912.2125
1799.3509	80868.3125
1802.53907	80612.0125
1805.72514	80482.6125
1808.90913	80310.6125
1812.09102	80233.1125
1815.27083	79966.3125
1818.44856	79815.7125
1821.6242	79872.0125
1824.79776	79711.9125
1827.96924	79529.4125
1831.13864	79294.3125
1834.30597	79285.5125
1837.47122	79114.9125
1840.6344	79068.6125
1843.7955	79218.0125
1846.95454	79109.9125
1850.11151	78967.6125
1853.26642	78832.7125
1856.41926	78753.9125
1859.57004	78725.4125
1862.71876	78721.8125
1865.86542	78722.2125
1869.01003	78596.1125
1872.15258	78663.2125
1875.29308	78485.9125
1878.43152	78223.5125
1881.56792	78110.5125
1884.70227	78000.3125
1887.83457	77829.7125
1890.96482	77849.7125
1894.09304	77820.9125
1897.21921	77661.6125
1900.34335	77572.4125
1903.46544	77508.3125
1906.58551	77309.5125
1909.70353	77263.7125
1912.81953	77061.9125
1915.93349	76892.7125
1919.04543	76770.1125
1922.15534	76707.0125
1925.26322	76620.1125
1928.36908	76409.2125
1931.47292	76283.3125
1934.57473	76021.8125
1937.67453	75826.2125
1940.77232	75737.0125
1943.86808	75493.5125
1946.96184	75252.5125
1950.05358	74947.1125
1953.14331	74820.6125
1956.23103	74656.7125
1959.31675	74369.7125
1962.40046	74175.0125
1965.48217	73974.6125
1968.56188	73696.6125
1971.63959	73541.2125
1974.7153	73313.4125
1977.78901	73169.8125
1980.86073	72854.6125
1983.93046	72645.2125
1986.99819	72301.7125
1990.06394	72171.2125
1993.1277	71978.6125
1996.18947	71716.4125
1999.24925	71585.0125
2002.30706	71448.4125
2005.36288	71361.8125
2008.41672	71170.2125
2011.46859	70953.7125
2014.51848	70721.3125
2017.56639	70656.5125
2020.61233	70533.8125
2023.6563	70304.9125
2026.6983	69992.9125
2029.73833	69736.3125
2032.7764	69389.9125
2035.8125	69352.9125
2038.84664	69108.9125
2041.87881	69084.6125
2044.90903	68811.7125
2047.93729	68666.8125
2050.96359	68707.2125
2053.98794	68597.0125
2057.01034	68513.1125
2060.03078	68470.3125
2063.04927	68306.5125
2066.06582	68212.1125
2069.08042	68181.9125
2072.09307	68155.0125
2075.10378	68135.4125
2078.11255	68038.3125
2081.11938	68036.7125
2084.12426	67904.9125
2087.12722	67804.6125
2090.12824	67749.2125
2093.12732	67797.0125
2096.12447	67853.1125
2099.11969	67875.0125
2102.11299	67956.2125
2105.10435	67942.2125
2108.09379	67990.2125
2111.08131	68006.2125
2114.0669	67933.6125
2117.05057	68009.2125
2120.03233	68003.9125
2123.01216	68028.7125
2125.99008	68104.7125
2128.96609	68221.3125
2131.94018	68213.0125
2134.91236	68256.4125
2137.88263	68350.2125
2140.851	68406.0125
2143.81746	68424.4125
2146.78201	68458.0125
2149.74466	68504.2125
2152.7054	68396.6125
2155.66425	68434.5125
2158.6212	68343.1125
2161.57625	68304.6125
2164.52941	68188.3125
2167.48067	68241.5125
2170.43004	68323.7125
2173.37752	68236.7125
2176.32311	68038.1125
2179.26681	68080.7125
2182.20863	68065.2125
2185.14856	68153.9125
2188.08661	68111.5125
2191.02278	68108.9125
2193.95707	68030.9125
2196.88948	67967.7125
2199.82001	67982.3125
2202.74867	67791.8125
2205.67545	67743.4125
2208.60037	67553.9125
2211.52341	67419.3125
2214.44458	67247.0125
2217.36388	67089.6125
2220.28132	67022.3125
2223.1969	66777.2125
2226.11061	66619.5125
2229.02246	66543.9125
2231.93245	66457.9125
2234.84058	66368.4125
2237.74686	66188.7125
2240.65128	66088.1125
2243.55385	65954.4125
2246.45456	65987.0125
2249.35343	65883.6125
2252.25044	65814.0125
2255.14561	65720.6125
2258.03893	65655.2125
2260.93041	65452.7125
2263.82004	65282.5125
2266.70783	65146.4125
2269.59378	65092.1125
2272.4779	65052.8125
2275.36017	64821.7125
2278.24061	64675.0125
2281.11922	64508.5125
2283.996	64384.5125
2286.87094	64312.9125
2289.74405	64148.9125
2292.61534	64053.8125
2295.4848	63944.5125
2298.35243	63864.8125
2301.21824	63835.9125
2304.08223	63716.7125
2306.94439	63664.3125
2309.80474	63583.7125
2312.66327	63636.2125
2315.51999	63491.3125
2318.37489	63534.7125
2321.22797	63381.9125
2324.07925	63164.6125
2326.92871	63081.0125
2329.77637	63046.9125
2332.62222	62850.2125
2335.46626	62782.1125
2338.3085	62722.4125
2341.14893	62645.4125
2343.98756	62615.0125
2346.8244	62404.6125
2349.65943	62566.2125
2352.49267	62432.0125
2355.32411	62396.5125
2358.15376	62299.2125
2360.98161	62262.2125
2363.80768	62286.7125
2366.63195	62284.5125
2369.45444	62084.2125
2372.27514	62071.5125
2375.09405	62059.8125
2377.91118	61996.2125
2380.72652	61809.5125
2383.54009	61533.0125
2386.35187	61587.0125
2389.16188	61540.2125
2391.97011	61365.5125
2394.77657	61249.9125
2397.58125	61066.6125
2400.38416	60883.4125
2403.18529	60717.6125
2405.98466	60770.8125
2408.78226	60730.8125
2411.57809	60639.2125
2414.37216	60516.4125
2417.16446	60487.3125
2419.955	60313.4125
2422.74378	60368.9125
2425.5308	60312.8125
2428.31606	60182.1125
2431.09956	60215.8125
2433.88131	60086.0125
2436.6613	60074.8125
2439.43954	60078.1125
2442.21603	59977.3125
2444.99077	59931.1125
2447.76377	59870.1125
2450.53501	59705.6125
2453.30451	59731.6125
2456.07226	59626.2125
2458.83827	59485.6125
2461.60254	59398.5125
2464.36507	59428.8125
2467.12586	59391.7125
2469.88492	59337.9125
2472.64224	59169.3125
2475.39782	59026.3125
2478.15167	59064.4125
2480.90379	59112.6125
2483.65417	59233.7125
2486.40283	59177.6125
2489.14976	59179.6125
2491.89497	59084.4125
2494.63845	59057.8125
2497.3802	58843.4125
2500.12024	58798.4125
2502.85855	58746.9125
2505.59514	58628.8125
2508.33002	58580.6125
2511.06318	58470.8125
2513.79462	58473.7125
2516.52435	58384.1125
2519.25237	58285.7125
2521.97867	58196.0125
2524.70327	58187.3125
2527.42616	58056.8125
2530.14734	58015.1125
2532.86681	57841.1125
2535.58458	57790.4125
2538.30065	57690.7125
2541.01501	57751.9125
2543.72768	57689.7125
2546.43864	57670.6125
2549.14791	57537.1125
2551.85548	57497.0125
2554.56136	57284.7125
2557.26554	57168.6125
2559.96803	57058.4125
2562.66883	56967.8125
2565.36794	56873.2125
2568.06536	56668.5125
2570.7611	56503.4125
2573.45514	56387.0125
2576.14751	56275.5125
2578.83819	56178.1125
2581.52719	56181.5125
2584.21451	55994.0125
2586.90015	55935.2125
2589.58411	55845.7125
2592.2664	55767.2125
2594.94701	55624.4125
2597.62594	55635.6125
2600.30321	55537.4125
2602.9788	55452.6125
2605.65273	55247.9125
2608.32498	55146.3125
2610.99557	55092.8125
2613.66449	55113.5125
2616.33175	55040.3125
2618.99734	54982.4125
2621.66128	54748.2125
2624.32355	54694.6125
2626.98416	54717.4125
2629.64311	54643.2125
2632.30041	54448.1125
2634.95605	54381.1125
2637.61004	54338.9125
2640.26238	54263.0125
2642.91306	54216.3125
2645.56209	54108.1125
2648.20948	54109.0125
2650.85521	54000.5125
2653.4993	54002.9125
2656.14175	53983.6125
2658.78255	54034.3125
2661.42171	54019.7125
2664.05923	54162.7125
2666.6951	54151.8125
2669.32934	54066.8125
2671.96194	53969.1125
2674.59291	54017.6125
2677.22224	53911.3125
2679.84993	53928.1125
2682.476	53781.1125
2685.10043	53808.1125
2687.72324	53735.8125
2690.34441	53743.6125
2692.96396	53692.6125
2695.58188	53684.3125
2698.19818	53574.6125
2700.81285	53639.9125
2703.4259	53629.8125
2706.03733	53681.7125
2708.64714	53711.2125
2711.25533	53632.2125
2713.86191	53604.3125
2716.46687	53758.9125
2719.07021	53698.3125
2721.67194	53641.5125
2724.27206	53566.8125
2726.87057	53514.6125
2729.46747	53452.6125
2732.06276	53521.7125
2734.65644	53492.1125
2737.24852	53446.0125
2739.83899	53312.5125
2742.42786	53253.3125
2745.01513	53125.7125
2747.60079	53062.9125
2750.18486	53070.4125
2752.76733	53095.2125
2755.3482	53030.0125
2757.92747	53006.0125
2760.50515	52948.9125
2763.08123	52802.1125
2765.65573	52676.4125
2768.22863	52596.9125
2770.79994	52531.2125
2773.36967	52541.4125
2775.9378	52384.3125
2778.50435	52299.3125
2781.06932	52278.9125
2783.6327	52266.6125
2786.1945	52151.5125
2788.75471	52043.7125
2791.31335	51799.3125
2793.87041	51656.5125
2796.42589	51547.1125
2798.97979	51509.4125
2801.53212	51374.3125
2804.08288	51338.9125
2806.63206	51162.4125
2809.17967	51146.0125
2811.72571	50948.6125
2814.27018	50846.2125
2816.81308	50671.1125
2819.35442	50486.6125
2821.89419	50383.2125
2824.43239	50265.8125
2826.96904	50155.1125
2829.50412	50189.5125
2832.03763	50099.5125
2834.56959	50156.0125
2837.1	50100.4125
2839.62884	50082.0125
2842.15613	49921.8125
2844.68186	49804.9125
2847.20604	49618.1125
2849.72867	49613.5125
2852.24974	49483.0125
2854.76927	49434.3125
2857.28724	49349.1125
2859.80367	49348.4125
2862.31855	49348.2125
2864.83189	49344.3125
2867.34368	49262.3125
2869.85393	49217.2125
2872.36264	49048.4125
2874.8698	48970.4125
2877.37543	48936.4125
2879.87952	48833.0125
2882.38207	48819.5125
2884.88308	48735.5125
2887.38256	48692.6125
2889.88051	48652.6125
2892.37692	48616.8125
2894.8718	48659.1125
2897.36515	48695.4125
2899.85698	48672.3125
2902.34727	48727.0125
2904.83604	48684.5125
2907.32328	48813.2125
2909.809	48896.7125
2912.29319	48930.4125
2914.77587	48873.5125
2917.25702	48878.9125
2919.73665	48690.7125
2922.21476	48785.6125
2924.69136	48621.0125
2927.16644	48615.5125
2929.64	48511.6125
2932.11205	48457.6125
2934.58258	48261.1125
2937.05161	48258.0125
2939.51912	48196.6125
2941.98513	48156.4125
2944.44962	48164.0125
2946.91261	47995.3125
2949.37409	48067.9125
2951.83407	47989.9125
2954.29254	48002.0125
2956.74951	48069.8125
2959.20498	47981.8125
2961.65895	47891.7125
2964.11142	47975.7125
2966.56239	47922.0125
2969.01186	47928.1125
2971.45984	47728.6125
2973.90632	47772.8125
2976.35131	47694.5125
2978.7948	47611.3125
2981.23681	47476.6125
2983.67732	47442.0125
2986.11635	47329.1125
2988.55388	47268.9125
2990.98993	47157.6125
2993.4245	47007.9125
2995.85758	46941.7125
2998.28917	46803.9125
3000.71928	46748.3125
3003.14791	46613.5125
3005.57506	46542.4125
3008.00073	46321.5125
