Data from AgNPs_UA_2uM_CRN_0uM_R6G_10uM_Q_RamanShift__24__13-29-01-925.txt Node

Date: Wed Jul 13 13:29:01 BST 2022
User: TCL
Spectrometer: QEP01345
Trigger mode: 4
Integration Time (sec): 7.000000E0
Scans to average: 10
Electric dark correction enabled: true
Nonlinearity correction enabled: false
Boxcar width: 0
XAxis mode: Raman Shifts
Number of Pixels in Spectrum: 1044
>>>>>Begin Spectral Data<<<<<
46.04893	-2.4125
50.45542	-0.8125
54.85868	-1.4125
59.25871	-0.4125
63.6555	98.3875
68.04907	105.5875
72.43941	106.0875
76.82654	114.2875
81.21044	121.6875
85.59113	123.7875
89.96862	130.6875
94.34289	131.6875
98.71396	135.6875
103.08183	143.2875
107.4465	146.1875
111.80798	146.7875
116.16626	151.3875
120.52136	160.3875
124.87327	160.0875
129.222	172.0875
133.56755	180.1875
137.90993	197.1875
142.24913	210.9875
146.58517	233.9875
150.91804	267.6875
155.24774	323.5875
159.57429	390.9875
163.89768	501.6875
168.21792	657.9875
172.53501	888.2875
176.84895	1234.5875
181.15975	1737.8875
185.46741	2417.1875
189.77193	3309.3875
194.07331	4417.9875
198.37157	5674.6875
202.6667	6978.8875
206.9587	8259.1875
211.24758	9529.2875
215.53334	10824.1875
219.81599	12204.3875
224.09553	13750.8875
228.37195	15425.7875
232.64527	17315.4875
236.91549	19241.5875
241.18261	21177.3875
245.44663	22925.5875
249.70755	24433.7875
253.96539	25820.6875
258.22014	27027.5875
262.4718	28015.1875
266.72039	28696.2875
270.96589	28973.8875
275.20832	29035.9875
279.44768	28821.4875
283.68397	28652.3875
287.91719	28373.8875
292.14735	28216.7875
296.37445	28220.3875
300.59849	28347.6875
304.81948	28538.1875
309.03742	28630.3875
313.25231	28452.2875
317.46415	27943.6875
321.67296	27299.5875
325.87872	26826.3875
330.08145	26676.2875
334.28114	26799.0875
338.47781	27055.5875
342.67145	27490.0875
346.86207	28027.6875
351.04966	28703.1875
355.23424	29365.6875
359.4158	29894.1875
363.59435	30326.3875
367.76989	30594.7875
371.94243	30784.3875
376.11196	30885.8875
380.27849	31077.9875
384.44203	31232.2875
388.60257	31364.9875
392.76012	31592.3875
396.91468	31989.6875
401.06626	32547.8875
405.21485	32876.5875
409.36047	32814.4875
413.50311	32417.9875
417.64277	32121.4875
421.77947	32082.5875
425.9132	32298.3875
430.04396	32571.1875
434.17176	32876.4875
438.2966	33341.3875
442.41849	34218.5875
446.53742	35321.5875
450.6534	36500.2875
454.76644	37211.7875
458.87653	37326.0875
462.98368	36857.5875
467.08789	36101.3875
471.18916	35325.4875
475.2875	34705.5875
479.38291	34281.6875
483.4754	33963.0875
487.56496	33588.0875
491.6516	33187.5875
495.73531	32884.2875
499.81612	32721.9875
503.89401	32888.8875
507.96899	32988.3875
512.04106	32951.1875
516.11023	32888.7875
520.1765	32824.1875
524.23987	32800.0875
528.30034	32701.5875
532.35792	32444.7875
536.41261	32035.6875
540.46441	31735.1875
544.51333	31710.1875
548.55936	32079.2875
552.60252	32671.0875
556.64279	33321.6875
560.6802	33771.3875
564.71473	34085.9875
568.7464	34701.1875
572.7752	35408.8875
576.80114	35719.2875
580.82422	36164.0875
584.84444	36899.6875
588.86181	37987.9875
592.87633	39294.1875
596.888	40005.4875
600.89682	40002.6875
604.9028	41118.1875
608.90594	44402.6875
612.90624	46848.6875
616.90371	42996.5875
620.89834	36978.9875
624.89015	35103.5875
628.87913	35051.7875
632.86528	34779.0875
636.84862	34113.1875
640.82913	33402.1875
644.80683	32568.0875
648.78172	32049.4875
652.75379	32086.3875
656.72306	32578.7875
660.68952	33118.0875
664.65319	32866.7875
668.61405	32359.1875
672.57211	32210.2875
676.52738	32213.5875
680.47986	32086.2875
684.42955	32014.6875
688.37646	32054.3875
692.32058	32270.7875
696.26192	32578.4875
700.20048	32909.8875
704.13626	33134.2875
708.06928	32954.8875
711.99952	32755.0875
715.927	32665.9875
719.85171	32723.0875
723.77365	32619.1875
727.69284	32272.2875
731.60928	32127.1875
735.52295	32203.0875
739.43388	32346.3875
743.34206	32515.9875
747.24749	32677.5875
751.15017	32973.5875
755.05012	33490.1875
758.94733	34552.0875
762.8418	36403.0875
766.73354	39069.2875
770.62254	41230.1875
774.50882	41351.8875
778.39237	39310.1875
782.27321	36605.7875
786.15132	34523.8875
790.02671	33334.1875
793.89938	32830.0875
797.76935	32663.4875
801.6366	32597.5875
805.50115	32463.3875
809.36299	32319.3875
813.22213	32185.8875
817.07857	32091.1875
820.93231	32056.0875
824.78336	32059.6875
828.63172	32164.5875
832.47738	32236.0875
836.32036	32361.7875
840.16066	32570.9875
843.99827	32706.3875
847.8332	32548.6875
851.66546	32381.2875
855.49504	32345.0875
859.32195	32274.9875
863.1462	32094.8875
866.96777	31949.3875
870.78668	31903.2875
874.60293	31897.0875
878.41652	31955.5875
882.22745	32147.3875
886.03573	32199.0875
889.84136	32082.7875
893.64433	31934.9875
897.44466	31887.7875
901.24235	31837.3875
905.0374	31755.5875
908.8298	31727.0875
912.61957	31780.5875
916.40671	32114.3875
920.19121	32545.5875
923.97308	33096.5875
927.75233	33337.5875
931.52895	33174.4875
935.30295	32762.7875
939.07433	32157.9875
942.84309	31737.6875
946.60924	31695.6875
950.37278	31529.5875
954.13371	31336.3875
957.89203	31071.8875
961.64774	30988.5875
965.40086	30978.2875
969.15137	30852.7875
972.89929	30786.0875
976.64461	30759.3875
980.38733	30841.9875
984.12747	31050.1875
987.86502	31423.6875
991.59999	31959.9875
995.33237	32871.6875
999.06217	34245.5875
1002.78939	35677.3875
1006.51404	36184.6875
1010.23611	36266.5875
1013.95561	36477.2875
1017.67255	36480.5875
1021.38692	36127.9875
1025.09872	35959.4875
1028.80796	36823.5875
1032.51465	38463.9875
1036.21877	39607.6875
1039.92035	39423.2875
1043.61937	38422.5875
1047.31584	36897.9875
1051.00976	35437.4875
1054.70114	34645.7875
1058.38998	34480.7875
1062.07627	34467.4875
1065.76003	34466.6875
1069.44126	34543.5875
1073.11995	34860.1875
1076.79611	35097.4875
1080.46974	35448.8875
1084.14085	35804.2875
1087.80943	36204.4875
1091.47549	36195.3875
1095.13903	35815.7875
1098.80005	35298.3875
1102.45857	34771.8875
1106.11456	34590.0875
1109.76805	34734.1875
1113.41903	35054.6875
1117.06751	35402.6875
1120.71348	35798.8875
1124.35696	36146.6875
1127.99793	36405.0875
1131.63641	36340.1875
1135.2724	35971.5875
1138.90589	35681.4875
1142.5369	35545.4875
1146.16542	35492.1875
1149.79145	35645.7875
1153.415	35919.4875
1157.03607	36317.9875
1160.65467	37107.8875
1164.27079	38409.1875
1167.88443	40303.9875
1171.49561	43013.0875
1175.10432	46548.6875
1178.71056	51026.3875
1182.31434	54575.8875
1185.91565	56060.5875
1189.51451	55099.1875
1193.11091	52569.6875
1196.70485	49846.7875
1200.29634	47521.3875
1203.88538	45810.6875
1207.47197	44524.2875
1211.05612	43609.4875
1214.63782	43259.1875
1218.21708	43465.5875
1221.79391	44048.6875
1225.36829	44252.5875
1228.94024	43641.7875
1232.50976	42478.0875
1236.07685	41545.1875
1239.6415	41048.2875
1243.20374	40981.0875
1246.76355	41251.2875
1250.32093	41854.0875
1253.8759	42813.4875
1257.42845	44005.4875
1260.97859	45175.7875
1264.52631	46135.1875
1268.07163	47302.5875
1271.61453	48597.5875
1275.15503	50253.8875
1278.69312	51949.2875
1282.22882	53354.7875
1285.76211	54450.1875
1289.29301	55607.3875
1292.82151	57266.4875
1296.34761	59473.9875
1299.87133	62737.1875
1303.39266	66905.0875
1306.9116	71837.5875
1310.42815	76978.8875
1313.94233	80210.0875
1317.45412	79898.2875
1320.96354	77327.9875
1324.47058	74230.0875
1327.97525	71396.8875
1331.47754	69501.3875
1334.97747	68606.7875
1338.47502	68439.2875
1341.97022	68443.0875
1345.46305	68136.1875
1348.95352	67566.1875
1352.44163	67533.1875
1355.92738	69196.5875
1359.41078	72917.5875
1362.89183	75848.7875
1366.37053	73965.2875
1369.84688	67296.6875
1373.32088	59966.4875
1376.79254	55188.2875
1380.26186	53268.1875
1383.72883	52844.6875
1387.19347	52699.0875
1390.65578	52306.6875
1394.11575	52397.5875
1397.57339	53384.0875
1401.0287	54888.3875
1404.48168	56068.3875
1407.93234	56689.7875
1411.38068	56426.4875
1414.82669	55307.6875
1418.27039	53325.1875
1421.71177	51039.4875
1425.15083	49239.2875
1428.58758	48326.7875
1432.02203	48598.9875
1435.45416	49611.8875
1438.88399	50661.8875
1442.31151	51586.5875
1445.73673	52315.6875
1449.15965	52832.2875
1452.58027	52930.4875
1455.9986	52718.7875
1459.41463	52676.8875
1462.82837	53302.8875
1466.23982	54332.8875
1469.64898	55193.4875
1473.05586	55816.9875
1476.46045	56147.5875
1479.86276	56078.8875
1483.26279	55788.1875
1486.66054	55704.5875
1490.05602	55878.6875
1493.44922	56139.6875
1496.84016	56264.2875
1500.22882	56674.8875
1503.61521	57698.3875
1506.99934	59289.9875
1510.38121	61044.0875
1513.76081	61599.9875
1517.13816	60412.7875
1520.51324	58055.1875
1523.88607	55886.2875
1527.25665	54683.9875
1530.62498	54114.2875
1533.99105	53869.1875
1537.35488	53671.0875
1540.71647	53257.9875
1544.07581	52658.2875
1547.4329	51781.6875
1550.78776	50905.8875
1554.14038	50146.8875
1557.49077	49681.6875
1560.83892	49423.7875
1564.18484	49235.8875
1567.52853	49117.7875
1570.86999	49263.8875
1574.20922	49689.0875
1577.54624	49914.2875
1580.88103	49740.3875
1584.2136	50074.3875
1587.54395	51522.1875
1590.87208	54636.5875
1594.19801	59193.4875
1597.52172	63712.1875
1600.84321	65449.0875
1604.16251	62928.8875
1607.47959	57789.7875
1610.79447	52257.6875
1614.10715	47413.2875
1617.41763	43847.7875
1620.7259	41692.7875
1624.03199	40750.1875
1627.33587	40896.2875
1630.63757	42226.2875
1633.93707	44853.4875
1637.23439	48806.0875
1640.52951	53961.6875
1643.82246	59462.8875
1647.11321	63103.8875
1650.40179	62791.4875
1653.68819	57980.0875
1656.97241	50743.8875
1660.25446	44167.7875
1663.53433	39433.9875
1666.81203	36457.7875
1670.08756	34639.3875
1673.36092	33455.5875
1676.63211	32585.9875
1679.90115	32033.5875
1683.16801	31580.8875
1686.43272	31278.3875
1689.69527	31055.4875
1692.95567	30861.6875
1696.2139	30774.1875
1699.46999	30751.2875
1702.72392	30663.8875
1705.97571	30654.6875
1709.22535	30578.7875
1712.47284	30581.2875
1715.71819	30560.1875
1718.96139	30536.1875
1722.20246	30427.8875
1725.44139	30328.8875
1728.67818	30213.9875
1731.91284	30073.8875
1735.14537	29884.4875
1738.37576	29758.6875
1741.60403	29670.6875
1744.83017	29632.2875
1748.05418	29591.7875
1751.27607	29522.6875
1754.49584	29495.9875
1757.71349	29497.5875
1760.92903	29426.0875
1764.14244	29413.7875
1767.35375	29388.3875
1770.56294	29387.1875
1773.77002	29342.8875
1776.97499	29315.2875
1780.17785	29254.7875
1783.37861	29241.9875
1786.57727	29196.8875
1789.77382	29207.8875
1792.96828	29182.5875
1796.16064	29109.0875
1799.3509	29103.2875
1802.53907	29095.4875
1805.72514	29020.7875
1808.90913	28968.3875
1812.09102	28914.1875
1815.27083	28830.7875
1818.44856	28794.8875
1821.6242	28757.0875
1824.79776	28710.0875
1827.96924	28727.8875
1831.13864	28665.2875
1834.30597	28678.8875
1837.47122	28634.6875
1840.6344	28659.5875
1843.7955	28610.3875
1846.95454	28608.9875
1850.11151	28650.8875
1853.26642	28617.8875
1856.41926	28598.2875
1859.57004	28649.1875
1862.71876	28625.8875
1865.86542	28630.2875
1869.01003	28600.2875
1872.15258	28622.1875
1875.29308	28596.6875
1878.43152	28592.5875
1881.56792	28583.6875
1884.70227	28588.6875
1887.83457	28625.5875
1890.96482	28602.7875
1894.09304	28537.4875
1897.21921	28577.2875
1900.34335	28572.8875
1903.46544	28582.0875
1906.58551	28574.0875
1909.70353	28568.6875
1912.81953	28559.7875
1915.93349	28493.5875
1919.04543	28469.9875
1922.15534	28417.1875
1925.26322	28374.4875
1928.36908	28338.5875
1931.47292	28294.0875
1934.57473	28259.7875
1937.67453	28178.3875
1940.77232	28126.1875
1943.86808	28044.8875
1946.96184	27962.8875
1950.05358	27874.8875
1953.14331	27778.6875
1956.23103	27712.7875
1959.31675	27669.9875
1962.40046	27594.6875
1965.48217	27521.5875
1968.56188	27406.2875
1971.63959	27329.7875
1974.7153	27284.3875
1977.78901	27201.1875
1980.86073	27135.0875
1983.93046	27032.0875
1986.99819	26921.7875
1990.06394	26900.9875
1993.1277	26821.3875
1996.18947	26752.6875
1999.24925	26733.7875
2002.30706	26662.6875
2005.36288	26568.9875
2008.41672	26519.6875
2011.46859	26452.9875
2014.51848	26371.4875
2017.56639	26300.1875
2020.61233	26236.8875
2023.6563	26207.0875
2026.6983	26182.9875
2029.73833	26154.1875
2032.7764	26088.1875
2035.8125	26084.8875
2038.84664	26073.2875
2041.87881	26029.9875
2044.90903	25978.9875
2047.93729	25959.7875
2050.96359	25931.6875
2053.98794	25885.5875
2057.01034	25890.8875
2060.03078	25923.5875
2063.04927	25875.7875
2066.06582	25827.9875
2069.08042	25807.6875
2072.09307	25778.5875
2075.10378	25747.3875
2078.11255	25756.6875
2081.11938	25713.2875
2084.12426	25642.9875
2087.12722	25645.3875
2090.12824	25614.3875
2093.12732	25622.0875
2096.12447	25636.3875
2099.11969	25657.1875
2102.11299	25657.4875
2105.10435	25660.7875
2108.09379	25657.8875
2111.08131	25684.1875
2114.0669	25719.0875
2117.05057	25776.2875
2120.03233	25727.8875
2123.01216	25801.8875
2125.99008	25799.3875
2128.96609	25816.7875
2131.94018	25843.5875
2134.91236	25883.1875
2137.88263	25904.7875
2140.851	25894.9875
2143.81746	25989.6875
2146.78201	25961.9875
2149.74466	25982.7875
2152.7054	25989.9875
2155.66425	25979.6875
2158.6212	25978.8875
2161.57625	25930.5875
2164.52941	25983.8875
2167.48067	25990.0875
2170.43004	25958.1875
2173.37752	25960.2875
2176.32311	25977.1875
2179.26681	25974.4875
2182.20863	25950.3875
2185.14856	26036.2875
2188.08661	26043.5875
2191.02278	26048.1875
2193.95707	26063.0875
2196.88948	26086.8875
2199.82001	26092.0875
2202.74867	26100.3875
2205.67545	26035.6875
2208.60037	26062.6875
2211.52341	25992.9875
2214.44458	26029.7875
2217.36388	26012.2875
2220.28132	25973.9875
2223.1969	25930.2875
2226.11061	25921.1875
2229.02246	25804.6875
2231.93245	25779.6875
2234.84058	25762.8875
2237.74686	25740.3875
2240.65128	25725.7875
2243.55385	25671.8875
2246.45456	25677.9875
2249.35343	25672.5875
2252.25044	25599.3875
2255.14561	25620.4875
2258.03893	25550.7875
2260.93041	25539.2875
2263.82004	25413.0875
2266.70783	25422.2875
2269.59378	25298.5875
2272.4779	25249.5875
2275.36017	25167.8875
2278.24061	25133.7875
2281.11922	25106.9875
2283.996	25085.1875
2286.87094	25087.0875
2289.74405	25039.6875
2292.61534	25041.6875
2295.4848	25052.9875
2298.35243	25100.5875
2301.21824	25086.4875
2304.08223	25139.9875
2306.94439	25148.3875
2309.80474	25179.5875
2312.66327	25233.7875
2315.51999	25230.8875
2318.37489	25220.1875
2321.22797	25214.0875
2324.07925	25214.2875
2326.92871	25191.6875
2329.77637	25159.0875
2332.62222	25210.7875
2335.46626	25173.8875
2338.3085	25195.0875
2341.14893	25219.9875
2343.98756	25220.0875
2346.8244	25236.8875
2349.65943	25267.7875
2352.49267	25244.2875
2355.32411	25280.3875
2358.15376	25259.5875
2360.98161	25184.9875
2363.80768	25193.7875
2366.63195	25171.6875
2369.45444	25112.7875
2372.27514	25092.7875
2375.09405	25049.9875
2377.91118	24935.3875
2380.72652	24908.7875
2383.54009	24844.9875
2386.35187	24784.9875
2389.16188	24745.4875
2391.97011	24705.4875
2394.77657	24675.0875
2397.58125	24646.5875
2400.38416	24646.9875
2403.18529	24572.9875
2405.98466	24548.5875
2408.78226	24463.2875
2411.57809	24386.8875
2414.37216	24405.4875
2417.16446	24362.4875
2419.955	24312.5875
2422.74378	24285.3875
2425.5308	24265.3875
2428.31606	24303.5875
2431.09956	24268.1875
2433.88131	24246.4875
2436.6613	24235.1875
2439.43954	24270.1875
2442.21603	24237.2875
2444.99077	24255.5875
2447.76377	24280.6875
2450.53501	24243.3875
2453.30451	24243.8875
2456.07226	24215.5875
2458.83827	24244.7875
2461.60254	24208.6875
2464.36507	24162.8875
2467.12586	24185.2875
2469.88492	24150.5875
2472.64224	24213.1875
2475.39782	24206.5875
2478.15167	24321.4875
2480.90379	24294.3875
2483.65417	24370.4875
2486.40283	24344.4875
2489.14976	24419.3875
2491.89497	24392.8875
2494.63845	24444.9875
2497.3802	24466.7875
2500.12024	24438.2875
2502.85855	24475.6875
2505.59514	24419.0875
2508.33002	24382.2875
2511.06318	24388.9875
2513.79462	24315.0875
2516.52435	24304.7875
2519.25237	24259.3875
2521.97867	24239.4875
2524.70327	24273.4875
2527.42616	24228.7875
2530.14734	24248.9875
2532.86681	24232.6875
2535.58458	24201.4875
2538.30065	24226.5875
2541.01501	24211.5875
2543.72768	24198.6875
2546.43864	24215.4875
2549.14791	24164.1875
2551.85548	24165.3875
2554.56136	24132.4875
2557.26554	24076.9875
2559.96803	24074.1875
2562.66883	24083.9875
2565.36794	24069.6875
2568.06536	24056.8875
2570.7611	24000.5875
2573.45514	24040.2875
2576.14751	24053.2875
2578.83819	24009.0875
2581.52719	24036.1875
2584.21451	24018.1875
2586.90015	24046.8875
2589.58411	24061.1875
2592.2664	24021.6875
2594.94701	24018.6875
2597.62594	24055.8875
2600.30321	24042.6875
2602.9788	24004.6875
2605.65273	23981.1875
2608.32498	24025.2875
2610.99557	24027.6875
2613.66449	24029.3875
2616.33175	24030.3875
2618.99734	24116.6875
2621.66128	24121.4875
2624.32355	24108.3875
2626.98416	24161.2875
2629.64311	24123.4875
2632.30041	24148.7875
2634.95605	24131.1875
2637.61004	24099.3875
2640.26238	24053.3875
2642.91306	24033.1875
2645.56209	23970.3875
2648.20948	23931.9875
2650.85521	23923.0875
2653.4993	23915.3875
2656.14175	23887.9875
2658.78255	23923.4875
2661.42171	23955.0875
2664.05923	23963.8875
2666.6951	23958.5875
2669.32934	23994.7875
2671.96194	24015.8875
2674.59291	24018.6875
2677.22224	24008.8875
2679.84993	24048.6875
2682.476	23978.5875
2685.10043	23968.5875
2687.72324	23964.9875
2690.34441	23952.3875
2692.96396	23934.0875
2695.58188	23910.9875
2698.19818	23884.1875
2700.81285	23904.3875
2703.4259	23885.7875
2706.03733	23913.5875
2708.64714	23932.5875
2711.25533	23979.3875
2713.86191	23939.3875
2716.46687	23975.6875
2719.07021	23983.6875
2721.67194	23988.5875
2724.27206	23967.5875
2726.87057	24006.8875
2729.46747	24047.9875
2732.06276	24084.1875
2734.65644	24056.7875
2737.24852	24049.4875
2739.83899	24045.7875
2742.42786	24004.2875
2745.01513	23997.3875
2747.60079	23980.5875
2750.18486	23925.3875
2752.76733	23957.2875
2755.3482	23999.2875
2757.92747	23960.3875
2760.50515	23937.7875
2763.08123	23917.1875
2765.65573	23915.6875
2768.22863	23983.7875
2770.79994	23962.6875
2773.36967	23937.5875
2775.9378	23961.8875
2778.50435	23970.5875
2781.06932	23940.1875
2783.6327	23884.6875
2786.1945	23910.6875
2788.75471	23915.5875
2791.31335	23844.4875
2793.87041	23870.3875
2796.42589	23792.8875
2798.97979	23823.7875
2801.53212	23798.4875
2804.08288	23759.9875
2806.63206	23664.4875
2809.17967	23649.1875
2811.72571	23616.2875
2814.27018	23612.0875
2816.81308	23566.7875
2819.35442	23558.6875
2821.89419	23486.5875
2824.43239	23480.1875
2826.96904	23477.9875
2829.50412	23473.9875
2832.03763	23442.1875
2834.56959	23407.8875
2837.1	23367.1875
2839.62884	23386.3875
2842.15613	23399.3875
2844.68186	23407.4875
2847.20604	23386.6875
2849.72867	23377.1875
2852.24974	23311.3875
2854.76927	23313.2875
2857.28724	23302.3875
2859.80367	23245.2875
2862.31855	23265.0875
2864.83189	23216.5875
2867.34368	23177.2875
2869.85393	23209.7875
2872.36264	23177.3875
2874.8698	23141.1875
2877.37543	23154.2875
2879.87952	23130.4875
2882.38207	23124.3875
2884.88308	23164.5875
2887.38256	23181.2875
2889.88051	23158.8875
2892.37692	23168.0875
2894.8718	23233.8875
2897.36515	23306.3875
2899.85698	23272.9875
2902.34727	23311.8875
2904.83604	23340.4875
2907.32328	23416.0875
2909.809	23424.5875
2912.29319	23436.8875
2914.77587	23428.4875
2917.25702	23451.9875
2919.73665	23431.4875
2922.21476	23411.9875
2924.69136	23343.7875
2927.16644	23351.9875
2929.64	23327.5875
2932.11205	23315.5875
2934.58258	23203.0875
2937.05161	23249.2875
2939.51912	23256.1875
2941.98513	23255.9875
2944.44962	23234.5875
2946.91261	23201.5875
2949.37409	23243.0875
2951.83407	23201.2875
2954.29254	23197.2875
2956.74951	23232.0875
2959.20498	23224.3875
2961.65895	23198.3875
2964.11142	23197.4875
2966.56239	23169.4875
2969.01186	23206.6875
2971.45984	23089.7875
2973.90632	23080.4875
2976.35131	23015.7875
2978.7948	23017.7875
2981.23681	22970.0875
2983.67732	22921.3875
2986.11635	22853.5875
2988.55388	22805.0875
2990.98993	22797.7875
2993.4245	22735.8875
2995.85758	22677.6875
2998.28917	22633.1875
3000.71928	22604.1875
3003.14791	22571.7875
3005.57506	22590.0875
3008.00073	22471.5875
3010.42493	22452.4875
3012.84764	22415.9875
3015.26888	22404.0875
3017.68865	22332.1875
3020.10694	22294.6875
3022.52376	22265.9875
3024.9391	22202.0875
