Data from AgNPs_UA_10uM_CRN_0uM_R6G_10uM_Q_RamanShift__33__12-27-12-665.txt Node

Date: Mon Jul 18 12:27:12 BST 2022
User: TCL
Spectrometer: QEP01345
Trigger mode: 4
Integration Time (sec): 7.000000E0
Scans to average: 10
Electric dark correction enabled: true
Nonlinearity correction enabled: false
Boxcar width: 0
XAxis mode: Raman Shifts
Number of Pixels in Spectrum: 1044
>>>>>Begin Spectral Data<<<<<
46.04893	0.3125
50.45542	-0.1875
54.85868	-0.9875
59.25871	0.0125
63.6555	72.3125
68.04907	74.6125
72.43941	80.3125
76.82654	86.4125
81.21044	86.1125
85.59113	88.5125
89.96862	95.4125
94.34289	101.1125
98.71396	99.7125
103.08183	106.0125
107.4465	110.3125
111.80798	108.8125
116.16626	105.2125
120.52136	117.2125
124.87327	122.7125
129.222	123.3125
133.56755	132.5125
137.90993	140.8125
142.24913	149.5125
146.58517	163.1125
150.91804	190.1125
155.24774	219.7125
159.57429	274.6125
163.89768	345.3125
168.21792	450.7125
172.53501	613.9125
176.84895	830.7125
181.15975	1166.1125
185.46741	1622.7125
189.77193	2232.0125
194.07331	2960.3125
198.37157	3796.1125
202.6667	4656.5125
206.9587	5535.7125
211.24758	6435.4125
215.53334	7323.1125
219.81599	8364.9125
224.09553	9558.6125
228.37195	10843.5125
232.64527	12247.6125
236.91549	13617.4125
241.18261	14870.0125
245.44663	15904.3125
249.70755	16771.5125
253.96539	17453.4125
258.22014	18010.6125
262.4718	18507.4125
266.72039	18893.4125
270.96589	18995.9125
275.20832	18994.9125
279.44768	18748.4125
283.68397	18477.7125
287.91719	18344.3125
292.14735	18447.8125
296.37445	18856.1125
300.59849	19611.9125
304.81948	20383.7125
309.03742	20836.9125
313.25231	20629.6125
317.46415	19549.0125
321.67296	18048.3125
325.87872	16928.8125
330.08145	16414.5125
334.28114	16406.1125
338.47781	16730.3125
342.67145	17193.1125
346.86207	17946.2125
351.04966	19021.2125
355.23424	20222.5125
359.4158	21096.7125
363.59435	21509.9125
367.76989	21679.8125
371.94243	21599.1125
376.11196	21484.1125
380.27849	21357.0125
384.44203	21200.2125
388.60257	20896.0125
392.76012	20769.8125
396.91468	21016.6125
401.06626	21533.8125
405.21485	21853.2125
409.36047	21280.3125
413.50311	20178.0125
417.64277	19199.1125
421.77947	18699.8125
425.9132	18492.1125
430.04396	18506.8125
434.17176	18682.8125
438.2966	19070.0125
442.41849	19663.5125
446.53742	20496.8125
450.6534	21230.7125
454.76644	21651.2125
458.87653	21589.0125
462.98368	21214.7125
467.08789	20689.8125
471.18916	20042.1125
475.2875	19492.8125
479.38291	18979.5125
483.4754	18599.6125
487.56496	18250.7125
491.6516	18001.3125
495.73531	17885.9125
499.81612	17875.5125
503.89401	18091.5125
507.96899	18321.4125
512.04106	18614.6125
516.11023	18908.5125
520.1765	19052.0125
524.23987	19004.5125
528.30034	18663.5125
532.35792	18284.7125
536.41261	17865.4125
540.46441	17443.6125
544.51333	17293.7125
548.55936	17492.2125
552.60252	17954.0125
556.64279	18519.2125
560.6802	18780.0125
564.71473	19202.6125
568.7464	20103.1125
572.7752	20563.1125
576.80114	20001.9125
580.82422	19440.3125
584.84444	19361.2125
588.86181	19594.0125
592.87633	19986.4125
596.888	20423.7125
600.89682	21329.6125
604.9028	24350.9125
608.90594	31696.9125
612.90624	39083.2125
616.90371	34488.4125
620.89834	23432.7125
624.89015	19009.1125
628.87913	18249.9125
632.86528	18518.2125
636.84862	18748.3125
640.82913	18247.9125
644.80683	17325.1125
648.78172	16768.9125
652.75379	16968.0125
656.72306	17930.2125
660.68952	18740.6125
664.65319	18268.8125
668.61405	17280.7125
672.57211	16930.1125
676.52738	16896.1125
680.47986	16806.1125
684.42955	16619.4125
688.37646	16514.1125
692.32058	16626.7125
696.26192	16862.0125
700.20048	17140.5125
704.13626	17271.1125
708.06928	17181.3125
711.99952	17037.6125
715.927	17008.1125
719.85171	17072.8125
723.77365	17002.2125
727.69284	16797.5125
731.60928	16673.5125
735.52295	16681.2125
739.43388	16829.6125
743.34206	16969.2125
747.24749	17081.3125
751.15017	17290.1125
755.05012	17745.7125
758.94733	18950.6125
762.8418	21568.0125
766.73354	25631.8125
770.62254	29415.9125
774.50882	30932.8125
778.39237	28943.5125
782.27321	24516.4125
786.15132	20638.6125
790.02671	18429.8125
793.89938	17469.2125
797.76935	17063.0125
801.6366	16860.5125
805.50115	16758.6125
809.36299	16623.7125
813.22213	16544.8125
817.07857	16483.4125
820.93231	16499.7125
824.78336	16561.1125
828.63172	16657.0125
832.47738	16661.3125
836.32036	16602.9125
840.16066	16549.3125
843.99827	16446.2125
847.8332	16293.6125
851.66546	16298.0125
855.49504	16268.3125
859.32195	16186.3125
863.1462	16110.5125
866.96777	16042.2125
870.78668	16045.4125
874.60293	16084.2125
878.41652	16182.8125
882.22745	16349.1125
886.03573	16438.7125
889.84136	16331.2125
893.64433	16239.1125
897.44466	16193.6125
901.24235	16166.7125
905.0374	16092.2125
908.8298	15989.2125
912.61957	15978.4125
916.40671	16077.3125
920.19121	16308.7125
923.97308	16521.4125
927.75233	16742.9125
931.52895	16836.0125
935.30295	16576.6125
939.07433	15931.0125
942.84309	15574.7125
946.60924	15307.8125
950.37278	15218.9125
954.13371	15146.9125
957.89203	15088.4125
961.64774	15030.3125
965.40086	15001.0125
969.15137	14977.6125
972.89929	14955.5125
976.64461	14983.7125
980.38733	14993.1125
984.12747	15101.5125
987.86502	15206.8125
991.59999	15334.5125
995.33237	15599.4125
999.06217	16088.9125
1002.78939	16707.5125
1006.51404	17200.4125
1010.23611	17596.3125
1013.95561	17824.7125
1017.67255	17730.7125
1021.38692	17353.1125
1025.09872	17018.6125
1028.80796	16892.3125
1032.51465	17070.4125
1036.21877	17259.5125
1039.92035	17401.6125
1043.61937	17357.2125
1047.31584	17199.6125
1051.00976	16994.0125
1054.70114	16835.3125
1058.38998	16768.3125
1062.07627	16856.7125
1065.76003	16992.7125
1069.44126	17172.1125
1073.11995	17486.5125
1076.79611	17758.9125
1080.46974	18093.1125
1084.14085	18636.1125
1087.80943	19164.9125
1091.47549	19317.9125
1095.13903	18878.0125
1098.80005	18149.7125
1102.45857	17583.1125
1106.11456	17363.8125
1109.76805	17501.3125
1113.41903	17995.9125
1117.06751	18694.6125
1120.71348	19641.1125
1124.35696	20627.4125
1127.99793	21307.9125
1131.63641	20965.0125
1135.2724	19818.0125
1138.90589	18949.1125
1142.5369	18415.9125
1146.16542	18090.6125
1149.79145	17961.4125
1153.415	18019.3125
1157.03607	18312.7125
1160.65467	18854.7125
1164.27079	19712.4125
1167.88443	21109.5125
1171.49561	23298.4125
1175.10432	26681.2125
1178.71056	30931.9125
1182.31434	34146.9125
1185.91565	34896.3125
1189.51451	33860.5125
1193.11091	31403.2125
1196.70485	28647.7125
1200.29634	26518.9125
1203.88538	24764.8125
1207.47197	23071.1125
1211.05612	21817.0125
1214.63782	21214.5125
1218.21708	21149.5125
1221.79391	21231.8125
1225.36829	21282.5125
1228.94024	21175.1125
1232.50976	21097.8125
1236.07685	21117.2125
1239.6415	21214.8125
1243.20374	21337.0125
1246.76355	21507.7125
1250.32093	21788.9125
1253.8759	22393.9125
1257.42845	23190.4125
1260.97859	24019.6125
1264.52631	24930.8125
1268.07163	25732.7125
1271.61453	26390.9125
1275.15503	26953.5125
1278.69312	27261.3125
1282.22882	27630.1125
1285.76211	28427.0125
1289.29301	29568.5125
1292.82151	30878.0125
1296.34761	32238.7125
1299.87133	34191.4125
1303.39266	37137.0125
1306.9116	41485.4125
1310.42815	46009.8125
1313.94233	47965.0125
1317.45412	46685.2125
1320.96354	43784.0125
1324.47058	40681.9125
1327.97525	38256.7125
1331.47754	36900.1125
1334.97747	36525.4125
1338.47502	36717.0125
1341.97022	37105.3125
1345.46305	37920.6125
1348.95352	39610.4125
1352.44163	42426.0125
1355.92738	46680.2125
1359.41078	52897.2125
1362.89183	58136.7125
1366.37053	55701.9125
1369.84688	47221.9125
1373.32088	39026.7125
1376.79254	33753.6125
1380.26186	31223.2125
1383.72883	30001.8125
1387.19347	28933.0125
1390.65578	27707.7125
1394.11575	26876.8125
1397.57339	26637.9125
1401.0287	27006.4125
1404.48168	27607.1125
1407.93234	28218.1125
1411.38068	28572.1125
1414.82669	28354.7125
1418.27039	27441.4125
1421.71177	26412.7125
1425.15083	25606.9125
1428.58758	25330.3125
1432.02203	25526.5125
1435.45416	25939.3125
1438.88399	26216.0125
1442.31151	26344.1125
1445.73673	26560.9125
1449.15965	26678.3125
1452.58027	26624.6125
1455.9986	26287.1125
1459.41463	26234.1125
1462.82837	26540.6125
1466.23982	27297.0125
1469.64898	28098.5125
1473.05586	28667.1125
1476.46045	29064.5125
1479.86276	29546.8125
1483.26279	30066.5125
1486.66054	30662.9125
1490.05602	31561.5125
1493.44922	32857.7125
1496.84016	34846.8125
1500.22882	38056.9125
1503.61521	42541.6125
1506.99934	47465.2125
1510.38121	51392.0125
1513.76081	52097.4125
1517.13816	48497.6125
1520.51324	42482.1125
1523.88607	37119.7125
1527.25665	33731.7125
1530.62498	31965.5125
1533.99105	30972.5125
1537.35488	30248.6125
1540.71647	29757.5125
1544.07581	29405.5125
1547.4329	28923.8125
1550.78776	28407.6125
1554.14038	28027.5125
1557.49077	27862.7125
1560.83892	28047.5125
1564.18484	28684.8125
1567.52853	29563.3125
1570.86999	30402.1125
1574.20922	30992.1125
1577.54624	30762.6125
1580.88103	29248.0125
1584.2136	27533.2125
1587.54395	26968.3125
1590.87208	28021.5125
1594.19801	30302.6125
1597.52172	33006.2125
1600.84321	34185.1125
1604.16251	32981.1125
1607.47959	30296.4125
1610.79447	27174.6125
1614.10715	24316.2125
1617.41763	22225.6125
1620.7259	21057.3125
1624.03199	20532.8125
1627.33587	20633.4125
1630.63757	21330.0125
1633.93707	22662.4125
1637.23439	24817.8125
1640.52951	28096.7125
1643.82246	32191.9125
1647.11321	36359.5125
1650.40179	38447.5125
1653.68819	36272.7125
1656.97241	30807.1125
1660.25446	25213.7125
1663.53433	21258.7125
1666.81203	18836.3125
1670.08756	17421.0125
1673.36092	16583.1125
1676.63211	16005.0125
1679.90115	15567.8125
1683.16801	15324.7125
1686.43272	15112.6125
1689.69527	14965.7125
1692.95567	14822.5125
1696.2139	14727.3125
1699.46999	14683.7125
1702.72392	14632.8125
1705.97571	14582.2125
1709.22535	14604.1125
1712.47284	14601.7125
1715.71819	14611.5125
1718.96139	14558.3125
1722.20246	14499.1125
1725.44139	14406.5125
1728.67818	14297.9125
1731.91284	14149.5125
1735.14537	14034.3125
1738.37576	13980.3125
1741.60403	13909.7125
1744.83017	13894.1125
1748.05418	13821.7125
1751.27607	13774.5125
1754.49584	13756.9125
1757.71349	13744.8125
1760.92903	13723.8125
1764.14244	13672.5125
1767.35375	13671.6125
1770.56294	13651.5125
1773.77002	13599.8125
1776.97499	13559.6125
1780.17785	13533.3125
1783.37861	13510.4125
1786.57727	13455.6125
1789.77382	13448.1125
1792.96828	13433.7125
1796.16064	13396.2125
1799.3509	13408.6125
1802.53907	13345.8125
1805.72514	13302.5125
1808.90913	13276.8125
1812.09102	13242.6125
1815.27083	13186.2125
1818.44856	13164.5125
1821.6242	13144.6125
1824.79776	13111.3125
1827.96924	13085.2125
1831.13864	13069.6125
1834.30597	13042.7125
1837.47122	13047.3125
1840.6344	13025.4125
1843.7955	13016.8125
1846.95454	12987.6125
1850.11151	13003.1125
1853.26642	12981.2125
1856.41926	12993.4125
1859.57004	13002.1125
1862.71876	13001.4125
1865.86542	12968.9125
1869.01003	12998.4125
1872.15258	13012.1125
1875.29308	12997.2125
1878.43152	13004.6125
1881.56792	12985.0125
1884.70227	12980.9125
1887.83457	12997.6125
1890.96482	12999.8125
1894.09304	12958.6125
1897.21921	12969.3125
1900.34335	12999.2125
1903.46544	12946.7125
1906.58551	12945.1125
1909.70353	12933.1125
1912.81953	12960.4125
1915.93349	12927.2125
1919.04543	12913.6125
1922.15534	12881.8125
1925.26322	12894.5125
1928.36908	12852.2125
1931.47292	12809.7125
1934.57473	12736.8125
1937.67453	12709.0125
1940.77232	12640.7125
1943.86808	12615.4125
1946.96184	12582.8125
1950.05358	12537.7125
1953.14331	12436.5125
1956.23103	12415.2125
1959.31675	12390.6125
1962.40046	12374.9125
1965.48217	12363.3125
1968.56188	12324.7125
1971.63959	12294.2125
1974.7153	12256.9125
1977.78901	12212.4125
1980.86073	12149.3125
1983.93046	12118.7125
1986.99819	12073.0125
1990.06394	12023.4125
1993.1277	12012.1125
1996.18947	11941.7125
1999.24925	11930.8125
2002.30706	11914.2125
2005.36288	11893.7125
2008.41672	11866.6125
2011.46859	11794.5125
2014.51848	11757.8125
2017.56639	11717.5125
2020.61233	11727.5125
2023.6563	11676.8125
2026.6983	11631.5125
2029.73833	11600.6125
2032.7764	11540.2125
2035.8125	11553.4125
2038.84664	11511.9125
2041.87881	11490.4125
2044.90903	11475.7125
2047.93729	11446.5125
2050.96359	11410.7125
2053.98794	11405.6125
2057.01034	11411.6125
2060.03078	11406.5125
2063.04927	11401.7125
2066.06582	11351.7125
2069.08042	11336.4125
2072.09307	11345.0125
2075.10378	11314.7125
2078.11255	11290.7125
2081.11938	11337.8125
2084.12426	11297.8125
2087.12722	11316.8125
2090.12824	11308.8125
2093.12732	11310.9125
2096.12447	11290.7125
2099.11969	11296.9125
2102.11299	11309.3125
2105.10435	11279.8125
2108.09379	11291.0125
2111.08131	11317.0125
2114.0669	11280.6125
2117.05057	11296.7125
2120.03233	11268.1125
2123.01216	11297.1125
2125.99008	11285.8125
2128.96609	11311.9125
2131.94018	11343.1125
2134.91236	11335.6125
2137.88263	11329.0125
2140.851	11328.3125
2143.81746	11326.1125
2146.78201	11315.0125
2149.74466	11327.9125
2152.7054	11321.1125
2155.66425	11298.0125
2158.6212	11291.4125
2161.57625	11300.4125
2164.52941	11272.9125
2167.48067	11253.6125
2170.43004	11242.3125
2173.37752	11262.5125
2176.32311	11231.1125
2179.26681	11251.5125
2182.20863	11278.5125
2185.14856	11287.6125
2188.08661	11255.6125
2191.02278	11263.2125
2193.95707	11220.6125
2196.88948	11261.7125
2199.82001	11226.5125
2202.74867	11217.3125
2205.67545	11201.9125
2208.60037	11174.6125
2211.52341	11143.3125
2214.44458	11151.4125
2217.36388	11117.0125
2220.28132	11120.6125
2223.1969	11054.8125
2226.11061	11000.7125
2229.02246	10996.9125
2231.93245	11014.6125
2234.84058	10981.5125
2237.74686	10950.9125
2240.65128	10971.8125
2243.55385	10949.6125
2246.45456	10947.0125
2249.35343	10923.2125
2252.25044	10912.6125
2255.14561	10908.5125
2258.03893	10886.1125
2260.93041	10876.2125
2263.82004	10892.0125
2266.70783	10854.2125
2269.59378	10831.4125
2272.4779	10782.8125
2275.36017	10766.1125
2278.24061	10728.9125
2281.11922	10704.2125
2283.996	10679.9125
2286.87094	10636.4125
2289.74405	10635.4125
2292.61534	10628.3125
2295.4848	10599.0125
2298.35243	10614.0125
2301.21824	10611.1125
2304.08223	10592.1125
2306.94439	10603.1125
2309.80474	10594.3125
2312.66327	10611.2125
2315.51999	10578.5125
2318.37489	10597.9125
2321.22797	10568.0125
2324.07925	10558.8125
2326.92871	10527.0125
2329.77637	10547.3125
2332.62222	10544.9125
2335.46626	10555.2125
2338.3085	10535.5125
2341.14893	10522.0125
2343.98756	10507.9125
2346.8244	10522.4125
2349.65943	10567.9125
2352.49267	10572.6125
2355.32411	10564.8125
2358.15376	10565.2125
2360.98161	10579.8125
2363.80768	10572.6125
2366.63195	10602.1125
2369.45444	10599.2125
2372.27514	10583.1125
2375.09405	10537.0125
2377.91118	10525.4125
2380.72652	10480.3125
2383.54009	10417.5125
2386.35187	10388.8125
2389.16188	10350.0125
2391.97011	10350.1125
2394.77657	10323.2125
2397.58125	10288.3125
2400.38416	10255.7125
2403.18529	10244.8125
2405.98466	10228.7125
2408.78226	10202.0125
2411.57809	10199.6125
2414.37216	10186.1125
2417.16446	10168.6125
2419.955	10166.7125
2422.74378	10146.6125
2425.5308	10122.1125
2428.31606	10126.3125
2431.09956	10115.9125
2433.88131	10114.2125
2436.6613	10101.9125
2439.43954	10101.3125
2442.21603	10094.2125
2444.99077	10091.7125
2447.76377	10102.3125
2450.53501	10111.7125
2453.30451	10072.3125
2456.07226	10065.5125
2458.83827	10063.7125
2461.60254	10065.8125
2464.36507	10074.3125
2467.12586	10047.2125
2469.88492	10036.6125
2472.64224	10049.5125
2475.39782	10076.8125
2478.15167	10116.3125
2480.90379	10116.9125
2483.65417	10157.3125
2486.40283	10159.3125
2489.14976	10196.5125
2491.89497	10218.6125
2494.63845	10226.1125
2497.3802	10174.3125
2500.12024	10180.0125
2502.85855	10134.6125
2505.59514	10133.7125
2508.33002	10118.2125
2511.06318	10067.1125
2513.79462	10039.0125
2516.52435	10009.5125
2519.25237	9978.1125
2521.97867	9932.7125
2524.70327	9941.4125
2527.42616	9924.9125
2530.14734	9919.7125
2532.86681	9916.9125
2535.58458	9938.9125
2538.30065	9889.2125
2541.01501	9911.2125
2543.72768	9895.3125
2546.43864	9904.6125
2549.14791	9875.3125
2551.85548	9869.6125
2554.56136	9870.3125
2557.26554	9861.6125
2559.96803	9846.4125
2562.66883	9834.6125
2565.36794	9820.3125
2568.06536	9809.5125
2570.7611	9809.2125
2573.45514	9769.8125
2576.14751	9800.6125
2578.83819	9758.2125
2581.52719	9758.1125
2584.21451	9743.2125
2586.90015	9739.3125
2589.58411	9733.2125
2592.2664	9763.5125
2594.94701	9734.4125
2597.62594	9742.6125
2600.30321	9711.0125
2602.9788	9717.2125
2605.65273	9670.4125
2608.32498	9684.3125
2610.99557	9701.6125
2613.66449	9724.0125
2616.33175	9710.8125
2618.99734	9720.9125
2621.66128	9687.5125
2624.32355	9687.6125
2626.98416	9705.3125
2629.64311	9666.7125
2632.30041	9662.9125
2634.95605	9639.2125
2637.61004	9633.2125
2640.26238	9617.2125
2642.91306	9633.6125
2645.56209	9631.6125
2648.20948	9600.5125
2650.85521	9590.9125
2653.4993	9630.7125
2656.14175	9588.9125
2658.78255	9610.6125
2661.42171	9611.0125
2664.05923	9653.1125
2666.6951	9651.1125
2669.32934	9663.5125
2671.96194	9676.4125
2674.59291	9677.2125
2677.22224	9703.0125
2679.84993	9668.9125
2682.476	9680.4125
2685.10043	9710.7125
2687.72324	9682.7125
2690.34441	9664.6125
2692.96396	9670.4125
2695.58188	9667.3125
2698.19818	9661.2125
2700.81285	9626.1125
2703.4259	9639.5125
2706.03733	9656.7125
2708.64714	9661.6125
2711.25533	9690.4125
2713.86191	9667.1125
2716.46687	9708.7125
2719.07021	9700.0125
2721.67194	9705.4125
2724.27206	9697.5125
2726.87057	9737.0125
2729.46747	9713.3125
2732.06276	9719.8125
2734.65644	9719.6125
2737.24852	9736.2125
2739.83899	9702.4125
2742.42786	9661.8125
2745.01513	9657.4125
2747.60079	9640.9125
2750.18486	9636.2125
2752.76733	9671.7125
2755.3482	9646.3125
2757.92747	9640.3125
2760.50515	9602.5125
2763.08123	9611.8125
2765.65573	9573.5125
2768.22863	9592.0125
2770.79994	9576.4125
2773.36967	9566.0125
2775.9378	9585.4125
2778.50435	9581.8125
2781.06932	9597.8125
2783.6327	9591.8125
2786.1945	9571.5125
2788.75471	9607.3125
2791.31335	9538.2125
2793.87041	9536.2125
2796.42589	9526.4125
2798.97979	9535.5125
2801.53212	9520.9125
2804.08288	9550.9125
2806.63206	9508.4125
2809.17967	9507.1125
2811.72571	9475.8125
2814.27018	9494.5125
2816.81308	9494.2125
2819.35442	9485.5125
2821.89419	9491.9125
2824.43239	9488.6125
2826.96904	9467.9125
2829.50412	9516.1125
2832.03763	9487.0125
2834.56959	9518.2125
2837.1	9525.1125
2839.62884	9505.8125
2842.15613	9512.6125
2844.68186	9531.5125
2847.20604	9534.2125
2849.72867	9545.5125
2852.24974	9551.7125
2854.76927	9543.6125
2857.28724	9548.2125
2859.80367	9544.5125
2862.31855	9553.6125
2864.83189	9569.7125
2867.34368	9545.7125
2869.85393	9547.5125
2872.36264	9521.1125
2874.8698	9518.8125
2877.37543	9485.3125
2879.87952	9512.8125
2882.38207	9489.6125
2884.88308	9462.4125
2887.38256	9471.7125
2889.88051	9454.5125
2892.37692	9472.3125
2894.8718	9450.4125
2897.36515	9468.1125
2899.85698	9449.3125
2902.34727	9497.7125
2904.83604	9492.5125
2907.32328	9505.2125
2909.809	9517.1125
2912.29319	9501.0125
2914.77587	9488.3125
2917.25702	9467.4125
2919.73665	9498.3125
2922.21476	9479.4125
2924.69136	9462.1125
2927.16644	9465.6125
2929.64	9438.6125
2932.11205	9428.1125
2934.58258	9364.5125
2937.05161	9349.9125
2939.51912	9327.0125
2941.98513	9327.0125
2944.44962	9262.5125
2946.91261	9229.0125
2949.37409	9253.2125
2951.83407	9223.7125
2954.29254	9199.5125
2956.74951	9187.1125
2959.20498	9177.4125
2961.65895	9162.0125
2964.11142	9173.2125
2966.56239	9154.2125
2969.01186	9130.0125
2971.45984	9091.0125
2973.90632	9075.2125
2976.35131	9016.0125
2978.7948	9006.1125
2981.23681	9006.4125
2983.67732	8967.5125
2986.11635	8951.1125
2988.55388	8932.7125
2990.98993	8911.5125
2993.4245	8896.3125
2995.85758	8865.7125
2998.28917	8829.7125
3000.71928	8806.2125
3003.14791	8770.6125
3005.57506	8755.5125
3008.00073	8757.3125
3010.42493	8734.6125
3012.84764	8720.0125
3015.26888	8693.5125
3017.68865	8681.4125
3020.10694	8659.4125
3022.52376	8639.8125
3024.9391	8624.1125
3027.35298	8619.0125
3029.76539	8621.7125
3032.17632	8615.6125
3034.5858	8587.2125
3036.9938	8603.8125
3039.40034	8598.9125
3041.80542	8568.6125
3044.20903	8546.7125
3046.61118	8546.8125
3049.01187	8513.2125
