Data from AgNPs_UA_10uM_CRN_0uM_R6G_10uM_Q_RamanShift__16__12-07-22-642.txt Node

Date: Mon Jul 18 12:07:22 BST 2022
User: TCL
Spectrometer: QEP01345
Trigger mode: 4
Integration Time (sec): 7.000000E0
Scans to average: 10
Electric dark correction enabled: true
Nonlinearity correction enabled: false
Boxcar width: 0
XAxis mode: Raman Shifts
Number of Pixels in Spectrum: 1044
>>>>>Begin Spectral Data<<<<<
46.04893	-1.15
50.45542	-1.15
54.85868	-1.35
59.25871	-1.65
63.6555	132.35
68.04907	133.75
72.43941	142.35
76.82654	149.05
81.21044	148.95
85.59113	157.85
89.96862	163.45
94.34289	167.35
98.71396	173.65
103.08183	177.95
107.4465	184.25
111.80798	189.75
116.16626	189.45
120.52136	200.65
124.87327	216.55
129.222	229.85
133.56755	240.45
137.90993	260.45
142.24913	281.75
146.58517	325.85
150.91804	377.75
155.24774	447.35
159.57429	566.85
163.89768	730.35
168.21792	971.95
172.53501	1325.15
176.84895	1851.55
181.15975	2604.95
185.46741	3666.35
189.77193	5076.75
194.07331	6782.35
198.37157	8687.55
202.6667	10719.05
206.9587	12696.55
211.24758	14701.95
215.53334	16641.75
219.81599	18772.85
224.09553	21149.35
228.37195	23752.85
232.64527	26560.75
236.91549	29458.25
241.18261	32301.05
245.44663	34892.75
249.70755	37283.75
253.96539	39361.45
258.22014	41058.15
262.4718	42575.45
266.72039	43584.15
270.96589	44168.45
275.20832	44240.45
279.44768	43940.05
283.68397	43463.65
287.91719	42997.45
292.14735	42868.25
296.37445	42937.55
300.59849	43293.85
304.81948	43740.25
309.03742	43933.55
313.25231	43674.45
317.46415	42848.15
321.67296	41593.45
325.87872	40571.65
330.08145	40138.35
334.28114	40220.05
338.47781	40667.65
342.67145	41247.05
346.86207	42119.95
351.04966	43149.25
355.23424	44266.25
359.4158	45121.75
363.59435	45665.65
367.76989	46080.05
371.94243	46265.85
376.11196	46301.05
380.27849	46497.45
384.44203	46654.95
388.60257	46834.25
392.76012	47136.75
396.91468	47641.95
401.06626	48355.85
405.21485	48781.15
409.36047	48422.15
413.50311	47605.85
417.64277	46893.05
421.77947	46633.75
425.9132	46638.35
430.04396	46802.25
434.17176	46928.65
438.2966	47406.15
442.41849	48173.45
446.53742	49188.05
450.6534	50256.75
454.76644	51164.45
458.87653	51308.55
462.98368	51103.55
467.08789	50726.55
471.18916	50235.65
475.2875	49593.35
479.38291	49178.45
483.4754	48759.55
487.56496	48280.85
491.6516	47906.55
495.73531	47640.65
499.81612	47550.45
503.89401	47837.35
507.96899	48045.55
512.04106	48080.85
516.11023	48111.75
520.1765	48083.55
524.23987	47956.55
528.30034	47687.75
532.35792	47387.55
536.41261	47005.65
540.46441	46634.05
544.51333	46658.05
548.55936	47098.05
552.60252	47973.55
556.64279	48911.15
560.6802	49521.85
564.71473	50041.65
568.7464	50806.05
572.7752	51487.75
576.80114	51775.65
580.82422	52079.55
584.84444	52651.65
588.86181	53287.95
592.87633	53874.25
596.888	54312.75
600.89682	54764.25
604.9028	57351.35
608.90594	63715.05
612.90624	69208.05
616.90371	63919.35
620.89834	53547.35
624.89015	49602.25
628.87913	49237.35
632.86528	49522.85
636.84862	49540.15
640.82913	48810.95
644.80683	47643.95
648.78172	46857.95
652.75379	46943.05
656.72306	47759.15
660.68952	48632.45
664.65319	48297.85
668.61405	47587.15
672.57211	47463.95
676.52738	47618.35
680.47986	47497.25
684.42955	47148.85
688.37646	47060.25
692.32058	47319.75
696.26192	47773.65
700.20048	48354.55
704.13626	48558.75
708.06928	48438.35
711.99952	48158.05
715.927	48034.25
719.85171	48133.25
723.77365	47979.95
727.69284	47614.75
731.60928	47311.55
735.52295	47298.15
739.43388	47374.75
743.34206	47536.05
747.24749	47750.05
751.15017	47926.15
755.05012	48595.05
758.94733	49999.95
762.8418	52870.45
766.73354	57105.25
770.62254	60676.75
774.50882	61274.75
778.39237	58733.45
782.27321	54923.65
786.15132	51406.05
790.02671	49226.65
793.89938	48052.15
797.76935	47609.45
801.6366	47453.15
805.50115	47342.35
809.36299	46971.35
813.22213	46763.85
817.07857	46707.05
820.93231	46673.45
824.78336	46730.05
828.63172	46687.15
832.47738	46675.25
836.32036	46672.65
840.16066	46848.65
843.99827	46915.55
847.8332	46823.25
851.66546	46757.35
855.49504	46816.45
859.32195	46803.95
863.1462	46731.65
866.96777	46705.85
870.78668	46615.15
874.60293	46636.75
878.41652	46733.35
882.22745	46965.65
886.03573	47039.55
889.84136	46998.15
893.64433	46787.95
897.44466	46648.35
901.24235	46528.25
905.0374	46432.65
908.8298	46280.65
912.61957	46282.45
916.40671	46545.45
920.19121	46937.95
923.97308	47395.05
927.75233	47666.25
931.52895	47709.45
935.30295	47244.35
939.07433	46458.35
942.84309	45909.35
946.60924	45585.45
950.37278	45556.35
954.13371	45467.75
957.89203	45390.65
961.64774	45385.75
965.40086	45387.45
969.15137	45303.35
972.89929	45227.05
976.64461	45218.95
980.38733	45273.15
984.12747	45481.95
987.86502	45787.05
991.59999	46180.65
995.33237	46711.55
999.06217	47644.75
1002.78939	48504.45
1006.51404	49032.65
1010.23611	49392.75
1013.95561	49724.75
1017.67255	49788.35
1021.38692	49347.55
1025.09872	48950.45
1028.80796	49026.65
1032.51465	49655.35
1036.21877	50307.55
1039.92035	50356.05
1043.61937	49978.35
1047.31584	49289.95
1051.00976	48806.95
1054.70114	48616.55
1058.38998	48806.65
1062.07627	48998.05
1065.76003	49333.95
1069.44126	49765.75
1073.11995	50439.65
1076.79611	51053.55
1080.46974	51505.45
1084.14085	51944.65
1087.80943	52614.75
1091.47549	52851.25
1095.13903	52580.75
1098.80005	52000.75
1102.45857	51230.45
1106.11456	50755.05
1109.76805	50579.15
1113.41903	50715.55
1117.06751	51233.45
1120.71348	51940.55
1124.35696	52581.05
1127.99793	53216.95
1131.63641	53095.85
1135.2724	52383.65
1138.90589	51715.65
1142.5369	51356.15
1146.16542	51219.95
1149.79145	51223.25
1153.415	51374.65
1157.03607	51907.55
1160.65467	52891.55
1164.27079	54458.65
1167.88443	56747.05
1171.49561	59683.25
1175.10432	63626.35
1178.71056	68665.85
1182.31434	72879.15
1185.91565	74741.25
1189.51451	74110.55
1193.11091	71859.85
1196.70485	68909.05
1200.29634	66316.95
1203.88538	64060.45
1207.47197	62084.55
1211.05612	60496.65
1214.63782	59479.85
1218.21708	58763.05
1221.79391	58478.95
1225.36829	58468.05
1228.94024	58043.85
1232.50976	57319.05
1236.07685	56718.25
1239.6415	56413.55
1243.20374	56443.25
1246.76355	56835.85
1250.32093	57487.75
1253.8759	58480.75
1257.42845	59793.95
1260.97859	61173.65
1264.52631	62665.25
1268.07163	64111.75
1271.61453	65461.55
1275.15503	66899.55
1278.69312	68228.65
1282.22882	69333.25
1285.76211	70565.85
1289.29301	72091.85
1292.82151	73842.05
1296.34761	76142.45
1299.87133	79328.05
1303.39266	83607.35
1306.9116	89104.45
1310.42815	94846.35
1313.94233	97875.85
1317.45412	97064.75
1320.96354	94200.05
1324.47058	91139.75
1327.97525	88418.15
1331.47754	86472.85
1334.97747	85406.85
1338.47502	85152.05
1341.97022	85667.65
1345.46305	86403.55
1348.95352	87025.35
1352.44163	88194.85
1355.92738	90582.95
1359.41078	95078.05
1362.89183	99188.55
1366.37053	96742.05
1369.84688	87816.35
1373.32088	78661.05
1376.79254	72678.65
1380.26186	69817.35
1383.72883	68731.45
1387.19347	67967.45
1390.65578	66918.75
1394.11575	66246.55
1397.57339	66167.55
1401.0287	66620.25
1404.48168	66961.25
1407.93234	66782.55
1411.38068	66286.65
1414.82669	65267.25
1418.27039	63746.25
1421.71177	62253.85
1425.15083	60968.45
1428.58758	60467.45
1432.02203	60900.25
1435.45416	61919.75
1438.88399	62918.35
1442.31151	63563.15
1445.73673	64040.15
1449.15965	64413.85
1452.58027	64655.55
1455.9986	64845.25
1459.41463	65210.95
1462.82837	65895.25
1466.23982	67037.75
1469.64898	67967.95
1473.05586	68533.65
1476.46045	68689.35
1479.86276	68620.45
1483.26279	68523.75
1486.66054	68757.45
1490.05602	69503.35
1493.44922	70841.25
1496.84016	72971.95
1500.22882	76200.65
1503.61521	80536.85
1506.99934	85487.05
1510.38121	89280.45
1513.76081	89822.65
1517.13816	86347.25
1520.51324	80783.65
1523.88607	75926.25
1527.25665	72893.35
1530.62498	71260.75
1533.99105	70274.35
1537.35488	69408.35
1540.71647	68515.85
1544.07581	67636.55
1547.4329	66692.45
1550.78776	65947.85
1554.14038	65381.05
1557.49077	65266.45
1560.83892	65369.15
1564.18484	66020.95
1567.52853	66772.85
1570.86999	67461.15
1574.20922	68131.95
1577.54624	68226.15
1580.88103	67319.05
1584.2136	66320.35
1587.54395	66470.95
1590.87208	68322.15
1594.19801	71612.05
1597.52172	74915.05
1600.84321	75730.45
1604.16251	73466.85
1607.47959	69519.75
1610.79447	65229.95
1614.10715	61143.75
1617.41763	57615.85
1620.7259	55295.55
1624.03199	54148.65
1627.33587	54124.05
1630.63757	55334.55
1633.93707	57952.05
1637.23439	62185.05
1640.52951	68078.05
1643.82246	74959.65
1647.11321	80590.95
1650.40179	82078.75
1653.68819	77696.85
1656.97241	69115.45
1660.25446	60726.05
1663.53433	54549.95
1666.81203	50620.45
1670.08756	48167.85
1673.36092	46723.45
1676.63211	45699.35
1679.90115	44870.15
1683.16801	44366.95
1686.43272	43924.55
1689.69527	43596.25
1692.95567	43334.25
1696.2139	43134.25
1699.46999	42998.95
1702.72392	42944.25
1705.97571	42812.85
1709.22535	42810.65
1712.47284	42834.45
1715.71819	42800.45
1718.96139	42684.05
1722.20246	42495.25
1725.44139	42382.95
1728.67818	42163.95
1731.91284	41899.95
1735.14537	41698.85
1738.37576	41640.05
1741.60403	41518.25
1744.83017	41423.95
1748.05418	41373.65
1751.27607	41278.65
1754.49584	41189.55
1757.71349	41129.65
1760.92903	41087.85
1764.14244	41010.65
1767.35375	41052.35
1770.56294	40934.65
1773.77002	40846.55
1776.97499	40868.95
1780.17785	40819.15
1783.37861	40759.55
1786.57727	40695.05
1789.77382	40585.95
1792.96828	40558.75
1796.16064	40520.55
1799.3509	40459.05
1802.53907	40315.15
1805.72514	40165.85
1808.90913	40069.65
1812.09102	40016.55
1815.27083	39969.55
1818.44856	39915.05
1821.6242	39876.25
1824.79776	39820.05
1827.96924	39793.55
1831.13864	39765.35
1834.30597	39673.95
1837.47122	39680.95
1840.6344	39688.45
1843.7955	39720.35
1846.95454	39641.85
1850.11151	39617.35
1853.26642	39631.15
1856.41926	39581.75
1859.57004	39587.85
1862.71876	39532.75
1865.86542	39486.55
1869.01003	39503.95
1872.15258	39529.95
1875.29308	39415.75
1878.43152	39308.15
1881.56792	39257.85
1884.70227	39240.75
1887.83457	39276.65
1890.96482	39196.95
1894.09304	39131.25
1897.21921	39111.05
1900.34335	39122.75
1903.46544	39032.65
1906.58551	38960.55
1909.70353	38949.15
1912.81953	38943.75
1915.93349	38940.05
1919.04543	38821.45
1922.15534	38786.05
1925.26322	38717.65
1928.36908	38616.05
1931.47292	38556.95
1934.57473	38439.95
1937.67453	38312.55
1940.77232	38293.15
1943.86808	38126.25
1946.96184	38074.85
1950.05358	37996.75
1953.14331	37803.75
1956.23103	37705.25
1959.31675	37664.75
1962.40046	37552.15
1965.48217	37492.35
1968.56188	37403.85
1971.63959	37295.35
1974.7153	37229.85
1977.78901	37139.85
1980.86073	36925.75
1983.93046	36878.15
1986.99819	36773.05
1990.06394	36706.15
1993.1277	36575.35
1996.18947	36453.05
1999.24925	36436.35
2002.30706	36319.95
2005.36288	36260.75
2008.41672	36210.55
2011.46859	36075.05
2014.51848	35991.35
2017.56639	35929.55
2020.61233	35842.75
2023.6563	35750.45
2026.6983	35573.25
2029.73833	35418.75
2032.7764	35398.25
2035.8125	35454.05
2038.84664	35328.65
2041.87881	35235.05
2044.90903	35166.15
2047.93729	35099.75
2050.96359	35072.85
2053.98794	35009.35
2057.01034	34987.35
2060.03078	35008.65
2063.04927	35005.95
2066.06582	34964.05
2069.08042	34968.95
2072.09307	34863.15
2075.10378	34858.95
2078.11255	34846.65
2081.11938	34898.25
2084.12426	34866.95
2087.12722	34885.45
2090.12824	34823.05
2093.12732	34811.75
2096.12447	34839.85
2099.11969	34893.05
2102.11299	34906.75
2105.10435	34862.45
2108.09379	34891.05
2111.08131	34964.55
2114.0669	34915.75
2117.05057	34917.45
2120.03233	34986.95
2123.01216	35046.65
2125.99008	35034.25
2128.96609	35134.85
2131.94018	35227.75
2134.91236	35282.75
2137.88263	35240.25
2140.851	35224.35
2143.81746	35250.95
2146.78201	35283.55
2149.74466	35355.95
2152.7054	35282.55
2155.66425	35311.15
2158.6212	35279.75
2161.57625	35236.05
2164.52941	35212.25
2167.48067	35195.25
2170.43004	35215.25
2173.37752	35177.25
2176.32311	35190.25
2179.26681	35213.45
2182.20863	35252.25
2185.14856	35278.95
2188.08661	35253.25
2191.02278	35231.35
2193.95707	35267.15
2196.88948	35239.45
2199.82001	35257.85
2202.74867	35169.15
2205.67545	35127.65
2208.60037	35113.75
2211.52341	34968.35
2214.44458	35031.65
2217.36388	34987.55
2220.28132	35002.75
2223.1969	34883.05
2226.11061	34756.65
2229.02246	34701.85
2231.93245	34713.55
2234.84058	34601.95
2237.74686	34526.75
2240.65128	34518.65
2243.55385	34440.05
2246.45456	34411.85
2249.35343	34384.35
2252.25044	34318.45
2255.14561	34356.55
2258.03893	34268.65
2260.93041	34232.95
2263.82004	34206.45
2266.70783	34132.65
2269.59378	34060.85
2272.4779	33982.85
2275.36017	33935.65
2278.24061	33875.55
2281.11922	33820.85
2283.996	33757.35
2286.87094	33717.55
2289.74405	33601.85
2292.61534	33618.85
2295.4848	33593.75
2298.35243	33645.75
2301.21824	33630.75
2304.08223	33625.35
2306.94439	33553.75
2309.80474	33623.65
2312.66327	33600.25
2315.51999	33575.25
2318.37489	33618.05
2321.22797	33576.65
2324.07925	33531.15
2326.92871	33372.45
2329.77637	33382.65
2332.62222	33403.85
2335.46626	33400.25
2338.3085	33412.75
2341.14893	33330.45
2343.98756	33357.25
2346.8244	33398.45
2349.65943	33435.25
2352.49267	33423.95
2355.32411	33415.25
2358.15376	33363.35
2360.98161	33358.05
2363.80768	33355.95
2366.63195	33334.75
2369.45444	33301.45
2372.27514	33253.55
2375.09405	33188.45
2377.91118	33121.15
2380.72652	33040.35
2383.54009	32935.05
2386.35187	32884.65
2389.16188	32874.55
2391.97011	32839.55
2394.77657	32764.65
2397.58125	32680.25
2400.38416	32711.05
2403.18529	32644.65
2405.98466	32654.65
2408.78226	32545.05
2411.57809	32515.05
2414.37216	32541.05
2417.16446	32524.45
2419.955	32431.35
2422.74378	32432.05
2425.5308	32370.05
2428.31606	32328.05
2431.09956	32336.25
2433.88131	32307.65
2436.6613	32315.05
2439.43954	32337.75
2442.21603	32284.55
2444.99077	32271.55
2447.76377	32257.25
2450.53501	32162.45
2453.30451	32170.35
2456.07226	32132.25
2458.83827	32121.85
2461.60254	32151.35
2464.36507	32110.55
2467.12586	32094.75
2469.88492	32044.55
2472.64224	32071.55
2475.39782	32070.45
2478.15167	32131.85
2480.90379	32147.05
2483.65417	32203.05
2486.40283	32267.75
2489.14976	32268.65
2491.89497	32258.65
2494.63845	32313.95
2497.3802	32259.25
2500.12024	32219.15
2502.85855	32107.45
2505.59514	32088.55
2508.33002	32047.25
2511.06318	31996.55
2513.79462	31973.05
2516.52435	31923.05
2519.25237	31895.75
2521.97867	31843.55
2524.70327	31880.15
2527.42616	31854.25
2530.14734	31817.95
2532.86681	31818.75
2535.58458	31840.45
2538.30065	31807.95
2541.01501	31767.25
2543.72768	31761.75
2546.43864	31695.05
2549.14791	31625.35
2551.85548	31617.85
2554.56136	31506.25
2557.26554	31537.55
2559.96803	31561.95
2562.66883	31395.45
2565.36794	31460.65
2568.06536	31451.55
2570.7611	31414.55
2573.45514	31407.55
2576.14751	31397.35
2578.83819	31298.95
2581.52719	31252.85
2584.21451	31268.05
2586.90015	31264.75
2589.58411	31244.85
2592.2664	31247.95
2594.94701	31241.35
2597.62594	31250.75
2600.30321	31182.35
2602.9788	31081.65
2605.65273	31013.35
2608.32498	31044.55
2610.99557	31024.65
2613.66449	31090.35
2616.33175	30983.55
2618.99734	30979.95
2621.66128	30951.55
2624.32355	30961.95
2626.98416	30955.05
2629.64311	30960.85
2632.30041	30925.35
2634.95605	30827.75
2637.61004	30792.05
2640.26238	30822.15
2642.91306	30824.45
2645.56209	30802.65
2648.20948	30775.95
2650.85521	30726.35
2653.4993	30701.65
2656.14175	30734.55
2658.78255	30776.65
2661.42171	30811.45
2664.05923	30858.95
2666.6951	30803.85
2669.32934	30823.65
2671.96194	30848.85
2674.59291	30820.75
2677.22224	30864.65
2679.84993	30861.45
2682.476	30834.05
2685.10043	30795.45
2687.72324	30726.75
2690.34441	30729.55
2692.96396	30738.05
2695.58188	30731.65
2698.19818	30658.65
2700.81285	30731.05
2703.4259	30708.15
2706.03733	30787.05
2708.64714	30799.95
2711.25533	30832.55
2713.86191	30809.25
2716.46687	30812.05
2719.07021	30816.35
2721.67194	30850.35
2724.27206	30842.85
2726.87057	30890.25
2729.46747	30860.45
2732.06276	30904.15
2734.65644	30899.95
2737.24852	30870.95
2739.83899	30794.25
2742.42786	30794.65
2745.01513	30704.45
2747.60079	30757.45
2750.18486	30739.55
2752.76733	30773.65
2755.3482	30743.45
2757.92747	30707.05
2760.50515	30658.65
2763.08123	30635.95
2765.65573	30562.65
2768.22863	30596.85
2770.79994	30549.95
2773.36967	30562.35
2775.9378	30529.75
2778.50435	30468.55
2781.06932	30468.95
2783.6327	30476.65
2786.1945	30507.35
2788.75471	30483.45
2791.31335	30364.55
2793.87041	30278.85
2796.42589	30236.95
2798.97979	30237.95
2801.53212	30211.25
2804.08288	30253.25
2806.63206	30123.85
2809.17967	30084.65
2811.72571	30033.55
2814.27018	29929.65
2816.81308	29867.85
2819.35442	29888.15
2821.89419	29806.05
2824.43239	29796.85
2826.96904	29765.05
2829.50412	29763.55
2832.03763	29669.15
2834.56959	29723.95
2837.1	29672.65
2839.62884	29660.65
2842.15613	29596.75
2844.68186	29570.55
2847.20604	29502.05
2849.72867	29515.35
2852.24974	29503.65
2854.76927	29468.65
2857.28724	29419.45
2859.80367	29423.45
2862.31855	29422.95
2864.83189	29449.65
2867.34368	29434.65
2869.85393	29429.85
2872.36264	29361.45
2874.8698	29314.85
2877.37543	29293.95
2879.87952	29336.85
2882.38207	29330.15
2884.88308	29326.05
2887.38256	29319.55
2889.88051	29283.15
2892.37692	29316.35
2894.8718	29361.15
2897.36515	29390.35
2899.85698	29319.85
2902.34727	29382.75
2904.83604	29363.15
2907.32328	29473.25
2909.809	29512.45
2912.29319	29490.45
2914.77587	29436.25
2917.25702	29487.75
2919.73665	29512.35
2922.21476	29503.85
2924.69136	29447.35
2927.16644	29488.25
2929.64	29396.75
2932.11205	29418.25
2934.58258	29269.45
2937.05161	29271.85
2939.51912	29284.75
2941.98513	29327.85
2944.44962	29240.55
2946.91261	29171.25
2949.37409	29243.95
2951.83407	29241.75
2954.29254	29241.15
2956.74951	29240.85
2959.20498	29275.65
2961.65895	29204.75
2964.11142	29296.35
2966.56239	29241.25
2969.01186	29244.75
2971.45984	29104.45
2973.90632	29116.85
2976.35131	29033.15
2978.7948	29044.95
2981.23681	28958.85
2983.67732	28997.95
2986.11635	28950.15
2988.55388	28895.25
2990.98993	28866.85
2993.4245	28797.85
2995.85758	28734.35
2998.28917	28669.15
3000.71928	28612.45
3003.14791	28533.35
3005.57506	28548.35
3008.00073	28455.55
3010.42493	28458.85
3012.84764	28403.35
3015.26888	28390.45
3017.68865	28348.85
3020.10694	28338.05
3022.52376	28269.45
3024.9391	28263.45
3027.35298	28183.55
3029.76539	28199.85
3032.17632	28193.45
3034.5858	28203.95
3036.9938	28203.45
3039.40034	28152.05
3041.80542	28148.35
3044.20903	28053.25
3046.61118	28073.45
3049.01187	27927.85
3051.4111	27973.35
3053.80888	27871.25
3056.20519	27890.95
3058.60005	27808.55
3060.99345	27800.15
3063.3854	27732.55
3065.7759	27578.55
3068.16494	27541.25
3070.55254	27512.35
3072.93868	27485.75
3075.32338	27376.55
3077.70662	27324.15
3080.08842	27254.15
3082.46878	27254.85
3084.84769	27240.15
3087.22515	27237.35
3089.60118	27212.35
3091.97576	27243.35
3094.3489	27228.45
3096.72061	27235.15
3099.09087	27241.15
3101.4597	27202.45
3103.82709	27256.25
3106.19305	27213.35
3108.55757	27218.55
3110.92066	27107.25
3113.28232	27117.55
3115.64255	27053.35
3118.00134	26987.55
3120.35871	26995.55
3122.71466	26902.15
3125.06917	26900.25
3127.42226	26784.95
3129.77393	26779.55
3132.12417	26744.15
3134.47299	26783.95
3136.82039	26753.25
3139.16636	26755.95
3141.51092	26713.65
3143.85406	26733.85
3146.19579	26719.15
3148.53609	26752.85
3150.87499	26797.65
3153.21246	26725.75
3155.54853	26755.95
3157.88318	26736.55
3160.21642	26779.05
3162.54826	26813.05
3164.87868	26844.65
3167.2077	26814.85
3169.5353	26835.75
3171.86151	26773.95
3174.18631	26724.35
3176.5097	26721.65
3178.83169	26719.15
3181.15228	26730.25
3183.47147	26658.75
3185.78926	26663.35
3188.10565	26566.35
3190.42065	26583.25
3192.73424	26566.85
3195.04645	26506.95
3197.35725	26516.15
3199.66667	26480.35
3201.97469	26535.65
3204.28132	26433.35
3206.58656	26509.35
3208.8904	26479.55
3211.19287	26489.55
3213.49394	26467.25
3215.79363	26539.35
3218.09193	26589.95
3220.38884	26562.35
3222.68438	26586.55
3224.97853	26581.65
3227.2713	26630.45
3229.56269	26593.05
3231.8527	26543.35
3234.14133	26573.05
3236.42858	26516.45
3238.71446	26491.85
3240.99896	26456.65
