Data from AgNPs_UA_50uM_CRN_0uM_R6G_10uM_Q_RamanShift__31__12-47-21-793.txt Node

Date: Tue Jul 26 12:47:21 BST 2022
User: TCL
Spectrometer: QEP01345
Trigger mode: 4
Integration Time (sec): 7.000000E0
Scans to average: 10
Electric dark correction enabled: true
Nonlinearity correction enabled: false
Boxcar width: 0
XAxis mode: Raman Shifts
Number of Pixels in Spectrum: 1044
>>>>>Begin Spectral Data<<<<<
46.04893	-0.25
50.45542	-0.35
54.85868	1.55
59.25871	-2.55
63.6555	63.65
68.04907	67.85
72.43941	76.55
76.82654	84.85
81.21044	81.25
85.59113	87.55
89.96862	91.95
94.34289	97.25
98.71396	103.25
103.08183	105.15
107.4465	105.75
111.80798	108.25
116.16626	106.35
120.52136	113.75
124.87327	111.45
129.222	114.45
133.56755	123.35
137.90993	123.65
142.24913	133.55
146.58517	144.75
150.91804	159.25
155.24774	183.25
159.57429	221.65
163.89768	271.95
168.21792	354.35
172.53501	473.05
176.84895	640.95
181.15975	885.75
185.46741	1239.65
189.77193	1702.05
194.07331	2272.75
198.37157	2909.45
202.6667	3604.35
206.9587	4310.65
211.24758	5040.85
215.53334	5785.55
219.81599	6645.65
224.09553	7621.55
228.37195	8697.25
232.64527	9857.25
236.91549	10978.25
241.18261	11947.65
245.44663	12679.75
249.70755	13248.15
253.96539	13717.55
258.22014	14102.85
262.4718	14375.05
266.72039	14507.65
270.96589	14455.75
275.20832	14233.55
279.44768	13902.05
283.68397	13615.15
287.91719	13463.35
292.14735	13548.75
296.37445	14055.95
300.59849	14832.05
304.81948	15780.35
309.03742	16542.25
313.25231	16676.75
317.46415	15886.35
321.67296	14566.45
325.87872	13442.45
330.08145	12963.35
334.28114	13001.25
338.47781	13333.45
342.67145	13831.35
346.86207	14575.65
351.04966	15697.95
355.23424	16925.25
359.4158	17825.15
363.59435	18199.15
367.76989	18180.35
371.94243	17961.25
376.11196	17745.15
380.27849	17512.15
384.44203	17184.35
388.60257	16917.65
392.76012	16787.45
396.91468	16922.75
401.06626	17390.15
405.21485	17663.75
409.36047	17259.15
413.50311	16188.05
417.64277	15211.05
421.77947	14592.25
425.9132	14332.05
430.04396	14331.25
434.17176	14466.95
438.2966	14801.45
442.41849	15296.35
446.53742	15865.95
450.6534	16352.95
454.76644	16641.45
458.87653	16579.85
462.98368	16316.35
467.08789	15905.65
471.18916	15402.55
475.2875	14866.05
479.38291	14440.75
483.4754	14194.65
487.56496	14037.15
491.6516	13896.65
495.73531	13810.15
499.81612	13894.15
503.89401	14054.55
507.96899	14301.25
512.04106	14610.45
516.11023	14972.85
520.1765	15255.45
524.23987	15256.85
528.30034	15076.95
532.35792	14861.65
536.41261	14570.35
540.46441	14230.55
544.51333	14020.55
548.55936	14097.15
552.60252	14382.65
556.64279	14743.95
560.6802	14955.15
564.71473	15380.25
568.7464	16158.55
572.7752	16309.45
576.80114	15500.35
580.82422	14731.35
584.84444	14493.75
588.86181	14621.95
592.87633	14873.05
596.888	15338.05
600.89682	16268.15
604.9028	19227.25
608.90594	25997.15
612.90624	33542.85
616.90371	30784.65
620.89834	20924.35
624.89015	16623.15
628.87913	16024.45
632.86528	16120.75
636.84862	16202.45
640.82913	15690.15
644.80683	14703.55
648.78172	14103.85
652.75379	14205.75
656.72306	15036.55
660.68952	15826.35
664.65319	15521.45
668.61405	14600.45
672.57211	14219.65
676.52738	14143.75
680.47986	14042.25
684.42955	13881.05
688.37646	13874.95
692.32058	13975.55
696.26192	14112.65
700.20048	14335.75
704.13626	14441.35
708.06928	14305.45
711.99952	14159.95
715.927	14160.85
719.85171	14247.75
723.77365	14288.05
727.69284	14139.65
731.60928	14027.75
735.52295	14091.95
739.43388	14152.15
743.34206	14284.65
747.24749	14397.35
751.15017	14465.05
755.05012	14852.95
758.94733	15948.05
762.8418	18364.45
766.73354	21893.65
770.62254	24990.45
774.50882	26474.65
778.39237	25396.65
782.27321	21691.85
786.15132	17887.65
790.02671	15799.35
793.89938	14878.25
797.76935	14513.75
801.6366	14383.45
805.50115	14295.15
809.36299	14279.45
813.22213	14190.25
817.07857	14143.45
820.93231	14157.15
824.78336	14210.45
828.63172	14311.25
832.47738	14347.35
836.32036	14285.15
840.16066	14227.45
843.99827	14199.85
847.8332	14137.65
851.66546	14083.75
855.49504	14083.05
859.32195	14045.85
863.1462	13960.85
866.96777	13907.65
870.78668	13918.85
874.60293	14015.05
878.41652	14121.15
882.22745	14289.15
886.03573	14393.05
889.84136	14338.05
893.64433	14291.15
897.44466	14267.55
901.24235	14211.05
905.0374	14145.75
908.8298	13982.65
912.61957	13923.85
916.40671	13973.45
920.19121	14092.55
923.97308	14325.95
927.75233	14696.25
931.52895	14930.25
935.30295	14757.25
939.07433	14199.75
942.84309	13789.05
946.60924	13603.15
950.37278	13537.45
954.13371	13454.95
957.89203	13343.05
961.64774	13278.35
965.40086	13253.75
969.15137	13230.75
972.89929	13177.25
976.64461	13191.25
980.38733	13184.55
984.12747	13257.85
987.86502	13371.55
991.59999	13568.65
995.33237	13896.65
999.06217	14480.65
1002.78939	15051.55
1006.51404	15441.75
1010.23611	15731.35
1013.95561	15951.15
1017.67255	16006.45
1021.38692	15882.75
1025.09872	15772.65
1028.80796	15958.15
1032.51465	16413.85
1036.21877	16837.05
1039.92035	16827.45
1043.61937	16559.95
1047.31584	16105.65
1051.00976	15688.35
1054.70114	15443.55
1058.38998	15384.35
1062.07627	15433.05
1065.76003	15435.65
1069.44126	15561.25
1073.11995	15736.85
1076.79611	15965.15
1080.46974	16382.55
1084.14085	16923.35
1087.80943	17344.75
1091.47549	17315.75
1095.13903	16823.75
1098.80005	16143.55
1102.45857	15693.85
1106.11456	15625.55
1109.76805	15873.25
1113.41903	16424.75
1117.06751	17280.25
1120.71348	18405.75
1124.35696	19721.95
1127.99793	20336.55
1131.63641	19626.65
1135.2724	18314.55
1138.90589	17310.95
1142.5369	16647.15
1146.16542	16140.45
1149.79145	15859.15
1153.415	15811.65
1157.03607	16005.65
1160.65467	16346.75
1164.27079	16924.05
1167.88443	17928.85
1171.49561	19467.55
1175.10432	22047.85
1178.71056	25429.45
1182.31434	28058.25
1185.91565	28940.25
1189.51451	28224.65
1193.11091	26370.35
1196.70485	24192.05
1200.29634	22505.65
1203.88538	21107.55
1207.47197	19626.45
1211.05612	18426.15
1214.63782	17776.75
1218.21708	17576.95
1221.79391	17617.45
1225.36829	17835.35
1228.94024	17875.65
1232.50976	17818.35
1236.07685	17824.55
1239.6415	17939.65
1243.20374	18083.15
1246.76355	18314.25
1250.32093	18574.45
1253.8759	19039.55
1257.42845	19743.85
1260.97859	20448.15
1264.52631	21110.65
1268.07163	21744.45
1271.61453	22245.75
1275.15503	22606.35
1278.69312	23032.25
1282.22882	23596.35
1285.76211	24388.05
1289.29301	25252.75
1292.82151	25986.45
1296.34761	26931.55
1299.87133	28638.55
1303.39266	31490.45
1306.9116	35945.15
1310.42815	40263.45
1313.94233	41550.25
1317.45412	39049.75
1320.96354	35075.75
1324.47058	31446.05
1327.97525	28850.85
1331.47754	27725.05
1334.97747	27740.55
1338.47502	28560.95
1341.97022	30017.75
1345.46305	31775.15
1348.95352	33915.65
1352.44163	36526.45
1355.92738	40693.85
1359.41078	47076.05
1362.89183	51311.35
1366.37053	47272.75
1369.84688	38783.25
1373.32088	31842.35
1376.79254	27728.65
1380.26186	25422.85
1383.72883	24090.75
1387.19347	22992.95
1390.65578	21945.75
1394.11575	21095.05
1397.57339	20610.15
1401.0287	20597.95
1404.48168	20914.55
1407.93234	21429.15
1411.38068	22069.55
1414.82669	22459.25
1418.27039	22360.85
1421.71177	21959.55
1425.15083	21724.55
1428.58758	21866.35
1432.02203	22305.35
1435.45416	22560.05
1438.88399	22450.45
1442.31151	22236.95
1445.73673	22212.65
1449.15965	22168.65
1452.58027	21918.55
1455.9986	21504.65
1459.41463	21347.15
1462.82837	21601.65
1466.23982	22052.95
1469.64898	22528.35
1473.05586	22870.75
1476.46045	23160.75
1479.86276	23638.85
1483.26279	24273.55
1486.66054	25077.45
1490.05602	26230.85
1493.44922	27938.65
1496.84016	30545.95
1500.22882	34276.55
1503.61521	39367.35
1506.99934	44726.35
1510.38121	48385.55
1513.76081	47999.25
1517.13816	43237.35
1520.51324	36604.25
1523.88607	31249.65
1527.25665	27992.45
1530.62498	26214.95
1533.99105	25161.05
1537.35488	24542.65
1540.71647	24347.25
1544.07581	24345.65
1547.4329	24355.65
1550.78776	24342.75
1554.14038	24293.85
1557.49077	24329.85
1560.83892	24585.55
1564.18484	25220.55
1567.52853	26029.45
1570.86999	26548.75
1574.20922	26768.45
1577.54624	26276.95
1580.88103	24742.25
1584.2136	23023.85
1587.54395	22309.15
1590.87208	22896.85
1594.19801	24669.45
1597.52172	27010.45
1600.84321	28306.15
1604.16251	27767.85
1607.47959	26037.55
1610.79447	23837.85
1614.10715	21657.95
1617.41763	19995.25
1620.7259	18937.05
1624.03199	18500.35
1627.33587	18673.55
1630.63757	19313.85
1633.93707	20616.25
1637.23439	22555.85
1640.52951	25343.65
1643.82246	28985.15
1647.11321	32656.65
1650.40179	34071.85
1653.68819	31717.95
1656.97241	26839.35
1660.25446	22178.45
1663.53433	19075.55
1666.81203	17245.75
1670.08756	16175.05
1673.36092	15505.15
1676.63211	15046.25
1679.90115	14728.65
1683.16801	14427.65
1686.43272	14260.75
1689.69527	14169.75
1692.95567	14085.85
1696.2139	14023.05
1699.46999	13997.55
1702.72392	13970.85
1705.97571	13942.65
1709.22535	13958.75
1712.47284	13964.85
1715.71819	13941.55
1718.96139	13929.15
1722.20246	13850.45
1725.44139	13790.65
1728.67818	13714.85
1731.91284	13599.95
1735.14537	13500.25
1738.37576	13475.65
1741.60403	13404.35
1744.83017	13368.95
1748.05418	13315.65
1751.27607	13273.75
1754.49584	13238.35
1757.71349	13228.45
1760.92903	13215.85
1764.14244	13167.95
1767.35375	13140.45
1770.56294	13118.15
1773.77002	13087.75
1776.97499	13049.65
1780.17785	13061.25
1783.37861	13039.35
1786.57727	13029.55
1789.77382	13001.25
1792.96828	12997.35
1796.16064	12998.85
1799.3509	12978.85
1802.53907	12977.75
1805.72514	12959.35
1808.90913	12897.65
1812.09102	12851.65
1815.27083	12809.15
1818.44856	12759.65
1821.6242	12770.15
1824.79776	12733.25
1827.96924	12708.55
1831.13864	12715.05
1834.30597	12670.25
1837.47122	12669.95
1840.6344	12672.45
1843.7955	12669.55
1846.95454	12670.05
1850.11151	12667.95
1853.26642	12642.55
1856.41926	12679.35
1859.57004	12645.65
1862.71876	12636.55
1865.86542	12661.45
1869.01003	12652.05
1872.15258	12655.35
1875.29308	12648.55
1878.43152	12662.85
1881.56792	12658.25
1884.70227	12645.65
1887.83457	12668.35
1890.96482	12643.35
1894.09304	12595.55
1897.21921	12607.15
1900.34335	12566.35
1903.46544	12558.15
1906.58551	12584.95
1909.70353	12600.65
1912.81953	12585.65
1915.93349	12587.65
1919.04543	12532.75
1922.15534	12557.85
1925.26322	12532.95
1928.36908	12494.15
1931.47292	12459.35
1934.57473	12470.55
1937.67453	12417.05
1940.77232	12395.35
1943.86808	12358.55
1946.96184	12339.05
1950.05358	12314.65
1953.14331	12247.75
1956.23103	12250.05
1959.31675	12204.25
1962.40046	12157.35
1965.48217	12114.85
1968.56188	12110.25
1971.63959	12087.35
1974.7153	12071.55
1977.78901	12036.05
1980.86073	12019.65
1983.93046	11943.75
1986.99819	11880.05
1990.06394	11883.25
1993.1277	11833.95
1996.18947	11795.15
1999.24925	11787.85
2002.30706	11777.55
2005.36288	11728.35
2008.41672	11661.55
2011.46859	11650.25
2014.51848	11611.15
2017.56639	11578.45
2020.61233	11535.55
2023.6563	11519.65
2026.6983	11476.85
2029.73833	11472.95
2032.7764	11432.15
2035.8125	11438.05
2038.84664	11430.05
2041.87881	11443.75
2044.90903	11413.65
2047.93729	11407.65
2050.96359	11388.65
2053.98794	11357.25
2057.01034	11364.45
2060.03078	11357.45
2063.04927	11337.25
2066.06582	11334.95
2069.08042	11314.25
2072.09307	11294.05
2075.10378	11279.15
2078.11255	11262.35
2081.11938	11263.35
2084.12426	11243.35
2087.12722	11248.25
2090.12824	11259.85
2093.12732	11236.45
2096.12447	11224.75
2099.11969	11217.95
2102.11299	11241.25
2105.10435	11251.85
2108.09379	11254.95
2111.08131	11256.45
2114.0669	11242.95
2117.05057	11278.15
2120.03233	11295.55
2123.01216	11317.55
2125.99008	11311.95
2128.96609	11314.15
2131.94018	11322.65
2134.91236	11311.35
2137.88263	11333.45
2140.851	11295.05
2143.81746	11310.85
2146.78201	11300.15
2149.74466	11317.65
2152.7054	11309.25
2155.66425	11329.95
2158.6212	11275.85
2161.57625	11286.35
2164.52941	11272.35
2167.48067	11289.15
2170.43004	11289.35
2173.37752	11270.65
2176.32311	11260.75
2179.26681	11303.65
2182.20863	11273.15
2185.14856	11311.75
2188.08661	11296.45
2191.02278	11277.85
2193.95707	11248.25
2196.88948	11293.05
2199.82001	11271.15
2202.74867	11297.25
2205.67545	11287.25
2208.60037	11306.95
2211.52341	11272.55
2214.44458	11270.65
2217.36388	11253.05
2220.28132	11257.05
2223.1969	11222.25
2226.11061	11206.65
2229.02246	11175.55
2231.93245	11166.85
2234.84058	11121.35
2237.74686	11094.95
2240.65128	11104.15
2243.55385	11071.15
2246.45456	11048.05
2249.35343	11054.25
2252.25044	11105.75
2255.14561	11056.35
2258.03893	11071.25
2260.93041	11050.15
2263.82004	11028.75
2266.70783	11021.55
2269.59378	11008.65
2272.4779	10978.15
2275.36017	10946.15
2278.24061	10936.75
2281.11922	10882.75
2283.996	10873.35
2286.87094	10836.65
2289.74405	10824.55
2292.61534	10803.15
2295.4848	10789.45
2298.35243	10776.05
2301.21824	10794.45
2304.08223	10809.85
2306.94439	10817.95
2309.80474	10843.05
2312.66327	10846.35
2315.51999	10832.25
2318.37489	10860.25
2321.22797	10829.25
2324.07925	10823.75
2326.92871	10774.35
2329.77637	10777.95
2332.62222	10776.15
2335.46626	10789.65
2338.3085	10802.75
2341.14893	10790.85
2343.98756	10824.35
2346.8244	10839.55
2349.65943	10890.55
2352.49267	10876.25
2355.32411	10868.35
2358.15376	10874.95
2360.98161	10876.65
2363.80768	10865.95
2366.63195	10844.85
2369.45444	10872.05
2372.27514	10821.05
2375.09405	10827.55
2377.91118	10785.45
2380.72652	10762.05
2383.54009	10721.25
2386.35187	10687.35
2389.16188	10649.85
2391.97011	10613.55
2394.77657	10614.25
2397.58125	10577.55
2400.38416	10568.65
2403.18529	10538.75
2405.98466	10495.55
2408.78226	10465.05
2411.57809	10458.45
2414.37216	10443.05
2417.16446	10435.85
2419.955	10409.95
2422.74378	10419.35
2425.5308	10414.45
2428.31606	10393.45
2431.09956	10387.95
2433.88131	10378.45
2436.6613	10394.45
2439.43954	10364.35
2442.21603	10393.15
2444.99077	10371.65
2447.76377	10375.15
2450.53501	10357.15
2453.30451	10347.85
2456.07226	10338.95
2458.83827	10337.55
2461.60254	10316.45
2464.36507	10317.15
2467.12586	10304.55
2469.88492	10314.85
2472.64224	10352.55
2475.39782	10354.25
2478.15167	10360.95
2480.90379	10359.55
2483.65417	10378.15
2486.40283	10405.95
2489.14976	10453.95
2491.89497	10442.95
2494.63845	10471.05
2497.3802	10453.35
2500.12024	10432.55
2502.85855	10408.25
2505.59514	10398.15
2508.33002	10368.65
2511.06318	10330.25
2513.79462	10309.45
2516.52435	10300.25
2519.25237	10244.95
2521.97867	10221.55
2524.70327	10212.25
2527.42616	10202.55
2530.14734	10203.15
2532.86681	10215.55
2535.58458	10190.95
2538.30065	10204.65
2541.01501	10202.15
2543.72768	10212.35
2546.43864	10193.15
2549.14791	10172.55
2551.85548	10187.45
2554.56136	10177.95
2557.26554	10151.05
2559.96803	10139.55
2562.66883	10136.55
2565.36794	10124.85
2568.06536	10127.75
2570.7611	10124.65
2573.45514	10090.75
2576.14751	10097.05
2578.83819	10082.25
2581.52719	10081.35
2584.21451	10074.55
2586.90015	10082.35
2589.58411	10054.85
2592.2664	10062.05
2594.94701	10047.55
2597.62594	10065.65
2600.30321	10024.65
2602.9788	10043.35
2605.65273	10030.05
2608.32498	10051.85
2610.99557	10049.75
2613.66449	10069.75
2616.33175	10062.65
2618.99734	10077.45
2621.66128	10100.55
2624.32355	10079.35
2626.98416	10086.75
2629.64311	10090.55
2632.30041	10095.35
2634.95605	10105.15
2637.61004	10096.65
2640.26238	10055.25
2642.91306	10061.35
2645.56209	10052.65
2648.20948	10023.95
2650.85521	9992.25
2653.4993	9992.45
2656.14175	9970.35
2658.78255	9990.85
2661.42171	9974.95
2664.05923	10006.95
2666.6951	10034.35
2669.32934	10074.85
2671.96194	10084.05
2674.59291	10080.15
2677.22224	10063.75
2679.84993	10087.75
2682.476	10057.25
2685.10043	10040.85
2687.72324	10048.35
2690.34441	10021.15
2692.96396	10022.15
2695.58188	10011.25
2698.19818	10004.55
2700.81285	10007.35
2703.4259	10007.55
2706.03733	10025.25
2708.64714	9985.15
2711.25533	10001.25
2713.86191	10006.55
2716.46687	10011.15
2719.07021	10017.75
2721.67194	10028.55
2724.27206	10008.55
2726.87057	10014.75
2729.46747	10004.05
2732.06276	10027.85
2734.65644	10025.25
2737.24852	9992.15
2739.83899	9990.15
2742.42786	10015.15
2745.01513	9997.65
2747.60079	9982.45
2750.18486	9928.85
2752.76733	9943.25
2755.3482	9921.05
2757.92747	9939.55
2760.50515	9901.85
2763.08123	9925.85
2765.65573	9904.25
2768.22863	9942.05
2770.79994	9939.75
2773.36967	9942.35
2775.9378	9906.25
2778.50435	9913.35
2781.06932	9921.55
2783.6327	9922.95
2786.1945	9918.15
2788.75471	9910.65
2791.31335	9911.65
2793.87041	9879.45
2796.42589	9848.35
2798.97979	9855.25
2801.53212	9857.05
2804.08288	9845.15
2806.63206	9819.05
2809.17967	9829.15
2811.72571	9798.65
2814.27018	9783.25
2816.81308	9809.85
2819.35442	9799.05
2821.89419	9807.55
2824.43239	9825.75
2826.96904	9813.65
2829.50412	9798.35
2832.03763	9781.65
2834.56959	9774.05
2837.1	9751.15
2839.62884	9772.25
2842.15613	9759.75
2844.68186	9779.55
2847.20604	9796.35
2849.72867	9764.85
2852.24974	9761.15
2854.76927	9757.95
2857.28724	9754.15
2859.80367	9762.85
2862.31855	9750.75
2864.83189	9743.35
2867.34368	9743.75
2869.85393	9740.75
2872.36264	9739.45
2874.8698	9726.65
2877.37543	9722.35
2879.87952	9703.35
2882.38207	9694.95
2884.88308	9704.45
2887.38256	9696.85
2889.88051	9710.85
2892.37692	9695.65
2894.8718	9677.45
2897.36515	9671.25
2899.85698	9665.95
2902.34727	9715.25
2904.83604	9706.55
2907.32328	9774.25
2909.809	9741.05
2912.29319	9744.45
2914.77587	9695.45
2917.25702	9716.45
2919.73665	9686.95
2922.21476	9685.35
2924.69136	9662.05
2927.16644	9634.35
2929.64	9623.85
2932.11205	9622.15
2934.58258	9587.15
2937.05161	9618.75
2939.51912	9616.45
2941.98513	9596.05
2944.44962	9595.15
2946.91261	9552.45
2949.37409	9579.55
2951.83407	9550.95
2954.29254	9540.55
2956.74951	9537.15
2959.20498	9546.95
2961.65895	9510.25
2964.11142	9511.65
2966.56239	9476.15
2969.01186	9454.75
2971.45984	9484.55
2973.90632	9459.65
2976.35131	9426.95
2978.7948	9396.05
2981.23681	9399.35
2983.67732	9353.15
2986.11635	9346.35
2988.55388	9339.45
2990.98993	9313.85
2993.4245	9268.55
2995.85758	9271.45
2998.28917	9266.45
3000.71928	9249.65
3003.14791	9207.75
3005.57506	9208.15
3008.00073	9170.95
3010.42493	9184.65
3012.84764	9150.65
3015.26888	9151.15
3017.68865	9109.75
3020.10694	9093.15
3022.52376	9067.55
3024.9391	9072.05
3027.35298	9026.45
3029.76539	9020.25
3032.17632	9014.95
3034.5858	8985.45
3036.9938	8973.45
3039.40034	8954.15
3041.80542	8971.65
3044.20903	8938.55
3046.61118	8923.75
3049.01187	8915.85
3051.4111	8901.65
3053.80888	8866.65
3056.20519	8883.95
3058.60005	8831.95
3060.99345	8809.15
3063.3854	8797.35
3065.7759	8758.15
3068.16494	8751.15
3070.55254	8713.65
3072.93868	8685.95
3075.32338	8651.45
3077.70662	8636.75
3080.08842	8609.45
3082.46878	8620.35
3084.84769	8607.65
3087.22515	8590.25
3089.60118	8596.05
3091.97576	8576.75
3094.3489	8571.35
3096.72061	8567.15
3099.09087	8561.15
3101.4597	8545.05
3103.82709	8545.35
3106.19305	8529.35
3108.55757	8529.45
3110.92066	8522.35
3113.28232	8530.55
3115.64255	8487.05
3118.00134	8488.45
3120.35871	8478.05
3122.71466	8473.75
3125.06917	8449.95
3127.42226	8416.15
3129.77393	8449.55
3132.12417	8424.15
3134.47299	8431.85
3136.82039	8406.25
3139.16636	8422.85
3141.51092	8419.05
3143.85406	8422.25
3146.19579	8427.05
3148.53609	8410.85
3150.87499	8437.95
3153.21246	8456.15
3155.54853	8463.95
3157.88318	8437.35
3160.21642	8445.75
3162.54826	8440.85
3164.87868	8441.15
3167.2077	8431.75
3169.5353	8444.95
3171.86151	8448.35
3174.18631	8440.15
3176.5097	8408.95
3178.83169	8414.55
3181.15228	8396.85
3183.47147	8362.75
3185.78926	8372.35
3188.10565	8365.35
3190.42065	8370.95
3192.73424	8363.65
3195.04645	8352.75
3197.35725	8383.05
3199.66667	8382.15
3201.97469	8392.95
3204.28132	8371.05
3206.58656	8389.75
3208.8904	8387.85
3211.19287	8414.75
3213.49394	8410.05
3215.79363	8399.95
3218.09193	8420.55
3220.38884	8403.95
3222.68438	8421.25
3224.97853	8405.75
3227.2713	8430.25
3229.56269	8419.25
3231.8527	8423.65
3234.14133	8407.05
3236.42858	8392.65
3238.71446	8377.45
3240.99896	8336.85
3243.28209	8357.35
3245.56384	8314.25
3247.84423	8328.25
3250.12324	8313.35
3252.40088	8283.35
3254.67715	8268.45
3256.95205	8249.25
3259.22558	8256.55
3261.49775	8297.05
3263.76855	8298.75
3266.03799	8262.65
3268.30606	8256.15
