Data from AgNPs_UA_5uM_CRN_0uM_R6G_10uM_Q_RamanShift__13__11-04-25-304.txt Node

Date: Mon Jul 18 11:04:25 BST 2022
User: TCL
Spectrometer: QEP01345
Trigger mode: 4
Integration Time (sec): 7.000000E0
Scans to average: 10
Electric dark correction enabled: true
Nonlinearity correction enabled: false
Boxcar width: 0
XAxis mode: Raman Shifts
Number of Pixels in Spectrum: 1044
>>>>>Begin Spectral Data<<<<<
46.04893	-2.525
50.45542	-3.125
54.85868	-2.125
59.25871	-2.525
63.6555	183.875
68.04907	191.675
72.43941	197.775
76.82654	203.775
81.21044	208.875
85.59113	213.975
89.96862	223.075
94.34289	227.975
98.71396	235.175
103.08183	246.375
107.4465	252.275
111.80798	255.975
116.16626	267.575
120.52136	282.575
124.87327	292.475
129.222	313.075
133.56755	336.475
137.90993	373.675
142.24913	411.275
146.58517	466.075
150.91804	547.475
155.24774	653.875
159.57429	824.175
163.89768	1065.475
168.21792	1419.975
172.53501	1958.375
176.84895	2751.875
181.15975	3907.275
185.46741	5495.175
189.77193	7616.075
194.07331	10209.275
198.37157	13199.375
202.6667	16347.675
206.9587	19423.275
211.24758	22515.175
215.53334	25582.075
219.81599	28772.075
224.09553	32275.075
228.37195	36151.675
232.64527	40424.775
236.91549	44868.875
241.18261	49397.675
245.44663	53663.975
249.70755	57598.075
253.96539	61015.975
258.22014	63891.075
262.4718	66142.075
266.72039	67619.075
270.96589	68324.975
275.20832	68238.775
279.44768	67711.975
283.68397	66952.675
287.91719	66219.875
292.14735	65607.175
296.37445	65360.275
300.59849	65415.875
304.81948	65683.175
309.03742	65943.875
313.25231	65872.575
317.46415	65364.075
321.67296	64526.675
325.87872	63819.075
330.08145	63672.775
334.28114	63976.875
338.47781	64584.975
342.67145	65596.875
346.86207	66597.175
351.04966	67856.775
355.23424	69118.775
359.4158	70426.575
363.59435	71483.675
367.76989	72298.475
371.94243	72814.575
376.11196	73299.975
380.27849	73764.475
384.44203	74403.875
388.60257	75140.375
392.76012	75842.275
396.91468	76713.175
401.06626	77653.575
405.21485	78245.975
409.36047	78158.275
413.50311	77662.275
417.64277	77122.475
421.77947	77044.075
425.9132	77016.175
430.04396	77306.375
434.17176	77573.275
438.2966	78230.075
442.41849	78902.475
446.53742	79865.775
450.6534	81109.975
454.76644	82257.175
458.87653	82873.075
462.98368	83150.275
467.08789	83278.275
471.18916	83010.675
475.2875	82326.775
479.38291	81715.175
483.4754	81394.375
487.56496	81017.375
491.6516	80730.175
495.73531	80652.475
499.81612	80851.975
503.89401	81297.875
507.96899	81619.775
512.04106	81901.675
516.11023	82040.475
520.1765	82193.375
524.23987	82107.775
528.30034	82106.975
532.35792	82097.375
536.41261	81963.775
540.46441	81627.975
544.51333	81533.475
548.55936	82074.475
552.60252	82953.275
556.64279	83715.275
560.6802	84454.775
564.71473	85019.375
568.7464	85355.175
572.7752	85555.775
576.80114	85617.875
580.82422	86089.075
584.84444	86640.875
588.86181	87028.575
592.87633	87243.475
596.888	87666.675
600.89682	89039.875
604.9028	92644.275
608.90594	99843.075
612.90624	106044.075
616.90371	101252.075
620.89834	90923.775
624.89015	86659.675
628.87913	86394.975
632.86528	87355.975
636.84862	87912.875
640.82913	87516.675
644.80683	86336.075
648.78172	85442.275
652.75379	85451.375
656.72306	86295.275
660.68952	87549.975
664.65319	87711.375
668.61405	87547.075
672.57211	88040.575
676.52738	88203.275
680.47986	87529.975
684.42955	86803.175
688.37646	86656.575
692.32058	87078.575
696.26192	88093.275
700.20048	89032.075
704.13626	89317.175
708.06928	89110.975
711.99952	88791.175
715.927	88463.775
719.85171	88556.375
723.77365	88562.675
727.69284	88302.375
731.60928	88012.175
735.52295	87875.975
739.43388	87890.675
743.34206	88125.275
747.24749	88316.775
751.15017	88619.075
755.05012	89152.275
758.94733	90325.175
762.8418	92837.775
766.73354	96841.575
770.62254	100416.575
774.50882	101658.775
778.39237	100773.075
782.27321	98157.775
786.15132	94849.075
790.02671	92203.275
793.89938	90657.475
797.76935	89826.875
801.6366	89354.275
805.50115	89103.675
809.36299	89021.675
813.22213	88940.675
817.07857	88954.775
820.93231	88920.775
824.78336	89124.675
828.63172	89276.275
832.47738	89253.775
836.32036	89150.175
840.16066	89183.675
843.99827	89196.375
847.8332	89129.375
851.66546	89341.975
855.49504	89622.075
859.32195	89773.475
863.1462	89785.675
866.96777	90036.075
870.78668	90213.275
874.60293	90426.275
878.41652	90644.975
882.22745	90917.675
886.03573	91031.075
889.84136	91137.975
893.64433	91137.175
897.44466	90823.875
901.24235	90905.675
905.0374	90985.375
908.8298	90897.275
912.61957	90784.375
916.40671	90887.175
920.19121	91070.375
923.97308	91425.075
927.75233	91666.875
931.52895	91790.175
935.30295	91535.675
939.07433	91079.975
942.84309	90431.475
946.60924	90080.475
950.37278	89935.775
954.13371	89865.775
957.89203	90049.875
961.64774	90076.575
965.40086	89899.275
969.15137	89780.775
972.89929	89699.575
976.64461	89745.875
980.38733	89825.575
984.12747	90065.575
987.86502	90261.675
991.59999	90461.775
995.33237	90789.475
999.06217	91269.375
1002.78939	91968.775
1006.51404	92834.875
1010.23611	93838.675
1013.95561	94396.975
1017.67255	94610.875
1021.38692	94540.875
1025.09872	94158.875
1028.80796	93396.775
1032.51465	92958.875
1036.21877	93160.675
1039.92035	93464.175
1043.61937	93737.775
1047.31584	93848.975
1051.00976	94111.675
1054.70114	94306.375
1058.38998	94664.675
1062.07627	95262.075
1065.76003	95972.675
1069.44126	96732.875
1073.11995	98080.175
1076.79611	99397.975
1080.46974	100050.275
1084.14085	100110.875
1087.80943	100458.575
1091.47549	100878.175
1095.13903	101130.375
1098.80005	101391.575
1102.45857	101743.975
1106.11456	101533.875
1109.76805	100249.075
1113.41903	99389.675
1117.06751	99426.175
1120.71348	99657.075
1124.35696	100020.675
1127.99793	100517.475
1131.63641	100212.175
1135.2724	99427.175
1138.90589	98707.975
1142.5369	98325.575
1146.16542	98116.175
1149.79145	97915.675
1153.415	97637.675
1157.03607	97458.475
1160.65467	98016.775
1164.27079	99171.975
1167.88443	100890.775
1171.49561	103365.875
1175.10432	106465.475
1178.71056	110530.775
1182.31434	114049.175
1185.91565	116070.775
1189.51451	116985.575
1193.11091	116959.875
1196.70485	115828.175
1200.29634	114152.475
1203.88538	112177.475
1207.47197	110002.575
1211.05612	108237.075
1214.63782	106567.575
1218.21708	105181.475
1221.79391	103976.475
1225.36829	103133.475
1228.94024	102946.975
1232.50976	103072.775
1236.07685	103156.475
1239.6415	103452.675
1243.20374	103767.975
1246.76355	104129.075
1250.32093	104629.575
1253.8759	105576.175
1257.42845	107022.275
1260.97859	108743.775
1264.52631	110258.275
1268.07163	111490.075
1271.61453	112358.175
1275.15503	112947.075
1278.69312	113251.475
1282.22882	113415.475
1285.76211	113865.775
1289.29301	114610.275
1292.82151	115444.975
1296.34761	116746.275
1299.87133	118526.875
1303.39266	121204.275
1306.9116	124791.075
1310.42815	128642.075
1313.94233	130943.375
1317.45412	130602.375
1320.96354	129318.475
1324.47058	127683.275
1327.97525	125937.275
1331.47754	124640.975
1334.97747	124129.575
1338.47502	124884.775
1341.97022	127156.675
1345.46305	130370.175
1348.95352	133857.275
1352.44163	136475.775
1355.92738	138210.875
1359.41078	139915.075
1362.89183	140955.275
1366.37053	137637.475
1369.84688	129716.475
1373.32088	121761.275
1376.79254	116292.875
1380.26186	113200.375
1383.72883	111248.175
1387.19347	109664.775
1390.65578	107932.775
1394.11575	106476.975
1397.57339	105327.775
1401.0287	104731.275
1404.48168	104565.875
1407.93234	104891.975
1411.38068	105333.275
1414.82669	105342.875
1418.27039	104778.675
1421.71177	103926.275
1425.15083	103431.475
1428.58758	103081.775
1432.02203	102968.875
1435.45416	103288.075
1438.88399	103476.775
1442.31151	103512.775
1445.73673	103800.975
1449.15965	104018.775
1452.58027	104142.975
1455.9986	104099.675
1459.41463	104455.775
1462.82837	105516.475
1466.23982	106808.675
1469.64898	108112.675
1473.05586	108982.775
1476.46045	109721.875
1479.86276	110338.775
1483.26279	110781.175
1486.66054	111322.075
1490.05602	112330.575
1493.44922	114085.575
1496.84016	116940.275
1500.22882	121078.475
1503.61521	126054.075
1506.99934	130592.175
1510.38121	132860.375
1513.76081	131896.075
1517.13816	127965.175
1520.51324	122800.075
1523.88607	118298.075
1527.25665	115412.375
1530.62498	113751.375
1533.99105	112708.775
1537.35488	111813.875
1540.71647	111074.975
1544.07581	110356.575
1547.4329	109763.475
1550.78776	109184.275
1554.14038	108556.075
1557.49077	108458.775
1560.83892	108704.575
1564.18484	109427.275
1567.52853	110306.275
1570.86999	111068.375
1574.20922	111603.475
1577.54624	111387.675
1580.88103	110043.675
1584.2136	108321.875
1587.54395	107449.475
1590.87208	108017.875
1594.19801	110032.275
1597.52172	112499.675
1600.84321	113844.775
1604.16251	113105.175
1607.47959	111455.175
1610.79447	108819.975
1614.10715	105307.775
1617.41763	102013.475
1620.7259	99263.075
1624.03199	97620.075
1627.33587	97097.275
1630.63757	97506.475
1633.93707	99150.075
1637.23439	101985.975
1640.52951	106537.875
1643.82246	112336.375
1647.11321	117731.875
1650.40179	119888.675
1653.68819	117164.175
1656.97241	110614.575
1660.25446	103559.375
1663.53433	98090.575
1666.81203	94479.975
1670.08756	92214.875
1673.36092	90746.975
1676.63211	89605.275
1679.90115	88879.275
1683.16801	88108.675
1686.43272	87577.875
1689.69527	87246.375
1692.95567	86845.475
1696.2139	86625.475
1699.46999	86483.475
1702.72392	86371.975
1705.97571	86389.875
1709.22535	86306.375
1712.47284	86392.975
1715.71819	86517.475
1718.96139	86401.975
1722.20246	86212.275
1725.44139	85921.475
1728.67818	85666.775
1731.91284	85383.675
1735.14537	85119.475
1738.37576	84973.675
1741.60403	84788.475
1744.83017	84599.275
1748.05418	84515.975
1751.27607	84413.375
1754.49584	84264.175
1757.71349	84101.075
1760.92903	84010.775
1764.14244	84006.175
1767.35375	83953.975
1770.56294	83702.975
1773.77002	83696.375
1776.97499	83695.275
1780.17785	83527.475
1783.37861	83366.575
1786.57727	83216.575
1789.77382	83186.575
1792.96828	83042.875
1796.16064	82920.975
1799.3509	82981.075
1802.53907	82743.275
1805.72514	82577.475
1808.90913	82375.075
1812.09102	82313.475
1815.27083	82060.975
1818.44856	82042.475
1821.6242	81965.375
1824.79776	81847.775
1827.96924	81607.875
1831.13864	81439.475
1834.30597	81368.775
1837.47122	81296.375
1840.6344	81290.975
1843.7955	81400.675
1846.95454	81359.375
1850.11151	81134.075
1853.26642	81019.875
1856.41926	80941.075
1859.57004	80980.975
1862.71876	81036.775
1865.86542	80998.975
1869.01003	80947.175
1872.15258	80942.975
1875.29308	80727.375
1878.43152	80515.975
1881.56792	80351.275
1884.70227	80281.775
1887.83457	80092.075
1890.96482	80030.375
1894.09304	80120.375
1897.21921	79942.575
1900.34335	79921.675
1903.46544	79762.975
1906.58551	79678.775
1909.70353	79549.375
1912.81953	79361.475
1915.93349	79109.275
1919.04543	79035.475
1922.15534	79056.475
1925.26322	78869.175
1928.36908	78692.175
1931.47292	78630.775
1934.57473	78362.375
1937.67453	78161.975
1940.77232	78007.775
1943.86808	77723.475
1946.96184	77556.675
1950.05358	77278.275
1953.14331	77104.775
1956.23103	76950.675
1959.31675	76618.275
1962.40046	76511.975
1965.48217	76298.175
1968.56188	76014.675
1971.63959	75842.175
1974.7153	75682.875
1977.78901	75429.475
1980.86073	75157.675
1983.93046	74942.575
1986.99819	74617.375
1990.06394	74491.275
1993.1277	74366.975
1996.18947	73987.475
1999.24925	73870.175
2002.30706	73807.175
2005.36288	73676.575
2008.41672	73520.475
2011.46859	73313.475
2014.51848	72975.575
2017.56639	72931.475
2020.61233	72788.375
2023.6563	72627.175
2026.6983	72296.375
2029.73833	72002.575
2032.7764	71725.775
2035.8125	71671.575
2038.84664	71429.375
2041.87881	71293.375
2044.90903	71142.075
2047.93729	70941.075
2050.96359	71052.075
2053.98794	70923.475
2057.01034	70826.175
2060.03078	70740.175
2063.04927	70555.475
2066.06582	70510.575
2069.08042	70471.375
2072.09307	70531.675
2075.10378	70420.675
2078.11255	70354.575
2081.11938	70362.575
2084.12426	70269.775
2087.12722	70181.175
2090.12824	70147.775
2093.12732	70143.975
2096.12447	70233.475
2099.11969	70233.675
2102.11299	70410.975
2105.10435	70385.075
2108.09379	70329.575
2111.08131	70398.175
2114.0669	70335.375
2117.05057	70365.475
2120.03233	70379.775
2123.01216	70411.175
2125.99008	70542.175
2128.96609	70598.675
2131.94018	70691.975
2134.91236	70714.475
2137.88263	70842.675
2140.851	70870.675
2143.81746	70824.175
2146.78201	70879.275
2149.74466	70931.875
2152.7054	70926.875
2155.66425	70839.275
2158.6212	70882.975
2161.57625	70719.075
2164.52941	70715.375
2167.48067	70739.775
2170.43004	70793.775
2173.37752	70727.675
2176.32311	70612.075
2179.26681	70521.375
2182.20863	70621.375
2185.14856	70672.175
2188.08661	70572.475
2191.02278	70595.575
2193.95707	70576.475
2196.88948	70476.175
2199.82001	70475.675
2202.74867	70379.875
2205.67545	70259.775
2208.60037	70098.675
2211.52341	69901.075
2214.44458	69753.975
2217.36388	69570.875
2220.28132	69514.975
2223.1969	69280.575
2226.11061	69142.775
2229.02246	69032.075
2231.93245	69048.075
2234.84058	68883.775
2237.74686	68676.575
2240.65128	68623.675
2243.55385	68564.675
2246.45456	68502.175
2249.35343	68431.975
2252.25044	68397.575
2255.14561	68261.675
2258.03893	68220.575
2260.93041	68036.575
2263.82004	67871.975
2266.70783	67748.175
2269.59378	67568.975
2272.4779	67572.775
2275.36017	67358.575
2278.24061	67151.975
2281.11922	67073.375
2283.996	66914.275
2286.87094	66833.675
2289.74405	66652.275
2292.61534	66535.375
2295.4848	66437.375
2298.35243	66426.975
2301.21824	66322.175
2304.08223	66237.775
2306.94439	66186.575
2309.80474	66126.275
2312.66327	66155.675
2315.51999	66051.775
2318.37489	66053.875
2321.22797	65922.075
2324.07925	65784.575
2326.92871	65584.775
2329.77637	65522.175
2332.62222	65387.075
2335.46626	65301.875
2338.3085	65232.375
2341.14893	65136.875
2343.98756	65083.675
2346.8244	64907.575
2349.65943	65012.275
2352.49267	64891.875
2355.32411	64816.975
2358.15376	64846.275
2360.98161	64734.875
2363.80768	64703.175
2366.63195	64762.475
2369.45444	64563.575
2372.27514	64495.675
2375.09405	64528.075
2377.91118	64412.775
2380.72652	64286.875
2383.54009	64051.275
2386.35187	64005.675
2389.16188	63924.775
2391.97011	63842.375
2394.77657	63705.175
2397.58125	63535.775
2400.38416	63359.875
2403.18529	63121.975
2405.98466	63177.275
2408.78226	63150.075
2411.57809	63087.475
2414.37216	63005.375
2417.16446	62928.875
2419.955	62751.575
2422.74378	62836.275
2425.5308	62744.275
2428.31606	62636.775
2431.09956	62645.775
2433.88131	62499.375
2436.6613	62499.875
2439.43954	62497.675
2442.21603	62463.475
2444.99077	62369.375
2447.76377	62293.675
2450.53501	62135.475
2453.30451	62186.575
2456.07226	62054.475
2458.83827	61852.675
2461.60254	61776.175
2464.36507	61769.475
2467.12586	61771.475
2469.88492	61702.475
2472.64224	61528.775
2475.39782	61343.675
2478.15167	61485.175
2480.90379	61519.475
2483.65417	61577.075
2486.40283	61510.275
2489.14976	61545.775
2491.89497	61473.075
2494.63845	61392.775
2497.3802	61264.675
2500.12024	61171.075
2502.85855	61147.975
2505.59514	61043.675
2508.33002	60951.975
2511.06318	60907.875
2513.79462	60860.575
2516.52435	60694.475
2519.25237	60619.075
2521.97867	60607.375
2524.70327	60590.475
2527.42616	60391.575
2530.14734	60401.275
2532.86681	60156.875
2535.58458	60108.175
2538.30065	60089.875
2541.01501	60111.875
2543.72768	59956.675
2546.43864	59899.575
2549.14791	59780.975
2551.85548	59833.175
2554.56136	59624.375
2557.26554	59464.975
2559.96803	59320.575
2562.66883	59264.775
2565.36794	59124.575
2568.06536	59007.475
2570.7611	58837.675
2573.45514	58680.075
2576.14751	58580.375
2578.83819	58436.575
2581.52719	58384.575
2584.21451	58315.475
2586.90015	58170.775
2589.58411	58099.975
2592.2664	58017.675
2594.94701	57912.675
2597.62594	57874.175
2600.30321	57777.175
2602.9788	57693.275
2605.65273	57451.675
2608.32498	57389.075
2610.99557	57349.275
2613.66449	57292.175
2616.33175	57223.175
2618.99734	57109.575
2621.66128	56997.175
2624.32355	56879.075
2626.98416	56878.075
2629.64311	56844.875
2632.30041	56726.775
2634.95605	56635.475
2637.61004	56537.475
2640.26238	56507.475
2642.91306	56352.275
2645.56209	56295.975
2648.20948	56205.475
2650.85521	56162.075
2653.4993	56207.775
2656.14175	56108.275
2658.78255	56180.575
2661.42171	56215.975
2664.05923	56333.675
2666.6951	56284.275
2669.32934	56287.575
2671.96194	56201.875
2674.59291	56145.675
2677.22224	56072.875
2679.84993	56043.175
2682.476	55947.875
2685.10043	55929.275
2687.72324	55844.575
2690.34441	55867.175
2692.96396	55757.075
2695.58188	55808.775
2698.19818	55711.075
2700.81285	55797.475
2703.4259	55749.975
2706.03733	55808.475
2708.64714	55768.975
2711.25533	55779.875
2713.86191	55761.575
2716.46687	55884.075
2719.07021	55809.175
2721.67194	55767.675
2724.27206	55705.275
2726.87057	55714.675
2729.46747	55599.275
2732.06276	55672.975
2734.65644	55608.675
2737.24852	55619.675
2739.83899	55467.875
2742.42786	55466.375
2745.01513	55266.775
2747.60079	55224.075
2750.18486	55184.775
2752.76733	55214.375
2755.3482	55216.775
2757.92747	55211.775
2760.50515	55115.975
2763.08123	54951.075
2765.65573	54760.675
2768.22863	54707.175
2770.79994	54665.575
2773.36967	54670.175
2775.9378	54607.475
2778.50435	54390.575
2781.06932	54362.475
2783.6327	54414.175
2786.1945	54251.275
2788.75471	54142.075
2791.31335	53898.075
2793.87041	53745.475
2796.42589	53578.975
2798.97979	53620.875
2801.53212	53479.375
2804.08288	53461.275
2806.63206	53296.375
2809.17967	53238.575
2811.72571	53077.475
2814.27018	52915.975
2816.81308	52715.375
2819.35442	52553.975
2821.89419	52381.275
2824.43239	52309.175
2826.96904	52161.675
2829.50412	52191.575
2832.03763	52115.775
2834.56959	52182.275
2837.1	52066.675
2839.62884	52130.375
2842.15613	51937.575
2844.68186	51834.775
2847.20604	51678.275
2849.72867	51665.175
2852.24974	51525.375
2854.76927	51448.975
2857.28724	51352.975
2859.80367	51402.075
2862.31855	51350.575
2864.83189	51422.675
2867.34368	51272.075
2869.85393	51140.875
2872.36264	51005.975
2874.8698	50964.575
2877.37543	50928.875
2879.87952	50795.875
2882.38207	50752.575
2884.88308	50700.275
2887.38256	50725.775
2889.88051	50659.475
2892.37692	50635.275
2894.8718	50635.175
2897.36515	50738.375
2899.85698	50702.775
2902.34727	50722.475
2904.83604	50677.075
2907.32328	50833.875
2909.809	50889.675
2912.29319	50932.275
2914.77587	50897.575
2917.25702	50852.075
2919.73665	50700.675
2922.21476	50792.975
2924.69136	50664.775
2927.16644	50649.475
2929.64	50560.775
2932.11205	50497.475
2934.58258	50255.575
2937.05161	50259.275
2939.51912	50251.775
2941.98513	50200.575
2944.44962	50159.775
2946.91261	50063.775
2949.37409	50105.775
2951.83407	50066.575
2954.29254	50089.575
2956.74951	50076.575
2959.20498	50041.175
2961.65895	49946.275
2964.11142	49993.675
2966.56239	49952.075
2969.01186	50015.975
2971.45984	49905.075
2973.90632	49827.075
2976.35131	49764.475
2978.7948	49708.475
2981.23681	49609.575
2983.67732	49499.075
2986.11635	49350.975
2988.55388	49352.375
2990.98993	49207.275
2993.4245	49063.275
2995.85758	48953.475
2998.28917	48890.675
3000.71928	48844.575
3003.14791	48664.375
3005.57506	48569.775
3008.00073	48369.075
3010.42493	48297.675
3012.84764	48159.375
3015.26888	48136.475
3017.68865	48079.175
3020.10694	48009.375
3022.52376	47916.975
3024.9391	47831.175
3027.35298	47739.575
3029.76539	47786.675
3032.17632	47728.275
3034.5858	47547.275
3036.9938	47614.675
3039.40034	47539.775
3041.80542	47449.775
3044.20903	47305.675
3046.61118	47233.675
3049.01187	47111.975
3051.4111	47130.575
3053.80888	47010.575
3056.20519	46898.175
3058.60005	46766.575
3060.99345	46613.375
3063.3854	46533.575
3065.7759	46364.375
3068.16494	46275.875
3070.55254	46075.375
3072.93868	46014.875
3075.32338	45935.775
3077.70662	45858.675
3080.08842	45773.975
3082.46878	45734.375
3084.84769	45661.075
3087.22515	45647.775
3089.60118	45637.575
3091.97576	45572.675
3094.3489	45537.875
3096.72061	45512.475
3099.09087	45477.675
3101.4597	45435.075
3103.82709	45350.075
3106.19305	45249.475
3108.55757	45303.075
3110.92066	45223.375
