Data from AgNPs_UA_20uM_CRN_0uM_R6G_10uM_Q_RamanShift__30__13-11-22-041.txt Node

Date: Mon Jul 18 13:11:22 BST 2022
User: TCL
Spectrometer: QEP01345
Trigger mode: 4
Integration Time (sec): 7.000000E0
Scans to average: 10
Electric dark correction enabled: true
Nonlinearity correction enabled: false
Boxcar width: 0
XAxis mode: Raman Shifts
Number of Pixels in Spectrum: 1044
>>>>>Begin Spectral Data<<<<<
46.04893	-1.55
50.45542	-0.45
54.85868	0.45
59.25871	-1.55
63.6555	76.75
68.04907	84.35
72.43941	86.65
76.82654	93.45
81.21044	94.35
85.59113	97.45
89.96862	105.15
94.34289	104.05
98.71396	111.45
103.08183	115.25
107.4465	117.65
111.80798	118.95
116.16626	122.65
120.52136	124.45
124.87327	126.75
129.222	129.15
133.56755	135.45
137.90993	153.85
142.24913	157.35
146.58517	174.75
150.91804	199.65
155.24774	238.55
159.57429	285.15
163.89768	368.15
168.21792	482.15
172.53501	645.25
176.84895	894.25
181.15975	1233.55
185.46741	1722.45
189.77193	2369.55
194.07331	3140.95
198.37157	4037.95
202.6667	4971.95
206.9587	5896.35
211.24758	6820.15
215.53334	7756.95
219.81599	8851.85
224.09553	10084.45
228.37195	11449.15
232.64527	12921.55
236.91549	14384.15
241.18261	15812.55
245.44663	16983.35
249.70755	17941.35
253.96539	18785.75
258.22014	19426.75
262.4718	20010.25
266.72039	20372.25
270.96589	20556.75
275.20832	20510.55
279.44768	20337.45
283.68397	20117.55
287.91719	20059.95
292.14735	20193.05
296.37445	20588.95
300.59849	21203.15
304.81948	21905.75
309.03742	22295.15
313.25231	22100.25
317.46415	21056.35
321.67296	19738.85
325.87872	18665.45
330.08145	18221.65
334.28114	18302.95
338.47781	18627.05
342.67145	19140.25
346.86207	19851.85
351.04966	20849.65
355.23424	22011.35
359.4158	22797.35
363.59435	23264.15
367.76989	23348.45
371.94243	23291.15
376.11196	23211.75
380.27849	23117.35
384.44203	22960.05
388.60257	22753.25
392.76012	22698.55
396.91468	22942.95
401.06626	23430.55
405.21485	23774.15
409.36047	23223.15
413.50311	22267.35
417.64277	21420.15
421.77947	20983.05
425.9132	20811.45
430.04396	20904.55
434.17176	21047.55
438.2966	21357.65
442.41849	21864.55
446.53742	22546.25
450.6534	23162.05
454.76644	23524.45
458.87653	23550.05
462.98368	23286.45
467.08789	22909.15
471.18916	22348.05
475.2875	21837.05
479.38291	21436.05
483.4754	21101.65
487.56496	20858.05
491.6516	20746.55
495.73531	20694.75
499.81612	20718.15
503.89401	20985.55
507.96899	21156.45
512.04106	21424.65
516.11023	21692.85
520.1765	21863.45
524.23987	21737.45
528.30034	21399.85
532.35792	21124.25
536.41261	20758.35
540.46441	20408.65
544.51333	20332.45
548.55936	20540.15
552.60252	20985.45
556.64279	21550.15
560.6802	21756.35
564.71473	22123.25
568.7464	22874.05
572.7752	23248.65
576.80114	22758.05
580.82422	22387.95
584.84444	22256.55
588.86181	22308.85
592.87633	22482.45
596.888	22801.45
600.89682	23823.55
604.9028	26830.75
608.90594	33851.05
612.90624	40757.75
616.90371	36366.45
620.89834	26331.85
624.89015	22459.05
628.87913	21947.05
632.86528	22212.35
636.84862	22334.35
640.82913	21838.85
644.80683	20925.45
648.78172	20319.75
652.75379	20503.85
656.72306	21378.85
660.68952	22208.45
664.65319	21740.25
668.61405	20837.85
672.57211	20548.65
676.52738	20483.75
680.47986	20415.35
684.42955	20257.25
688.37646	20275.85
692.32058	20346.75
696.26192	20612.95
700.20048	20886.55
704.13626	21082.05
708.06928	21034.65
711.99952	20822.55
715.927	20792.35
719.85171	20828.85
723.77365	20777.15
727.69284	20629.95
731.60928	20485.75
735.52295	20511.95
739.43388	20603.25
743.34206	20746.45
747.24749	20835.15
751.15017	21037.75
755.05012	21561.85
758.94733	22819.45
762.8418	25441.85
766.73354	29413.25
770.62254	32943.85
774.50882	34173.05
778.39237	32088.05
782.27321	27825.75
786.15132	24127.75
790.02671	22181.45
793.89938	21231.65
797.76935	20912.45
801.6366	20757.75
805.50115	20667.15
809.36299	20599.05
813.22213	20471.45
817.07857	20443.15
820.93231	20448.25
824.78336	20506.65
828.63172	20605.35
832.47738	20646.65
836.32036	20599.25
840.16066	20537.25
843.99827	20480.85
847.8332	20444.95
851.66546	20363.75
855.49504	20443.25
859.32195	20392.05
863.1462	20287.35
866.96777	20261.75
870.78668	20253.55
874.60293	20292.45
878.41652	20398.65
882.22745	20537.05
886.03573	20661.75
889.84136	20623.65
893.64433	20511.45
897.44466	20486.35
901.24235	20411.15
905.0374	20365.65
908.8298	20273.05
912.61957	20322.05
916.40671	20427.35
920.19121	20635.55
923.97308	20877.95
927.75233	21065.95
931.52895	21165.85
935.30295	20816.25
939.07433	20257.15
942.84309	19869.15
946.60924	19653.55
950.37278	19518.75
954.13371	19458.55
957.89203	19370.45
961.64774	19362.55
965.40086	19281.95
969.15137	19246.75
972.89929	19201.65
976.64461	19231.15
980.38733	19240.35
984.12747	19318.35
987.86502	19456.75
991.59999	19617.25
995.33237	19874.65
999.06217	20451.15
1002.78939	21045.55
1006.51404	21469.75
1010.23611	21810.05
1013.95561	22043.75
1017.67255	22017.65
1021.38692	21767.95
1025.09872	21560.25
1028.80796	21606.85
1032.51465	21970.55
1036.21877	22313.65
1039.92035	22425.35
1043.61937	22250.65
1047.31584	21952.75
1051.00976	21689.15
1054.70114	21550.95
1058.38998	21522.65
1062.07627	21698.95
1065.76003	21852.65
1069.44126	22018.85
1073.11995	22303.75
1076.79611	22507.05
1080.46974	22843.45
1084.14085	23253.35
1087.80943	23746.35
1091.47549	23828.15
1095.13903	23433.15
1098.80005	22670.75
1102.45857	22165.45
1106.11456	21938.85
1109.76805	22106.85
1113.41903	22591.75
1117.06751	23318.55
1120.71348	24240.85
1124.35696	25192.65
1127.99793	25739.05
1131.63641	25344.15
1135.2724	24355.85
1138.90589	23521.05
1142.5369	22954.95
1146.16542	22593.35
1149.79145	22460.35
1153.415	22540.65
1157.03607	22785.05
1160.65467	23230.35
1164.27079	24096.85
1167.88443	25312.25
1171.49561	27317.35
1175.10432	30440.15
1178.71056	34275.45
1182.31434	37117.25
1185.91565	37763.45
1189.51451	36671.45
1193.11091	34432.95
1196.70485	32055.65
1200.29634	30314.35
1203.88538	28889.05
1207.47197	27337.05
1211.05612	26080.75
1214.63782	25440.45
1218.21708	25352.85
1221.79391	25392.75
1225.36829	25423.75
1228.94024	25369.45
1232.50976	25287.65
1236.07685	25290.45
1239.6415	25394.25
1243.20374	25501.85
1246.76355	25728.15
1250.32093	26116.95
1253.8759	26701.75
1257.42845	27433.75
1260.97859	28241.65
1264.52631	28901.35
1268.07163	29619.85
1271.61453	30267.05
1275.15503	30849.55
1278.69312	31341.75
1282.22882	31774.55
1285.76211	32509.95
1289.29301	33441.35
1292.82151	34415.55
1296.34761	35540.55
1299.87133	37425.05
1303.39266	40466.85
1306.9116	44613.35
1310.42815	48666.75
1313.94233	50202.65
1317.45412	48682.45
1320.96354	45615.15
1324.47058	42626.25
1327.97525	40180.25
1331.47754	38896.95
1334.97747	38685.85
1338.47502	39279.95
1341.97022	40299.55
1345.46305	41582.55
1348.95352	43202.35
1352.44163	45551.35
1355.92738	49444.85
1359.41078	55310.95
1362.89183	59522.15
1366.37053	56503.65
1369.84688	48612.95
1373.32088	41376.05
1376.79254	36749.05
1380.26186	34246.65
1383.72883	32946.35
1387.19347	31955.85
1390.65578	31018.05
1394.11575	30275.95
1397.57339	29961.15
1401.0287	30110.35
1404.48168	30510.85
1407.93234	31026.05
1411.38068	31431.85
1414.82669	31414.35
1418.27039	30808.15
1421.71177	29960.05
1425.15083	29194.25
1428.58758	28848.15
1432.02203	29008.25
1435.45416	29272.35
1438.88399	29409.95
1442.31151	29526.25
1445.73673	29767.75
1449.15965	29909.25
1452.58027	29841.15
1455.9986	29616.45
1459.41463	29565.45
1462.82837	29917.75
1466.23982	30584.05
1469.64898	31206.95
1473.05586	31729.75
1476.46045	32165.15
1479.86276	32678.55
1483.26279	33307.85
1486.66054	34180.05
1490.05602	35312.55
1493.44922	36882.85
1496.84016	39209.45
1500.22882	42740.35
1503.61521	47366.15
1506.99934	52079.25
1510.38121	55374.55
1513.76081	55274.55
1517.13816	51456.55
1520.51324	45743.05
1523.88607	40891.35
1527.25665	37837.85
1530.62498	36149.95
1533.99105	35138.05
1537.35488	34416.75
1540.71647	34078.55
1544.07581	33853.45
1547.4329	33547.55
1550.78776	33141.25
1554.14038	32903.55
1557.49077	32931.85
1560.83892	33220.35
1564.18484	33876.15
1567.52853	34640.05
1570.86999	35270.85
1574.20922	35642.75
1577.54624	35250.85
1580.88103	33671.45
1584.2136	32095.65
1587.54395	31485.75
1590.87208	32262.85
1594.19801	34258.75
1597.52172	36592.95
1600.84321	37474.75
1604.16251	36273.75
1607.47959	33979.55
1610.79447	31375.55
1614.10715	28958.25
1617.41763	27190.45
1620.7259	26095.55
1624.03199	25612.55
1627.33587	25638.65
1630.63757	26327.45
1633.93707	27563.95
1637.23439	29488.25
1640.52951	32290.75
1643.82246	35794.55
1647.11321	39340.65
1650.40179	41134.05
1653.68819	39184.35
1656.97241	34390.85
1660.25446	29506.75
1663.53433	26030.75
1666.81203	23873.05
1670.08756	22556.95
1673.36092	21747.05
1676.63211	21192.45
1679.90115	20812.75
1683.16801	20518.65
1686.43272	20244.45
1689.69527	20112.95
1692.95567	19998.65
1696.2139	19902.25
1699.46999	19826.45
1702.72392	19824.85
1705.97571	19825.75
1709.22535	19809.05
1712.47284	19818.05
1715.71819	19797.85
1718.96139	19762.35
1722.20246	19736.25
1725.44139	19606.15
1728.67818	19522.75
1731.91284	19400.35
1735.14537	19294.15
1738.37576	19222.85
1741.60403	19169.35
1744.83017	19104.85
1748.05418	19076.95
1751.27607	19021.45
1754.49584	19000.55
1757.71349	18965.25
1760.92903	18952.55
1764.14244	18894.15
1767.35375	18927.95
1770.56294	18893.35
1773.77002	18842.55
1776.97499	18837.05
1780.17785	18773.05
1783.37861	18747.35
1786.57727	18733.15
1789.77382	18690.85
1792.96828	18686.65
1796.16064	18629.85
1799.3509	18612.25
1802.53907	18610.45
1805.72514	18560.75
1808.90913	18500.65
1812.09102	18478.85
1815.27083	18454.85
1818.44856	18408.35
1821.6242	18427.25
1824.79776	18394.35
1827.96924	18362.45
1831.13864	18319.75
1834.30597	18331.25
1837.47122	18299.75
1840.6344	18295.45
1843.7955	18282.65
1846.95454	18262.35
1850.11151	18274.45
1853.26642	18306.75
1856.41926	18297.45
1859.57004	18283.25
1862.71876	18277.45
1865.86542	18299.35
1869.01003	18320.65
1872.15258	18322.85
1875.29308	18295.45
1878.43152	18276.75
1881.56792	18305.05
1884.70227	18266.75
1887.83457	18250.95
1890.96482	18261.05
1894.09304	18280.95
1897.21921	18289.95
1900.34335	18254.15
1903.46544	18263.95
1906.58551	18207.55
1909.70353	18208.25
1912.81953	18246.75
1915.93349	18198.55
1919.04543	18189.15
1922.15534	18137.15
1925.26322	18153.05
1928.36908	18102.25
1931.47292	18063.85
1934.57473	17999.15
1937.67453	17954.45
1940.77232	17922.45
1943.86808	17818.85
1946.96184	17785.85
1950.05358	17725.05
1953.14331	17666.75
1956.23103	17593.15
1959.31675	17526.25
1962.40046	17515.85
1965.48217	17477.15
1968.56188	17427.05
1971.63959	17389.75
1974.7153	17319.45
1977.78901	17314.15
1980.86073	17218.65
1983.93046	17178.25
1986.99819	17112.55
1990.06394	17051.55
1993.1277	17009.75
1996.18947	16951.35
1999.24925	16953.75
2002.30706	16904.65
2005.36288	16859.85
2008.41672	16838.85
2011.46859	16792.45
2014.51848	16733.15
2017.56639	16674.05
2020.61233	16648.05
2023.6563	16615.15
2026.6983	16568.95
2029.73833	16511.45
2032.7764	16511.15
2035.8125	16461.55
2038.84664	16434.45
2041.87881	16420.05
2044.90903	16381.25
2047.93729	16335.25
2050.96359	16350.35
2053.98794	16320.55
2057.01034	16305.75
2060.03078	16308.25
2063.04927	16293.95
2066.06582	16277.85
2069.08042	16260.15
2072.09307	16279.95
2075.10378	16266.35
2078.11255	16218.55
2081.11938	16272.25
2084.12426	16247.45
2087.12722	16194.35
2090.12824	16222.95
2093.12732	16204.95
2096.12447	16207.15
2099.11969	16222.75
2102.11299	16219.05
2105.10435	16203.15
2108.09379	16194.65
2111.08131	16219.75
2114.0669	16214.05
2117.05057	16212.85
2120.03233	16239.45
2123.01216	16243.15
2125.99008	16274.65
2128.96609	16308.65
2131.94018	16350.35
2134.91236	16367.25
2137.88263	16347.75
2140.851	16357.95
2143.81746	16342.55
2146.78201	16381.05
2149.74466	16373.85
2152.7054	16384.75
2155.66425	16334.85
2158.6212	16318.55
2161.57625	16316.15
2164.52941	16326.15
2167.48067	16332.15
2170.43004	16310.45
2173.37752	16297.45
2176.32311	16291.95
2179.26681	16321.55
2182.20863	16297.25
2185.14856	16342.35
2188.08661	16318.55
2191.02278	16330.15
2193.95707	16311.25
2196.88948	16297.65
2199.82001	16277.45
2202.74867	16283.85
2205.67545	16262.65
2208.60037	16247.05
2211.52341	16201.05
2214.44458	16220.35
2217.36388	16189.75
2220.28132	16160.55
2223.1969	16116.55
2226.11061	16082.25
2229.02246	16033.55
2231.93245	16011.05
2234.84058	16002.55
2237.74686	15953.25
2240.65128	15935.05
2243.55385	15893.55
2246.45456	15927.75
2249.35343	15879.15
2252.25044	15875.45
2255.14561	15863.25
2258.03893	15845.55
2260.93041	15829.25
2263.82004	15809.15
2266.70783	15788.05
2269.59378	15742.25
2272.4779	15739.35
2275.36017	15699.55
2278.24061	15676.35
2281.11922	15652.95
2283.996	15628.35
2286.87094	15607.15
2289.74405	15551.15
2292.61534	15576.35
2295.4848	15547.85
2298.35243	15558.05
2301.21824	15539.65
2304.08223	15528.05
2306.94439	15521.75
2309.80474	15485.15
2312.66327	15533.65
2315.51999	15524.55
2318.37489	15534.15
2321.22797	15500.15
2324.07925	15459.65
2326.92871	15431.95
2329.77637	15451.75
2332.62222	15428.65
2335.46626	15393.95
2338.3085	15426.15
2341.14893	15382.85
2343.98756	15403.75
2346.8244	15456.95
2349.65943	15481.35
2352.49267	15467.95
2355.32411	15466.75
2358.15376	15433.75
2360.98161	15465.95
2363.80768	15481.45
2366.63195	15483.05
2369.45444	15460.25
2372.27514	15418.55
2375.09405	15379.65
2377.91118	15321.95
2380.72652	15275.55
2383.54009	15228.05
2386.35187	15242.85
2389.16188	15209.35
2391.97011	15152.75
2394.77657	15114.85
2397.58125	15065.05
2400.38416	15062.25
2403.18529	14999.65
2405.98466	15017.35
2408.78226	14973.05
2411.57809	14937.45
2414.37216	14902.55
2417.16446	14893.05
2419.955	14840.65
2422.74378	14854.55
2425.5308	14840.15
2428.31606	14830.35
2431.09956	14830.85
2433.88131	14833.05
2436.6613	14779.25
2439.43954	14809.05
2442.21603	14791.15
2444.99077	14809.75
2447.76377	14801.65
2450.53501	14773.65
2453.30451	14809.85
2456.07226	14753.15
2458.83827	14751.85
2461.60254	14763.15
2464.36507	14738.75
2467.12586	14739.65
2469.88492	14737.25
2472.64224	14729.45
2475.39782	14717.85
2478.15167	14768.05
2480.90379	14788.15
2483.65417	14812.05
2486.40283	14838.75
2489.14976	14845.45
2491.89497	14867.25
2494.63845	14890.35
2497.3802	14869.65
2500.12024	14877.75
2502.85855	14827.25
2505.59514	14840.75
2508.33002	14740.75
2511.06318	14712.65
2513.79462	14683.55
2516.52435	14653.35
2519.25237	14592.05
2521.97867	14616.35
2524.70327	14587.65
2527.42616	14555.45
2530.14734	14551.15
2532.86681	14516.35
2535.58458	14511.55
2538.30065	14542.25
2541.01501	14535.35
2543.72768	14538.05
2546.43864	14514.95
2549.14791	14477.65
2551.85548	14494.55
2554.56136	14441.85
2557.26554	14437.55
2559.96803	14420.85
2562.66883	14362.25
2565.36794	14357.25
2568.06536	14336.65
2570.7611	14327.55
2573.45514	14271.55
2576.14751	14292.65
2578.83819	14288.25
2581.52719	14269.65
2584.21451	14269.25
2586.90015	14243.15
2589.58411	14230.75
2592.2664	14262.95
2594.94701	14233.65
2597.62594	14240.25
2600.30321	14203.05
2602.9788	14220.75
2605.65273	14172.15
2608.32498	14149.85
2610.99557	14193.15
2613.66449	14151.85
2616.33175	14156.45
2618.99734	14173.25
2621.66128	14163.25
2624.32355	14163.75
2626.98416	14135.85
2629.64311	14107.25
2632.30041	14099.45
2634.95605	14097.95
2637.61004	14068.45
2640.26238	14057.95
2642.91306	14033.75
2645.56209	13983.55
2648.20948	13977.85
2650.85521	13984.15
2653.4993	14014.45
2656.14175	13989.45
2658.78255	13984.15
2661.42171	14038.15
2664.05923	14034.85
2666.6951	14042.35
2669.32934	14076.95
2671.96194	14071.35
2674.59291	14070.55
2677.22224	14081.85
2679.84993	14030.95
2682.476	14099.45
2685.10043	14069.85
2687.72324	14059.05
2690.34441	14037.15
2692.96396	14038.25
2695.58188	14047.85
2698.19818	14017.05
2700.81285	14030.55
2703.4259	13985.05
2706.03733	13998.35
2708.64714	13994.95
2711.25533	14032.55
2713.86191	14018.65
2716.46687	14062.45
2719.07021	14045.85
2721.67194	14057.25
2724.27206	14093.05
2726.87057	14096.25
2729.46747	14097.95
2732.06276	14115.95
2734.65644	14072.35
2737.24852	14075.35
2739.83899	14051.25
2742.42786	14046.35
2745.01513	13992.85
2747.60079	13994.15
2750.18486	13989.75
2752.76733	14018.15
2755.3482	13972.75
2757.92747	13962.15
2760.50515	13956.85
2763.08123	13954.75
2765.65573	13899.85
2768.22863	13936.75
2770.79994	13908.95
2773.36967	13897.15
2775.9378	13887.35
2778.50435	13892.45
2781.06932	13848.55
2783.6327	13877.25
2786.1945	13853.35
2788.75471	13832.95
2791.31335	13793.75
2793.87041	13857.45
2796.42589	13792.45
2798.97979	13793.15
2801.53212	13758.55
2804.08288	13790.45
2806.63206	13734.75
2809.17967	13724.45
2811.72571	13685.25
2814.27018	13666.15
2816.81308	13660.95
2819.35442	13663.95
2821.89419	13627.65
2824.43239	13666.45
2826.96904	13676.65
2829.50412	13681.35
2832.03763	13642.15
2834.56959	13630.05
2837.1	13614.25
2839.62884	13630.75
2842.15613	13622.85
2844.68186	13615.95
2847.20604	13606.35
2849.72867	13639.95
2852.24974	13633.65
2854.76927	13639.15
2857.28724	13638.55
2859.80367	13647.15
2862.31855	13591.55
2864.83189	13583.95
2867.34368	13575.45
2869.85393	13549.55
2872.36264	13523.45
2874.8698	13538.05
2877.37543	13523.95
2879.87952	13491.45
2882.38207	13515.75
2884.88308	13482.35
2887.38256	13488.25
2889.88051	13506.55
2892.37692	13498.15
2894.8718	13478.85
2897.36515	13529.75
2899.85698	13520.55
2902.34727	13550.15
2904.83604	13557.45
2907.32328	13574.95
2909.809	13578.65
2912.29319	13604.95
2914.77587	13572.45
2917.25702	13600.25
2919.73665	13564.95
2922.21476	13572.35
2924.69136	13542.05
2927.16644	13536.95
2929.64	13495.45
2932.11205	13470.65
2934.58258	13429.75
2937.05161	13412.05
2939.51912	13424.45
2941.98513	13407.35
2944.44962	13342.95
2946.91261	13333.35
2949.37409	13362.15
2951.83407	13357.55
2954.29254	13361.85
2956.74951	13329.55
2959.20498	13331.25
2961.65895	13281.95
2964.11142	13309.55
2966.56239	13286.25
2969.01186	13245.25
2971.45984	13252.55
2973.90632	13238.05
2976.35131	13223.45
2978.7948	13205.65
2981.23681	13165.85
2983.67732	13154.95
2986.11635	13104.65
2988.55388	13084.95
2990.98993	13069.55
2993.4245	13029.25
2995.85758	12990.05
2998.28917	12986.35
3000.71928	12937.95
3003.14791	12886.75
3005.57506	12893.35
3008.00073	12829.55
3010.42493	12829.35
3012.84764	12791.75
3015.26888	12799.05
3017.68865	12744.75
3020.10694	12740.05
3022.52376	12731.75
3024.9391	12698.25
3027.35298	12703.05
3029.76539	12712.05
3032.17632	12669.05
3034.5858	12648.45
3036.9938	12660.55
3039.40034	12629.75
3041.80542	12617.35
3044.20903	12585.45
3046.61118	12599.95
3049.01187	12567.75
3051.4111	12582.55
3053.80888	12536.25
3056.20519	12511.45
3058.60005	12498.75
3060.99345	12468.65
3063.3854	12432.95
3065.7759	12400.25
3068.16494	12352.15
3070.55254	12323.55
3072.93868	12302.35
3075.32338	12247.35
3077.70662	12206.65
3080.08842	12155.65
3082.46878	12163.05
3084.84769	12180.95
3087.22515	12177.65
3089.60118	12167.15
3091.97576	12136.15
3094.3489	12119.15
3096.72061	12106.85
3099.09087	12142.15
3101.4597	12104.95
3103.82709	12130.05
3106.19305	12097.15
3108.55757	12122.75
3110.92066	12110.15
3113.28232	12101.25
3115.64255	12043.75
3118.00134	12042.15
3120.35871	12025.85
3122.71466	11961.95
3125.06917	11968.75
3127.42226	11921.35
3129.77393	11955.25
3132.12417	11931.35
3134.47299	11931.05
3136.82039	11887.85
3139.16636	11909.25
3141.51092	11911.35
3143.85406	11896.65
3146.19579	11897.15
3148.53609	11912.45
3150.87499	11942.95
3153.21246	11942.95
3155.54853	11977.35
3157.88318	11944.25
3160.21642	11969.75
3162.54826	11942.65
3164.87868	11957.75
3167.2077	11987.05
3169.5353	11986.55
3171.86151	11956.95
3174.18631	11954.95
3176.5097	11938.95
3178.83169	11932.15
3181.15228	11916.45
3183.47147	11900.95
3185.78926	11885.45
3188.10565	11874.25
3190.42065	11868.95
3192.73424	11862.25
3195.04645	11853.25
3197.35725	11864.35
3199.66667	11863.65
3201.97469	11884.75
3204.28132	11853.95
3206.58656	11877.05
3208.8904	11893.25
3211.19287	11885.95
3213.49394	11849.35
3215.79363	11891.95
3218.09193	11900.85
3220.38884	11912.45
3222.68438	11913.05
3224.97853	11877.45
3227.2713	11907.55
3229.56269	11881.95
3231.8527	11871.55
3234.14133	11880.15
3236.42858	11865.35
3238.71446	11875.35
3240.99896	11826.35
