Data from AgNPs_UA_10uM_CRN_0uM_R6G_10uM_Q_RamanShift__0__11-48-42-647.txt Node

Date: Mon Jul 18 11:48:42 BST 2022
User: TCL
Spectrometer: QEP01345
Trigger mode: 4
Integration Time (sec): 7.000000E0
Scans to average: 10
Electric dark correction enabled: true
Nonlinearity correction enabled: false
Boxcar width: 0
XAxis mode: Raman Shifts
Number of Pixels in Spectrum: 1044
>>>>>Begin Spectral Data<<<<<
46.04893	-0.3625
50.45542	-2.4625
54.85868	-2.6625
59.25871	-0.8625
63.6555	104.0375
68.04907	107.5375
72.43941	113.7375
76.82654	118.5375
81.21044	118.9375
85.59113	122.3375
89.96862	129.9375
94.34289	136.8375
98.71396	142.9375
103.08183	147.1375
107.4465	153.9375
111.80798	155.1375
116.16626	158.7375
120.52136	167.4375
124.87327	174.0375
129.222	185.5375
133.56755	197.3375
137.90993	211.0375
142.24913	224.0375
146.58517	257.0375
150.91804	300.9375
155.24774	359.1375
159.57429	440.7375
163.89768	574.7375
168.21792	757.0375
172.53501	1032.9375
176.84895	1448.4375
181.15975	2038.4375
185.46741	2872.5375
189.77193	3981.5375
194.07331	5354.6375
198.37157	6904.7375
202.6667	8530.3375
206.9587	10195.2375
211.24758	11856.1375
215.53334	13529.3375
219.81599	15347.2375
224.09553	17420.0375
228.37195	19639.7375
232.64527	21935.5375
236.91549	24265.7375
241.18261	26379.9375
245.44663	28181.4375
249.70755	29734.8375
253.96539	31068.7375
258.22014	32177.6375
262.4718	33179.2375
266.72039	33805.1375
270.96589	34015.7375
275.20832	33921.7375
279.44768	33604.0375
283.68397	33188.6375
287.91719	32902.1375
292.14735	32995.0375
296.37445	33339.8375
300.59849	34231.1375
304.81948	35307.3375
309.03742	36234.5375
313.25231	36499.3375
317.46415	35669.3375
321.67296	33923.9375
325.87872	32398.2375
330.08145	31700.0375
334.28114	31661.5375
338.47781	32062.1375
342.67145	32698.0375
346.86207	33703.4375
351.04966	34972.5375
355.23424	36325.3375
359.4158	37268.3375
363.59435	37547.8375
367.76989	37537.8375
371.94243	37290.6375
376.11196	37001.9375
380.27849	36726.8375
384.44203	36638.5375
388.60257	36578.2375
392.76012	36705.3375
396.91468	37243.1375
401.06626	38014.7375
405.21485	38343.6375
409.36047	37797.7375
413.50311	36615.6375
417.64277	35508.3375
421.77947	34910.0375
425.9132	34798.7375
430.04396	34740.3375
434.17176	34778.3375
438.2966	35033.3375
442.41849	35424.6375
446.53742	35997.2375
450.6534	36596.9375
454.76644	37074.4375
458.87653	37220.1375
462.98368	37192.6375
467.08789	37044.7375
471.18916	36613.1375
475.2875	36168.1375
479.38291	35705.3375
483.4754	35396.6375
487.56496	35205.8375
491.6516	35081.7375
495.73531	35088.8375
499.81612	35278.2375
503.89401	35604.4375
507.96899	35767.7375
512.04106	35882.5375
516.11023	36102.6375
520.1765	36160.2375
524.23987	36027.5375
528.30034	35716.1375
532.35792	35463.2375
536.41261	35064.7375
540.46441	34678.9375
544.51333	34569.5375
548.55936	34837.3375
552.60252	35501.6375
556.64279	36125.8375
560.6802	36526.3375
564.71473	37011.8375
568.7464	37832.4375
572.7752	38143.8375
576.80114	37778.5375
580.82422	37703.7375
584.84444	37958.3375
588.86181	37965.1375
592.87633	37726.3375
596.888	37843.0375
600.89682	38964.5375
604.9028	42555.9375
608.90594	50695.5375
612.90624	58831.5375
616.90371	53953.1375
620.89834	41815.4375
624.89015	36668.4375
628.87913	35994.5375
632.86528	36722.0375
636.84862	37297.8375
640.82913	36770.8375
644.80683	35582.8375
648.78172	34752.5375
652.75379	34903.3375
656.72306	35929.4375
660.68952	36932.5375
664.65319	36534.7375
668.61405	35651.6375
672.57211	35471.0375
676.52738	35466.9375
680.47986	35205.6375
684.42955	34840.7375
688.37646	34692.4375
692.32058	34910.9375
696.26192	35330.9375
700.20048	35798.2375
704.13626	36050.6375
708.06928	35920.5375
711.99952	35688.7375
715.927	35532.1375
719.85171	35653.6375
723.77365	35662.0375
727.69284	35278.4375
731.60928	34895.0375
735.52295	34826.1375
739.43388	34885.3375
743.34206	34955.2375
747.24749	35102.3375
751.15017	35284.2375
755.05012	35814.7375
758.94733	37186.9375
762.8418	40519.2375
766.73354	45432.3375
770.62254	49394.4375
774.50882	49873.0375
778.39237	47514.4375
782.27321	43641.3375
786.15132	39679.1375
790.02671	37102.3375
793.89938	35755.6375
797.76935	35215.6375
801.6366	34946.2375
805.50115	34774.2375
809.36299	34625.0375
813.22213	34475.1375
817.07857	34451.0375
820.93231	34461.2375
824.78336	34527.8375
828.63172	34666.9375
832.47738	34639.7375
836.32036	34548.5375
840.16066	34479.7375
843.99827	34407.4375
847.8332	34428.9375
851.66546	34381.5375
855.49504	34407.4375
859.32195	34391.3375
863.1462	34331.9375
866.96777	34384.2375
870.78668	34400.0375
874.60293	34470.5375
878.41652	34581.2375
882.22745	34801.3375
886.03573	34965.9375
889.84136	34926.5375
893.64433	34834.9375
897.44466	34691.8375
901.24235	34689.8375
905.0374	34567.7375
908.8298	34380.2375
912.61957	34308.6375
916.40671	34341.2375
920.19121	34606.1375
923.97308	34898.6375
927.75233	35259.9375
931.52895	35494.0375
935.30295	35119.5375
939.07433	34398.8375
942.84309	33846.7375
946.60924	33536.6375
950.37278	33431.6375
954.13371	33388.9375
957.89203	33348.3375
961.64774	33366.8375
965.40086	33384.3375
969.15137	33335.0375
972.89929	33298.6375
976.64461	33329.9375
980.38733	33350.3375
984.12747	33412.9375
987.86502	33498.9375
991.59999	33592.7375
995.33237	33690.1375
999.06217	33965.1375
1002.78939	34395.4375
1006.51404	34846.2375
1010.23611	35328.9375
1013.95561	35524.0375
1017.67255	35498.8375
1021.38692	35284.7375
1025.09872	34933.1375
1028.80796	34648.1375
1032.51465	34553.6375
1036.21877	34764.5375
1039.92035	34895.2375
1043.61937	35092.8375
1047.31584	35203.7375
1051.00976	35306.5375
1054.70114	35426.8375
1058.38998	35566.5375
1062.07627	35751.9375
1065.76003	36079.3375
1069.44126	36531.4375
1073.11995	37211.5375
1076.79611	37991.5375
1080.46974	38484.7375
1084.14085	39044.2375
1087.80943	39537.2375
1091.47549	39758.3375
1095.13903	39534.0375
1098.80005	38943.2375
1102.45857	38415.8375
1106.11456	37810.8375
1109.76805	37391.9375
1113.41903	37411.5375
1117.06751	37852.2375
1120.71348	38711.5375
1124.35696	39774.1375
1127.99793	40648.5375
1131.63641	40305.8375
1135.2724	39067.8375
1138.90589	38119.1375
1142.5369	37602.7375
1146.16542	37256.8375
1149.79145	37010.8375
1153.415	36946.9375
1157.03607	37039.6375
1160.65467	37492.0375
1164.27079	38347.1375
1167.88443	39649.1375
1171.49561	41673.5375
1175.10432	44756.1375
1178.71056	48713.5375
1182.31434	51915.5375
1185.91565	52775.8375
1189.51451	52064.6375
1193.11091	50465.4375
1196.70485	48583.3375
1200.29634	47021.9375
1203.88538	45269.9375
1207.47197	43315.0375
1211.05612	41654.7375
1214.63782	40506.9375
1218.21708	39703.8375
1221.79391	39117.0375
1225.36829	38838.2375
1228.94024	38660.5375
1232.50976	38718.9375
1236.07685	38816.7375
1239.6415	38958.0375
1243.20374	39059.0375
1246.76355	39371.5375
1250.32093	39666.7375
1253.8759	40241.8375
1257.42845	41092.7375
1260.97859	42140.4375
1264.52631	43234.1375
1268.07163	44204.0375
1271.61453	45009.9375
1275.15503	45614.6375
1278.69312	45950.6375
1282.22882	46284.7375
1285.76211	47154.1375
1289.29301	48356.9375
1292.82151	49467.3375
1296.34761	50531.1375
1299.87133	52134.1375
1303.39266	54909.3375
1306.9116	59324.8375
1310.42815	64136.7375
1313.94233	65979.9375
1317.45412	63834.4375
1320.96354	60379.3375
1324.47058	57520.4375
1327.97525	55371.2375
1331.47754	54089.1375
1334.97747	53680.7375
1338.47502	53863.4375
1341.97022	54826.0375
1345.46305	56801.0375
1348.95352	59430.2375
1352.44163	62325.6375
1355.92738	65624.6375
1359.41078	70841.5375
1362.89183	76056.3375
1366.37053	73980.9375
1369.84688	64535.3375
1373.32088	55442.2375
1376.79254	50114.9375
1380.26186	47340.0375
1383.72883	45670.5375
1387.19347	44276.9375
1390.65578	42946.2375
1394.11575	41765.7375
1397.57339	41046.5375
1401.0287	40567.0375
1404.48168	40279.7375
1407.93234	40149.0375
1411.38068	40265.0375
1414.82669	40400.7375
1418.27039	40270.8375
1421.71177	39908.2375
1425.15083	39426.5375
1428.58758	39154.4375
1432.02203	39310.7375
1435.45416	39675.2375
1438.88399	39910.7375
1442.31151	39931.7375
1445.73673	40075.4375
1449.15965	40263.6375
1452.58027	40315.2375
1455.9986	40316.0375
1459.41463	40364.1375
1462.82837	40792.2375
1466.23982	41618.6375
1469.64898	42431.1375
1473.05586	43162.8375
1476.46045	43675.4375
1479.86276	44123.3375
1483.26279	44827.7375
1486.66054	45814.2375
1490.05602	47213.4375
1493.44922	49353.2375
1496.84016	52688.0375
1500.22882	57698.6375
1503.61521	64298.4375
1506.99934	71371.9375
1510.38121	76360.0375
1513.76081	76595.3375
1517.13816	71193.1375
1520.51324	63113.4375
1523.88607	56288.7375
1527.25665	51786.6375
1530.62498	49230.2375
1533.99105	47605.9375
1537.35488	46396.1375
1540.71647	45431.9375
1544.07581	44805.6375
1547.4329	44251.5375
1550.78776	43851.1375
1554.14038	43761.9375
1557.49077	44008.3375
1560.83892	44644.3375
1564.18484	45791.5375
1567.52853	47170.8375
1570.86999	48266.4375
1574.20922	48803.8375
1577.54624	48423.5375
1580.88103	46498.7375
1584.2136	44093.3375
1587.54395	42761.1375
1590.87208	42757.7375
1594.19801	44003.4375
1597.52172	45649.5375
1600.84321	46124.1375
1604.16251	45223.4375
1607.47959	43948.9375
1610.79447	42375.9375
1614.10715	40440.7375
1617.41763	38660.4375
1620.7259	37355.2375
1624.03199	36638.7375
1627.33587	36497.2375
1630.63757	36883.8375
1633.93707	38006.6375
1637.23439	39915.2375
1640.52951	43155.3375
1643.82246	48027.2375
1647.11321	53692.3375
1650.40179	57474.2375
1653.68819	56318.5375
1656.97241	50539.4375
1660.25446	44025.2375
1663.53433	39098.5375
1666.81203	36060.9375
1670.08756	34231.8375
1673.36092	33117.5375
1676.63211	32380.1375
1679.90115	31969.1375
1683.16801	31516.6375
1686.43272	31268.8375
1689.69527	30989.1375
1692.95567	30808.2375
1696.2139	30725.6375
1699.46999	30609.3375
1702.72392	30551.9375
1705.97571	30456.6375
1709.22535	30466.4375
1712.47284	30505.9375
1715.71819	30513.4375
1718.96139	30478.5375
1722.20246	30365.9375
1725.44139	30250.9375
1728.67818	30105.2375
1731.91284	29857.4375
1735.14537	29768.5375
1738.37576	29694.9375
1741.60403	29676.7375
1744.83017	29604.4375
1748.05418	29467.7375
1751.27607	29437.5375
1754.49584	29340.4375
1757.71349	29285.3375
1760.92903	29254.8375
1764.14244	29271.2375
1767.35375	29238.1375
1770.56294	29151.5375
1773.77002	29065.5375
1776.97499	29054.8375
1780.17785	28986.9375
1783.37861	28914.1375
1786.57727	28878.4375
1789.77382	28816.1375
1792.96828	28750.2375
1796.16064	28684.0375
1799.3509	28684.2375
1802.53907	28544.3375
1805.72514	28516.4375
1808.90913	28396.9375
1812.09102	28350.8375
1815.27083	28286.1375
1818.44856	28238.4375
1821.6242	28252.7375
1824.79776	28161.5375
1827.96924	28121.3375
1831.13864	28087.2375
1834.30597	28047.4375
1837.47122	27978.4375
1840.6344	27969.7375
1843.7955	27973.3375
1846.95454	27942.8375
1850.11151	27913.4375
1853.26642	27902.4375
1856.41926	27882.2375
1859.57004	27912.5375
1862.71876	27804.8375
1865.86542	27800.5375
1869.01003	27833.1375
1872.15258	27810.0375
1875.29308	27743.5375
1878.43152	27697.3375
1881.56792	27625.4375
1884.70227	27604.6375
1887.83457	27567.1375
1890.96482	27555.9375
1894.09304	27485.4375
1897.21921	27459.2375
1900.34335	27458.8375
1903.46544	27390.1375
1906.58551	27347.7375
1909.70353	27330.5375
1912.81953	27290.3375
1915.93349	27304.2375
1919.04543	27187.4375
1922.15534	27195.4375
1925.26322	27145.2375
1928.36908	27068.0375
1931.47292	26997.1375
1934.57473	26912.2375
1937.67453	26860.4375
1940.77232	26791.6375
1943.86808	26732.9375
1946.96184	26656.0375
1950.05358	26594.4375
1953.14331	26487.3375
1956.23103	26425.4375
1959.31675	26341.9375
1962.40046	26325.8375
1965.48217	26240.3375
1968.56188	26192.2375
1971.63959	26102.0375
1974.7153	26049.3375
1977.78901	25946.6375
1980.86073	25867.2375
1983.93046	25792.9375
1986.99819	25695.2375
1990.06394	25637.7375
1993.1277	25529.4375
1996.18947	25481.1375
1999.24925	25425.0375
2002.30706	25336.7375
2005.36288	25304.8375
2008.41672	25245.1375
2011.46859	25138.7375
2014.51848	25077.2375
2017.56639	25041.7375
2020.61233	24990.3375
2023.6563	24909.7375
2026.6983	24764.8375
2029.73833	24643.7375
2032.7764	24603.3375
2035.8125	24601.9375
2038.84664	24573.7375
2041.87881	24507.5375
2044.90903	24431.4375
2047.93729	24386.0375
2050.96359	24373.5375
2053.98794	24323.5375
2057.01034	24271.6375
2060.03078	24295.9375
2063.04927	24239.0375
2066.06582	24246.5375
2069.08042	24204.3375
2072.09307	24208.2375
2075.10378	24137.2375
2078.11255	24155.5375
2081.11938	24146.0375
2084.12426	24171.5375
2087.12722	24121.1375
2090.12824	24116.3375
2093.12732	24119.6375
2096.12447	24130.1375
2099.11969	24160.1375
2102.11299	24174.7375
2105.10435	24163.2375
2108.09379	24168.1375
2111.08131	24200.2375
2114.0669	24178.3375
2117.05057	24188.4375
2120.03233	24245.6375
2123.01216	24276.6375
2125.99008	24342.0375
2128.96609	24298.5375
2131.94018	24381.5375
2134.91236	24378.1375
2137.88263	24393.9375
2140.851	24379.9375
2143.81746	24377.6375
2146.78201	24365.2375
2149.74466	24441.9375
2152.7054	24378.4375
2155.66425	24419.8375
2158.6212	24352.2375
2161.57625	24338.4375
2164.52941	24320.3375
2167.48067	24287.0375
2170.43004	24279.0375
2173.37752	24298.1375
2176.32311	24310.8375
2179.26681	24276.3375
2182.20863	24338.9375
2185.14856	24322.3375
2188.08661	24275.2375
2191.02278	24269.7375
2193.95707	24242.9375
2196.88948	24247.8375
2199.82001	24205.7375
2202.74867	24144.8375
2205.67545	24116.3375
2208.60037	24057.6375
2211.52341	23997.2375
2214.44458	24000.3375
2217.36388	23990.2375
2220.28132	23915.4375
2223.1969	23890.0375
2226.11061	23795.8375
2229.02246	23744.6375
2231.93245	23739.1375
2234.84058	23681.3375
2237.74686	23631.3375
2240.65128	23632.0375
2243.55385	23564.8375
2246.45456	23529.6375
2249.35343	23567.9375
2252.25044	23531.7375
2255.14561	23494.5375
2258.03893	23491.3375
2260.93041	23499.9375
2263.82004	23428.1375
2266.70783	23387.7375
2269.59378	23322.1375
2272.4779	23308.7375
2275.36017	23226.3375
2278.24061	23187.4375
2281.11922	23166.4375
2283.996	23138.8375
2286.87094	23063.4375
2289.74405	23029.2375
2292.61534	22981.7375
2295.4848	22944.2375
2298.35243	22959.4375
2301.21824	22928.2375
2304.08223	22920.0375
2306.94439	22848.5375
2309.80474	22871.6375
2312.66327	22847.3375
2315.51999	22825.4375
2318.37489	22823.0375
2321.22797	22755.1375
2324.07925	22717.1375
2326.92871	22665.7375
2329.77637	22663.5375
2332.62222	22642.1375
2335.46626	22606.5375
2338.3085	22624.8375
2341.14893	22541.3375
2343.98756	22571.9375
2346.8244	22576.7375
2349.65943	22600.1375
2352.49267	22570.2375
2355.32411	22595.6375
2358.15376	22516.1375
2360.98161	22581.1375
2363.80768	22599.0375
2366.63195	22594.6375
2369.45444	22598.5375
2372.27514	22543.9375
2375.09405	22487.3375
2377.91118	22492.2375
2380.72652	22385.0375
2383.54009	22269.2375
2386.35187	22265.2375
2389.16188	22257.9375
2391.97011	22194.2375
2394.77657	22141.9375
2397.58125	22078.2375
2400.38416	22047.6375
2403.18529	22032.5375
2405.98466	22033.0375
2408.78226	21981.9375
2411.57809	21987.6375
2414.37216	21947.9375
2417.16446	21969.2375
2419.955	21889.8375
2422.74378	21936.6375
2425.5308	21864.3375
2428.31606	21839.2375
2431.09956	21848.1375
2433.88131	21785.5375
2436.6613	21776.3375
2439.43954	21789.6375
2442.21603	21773.2375
2444.99077	21770.5375
2447.76377	21736.6375
2450.53501	21679.4375
2453.30451	21714.3375
2456.07226	21655.1375
2458.83827	21645.9375
2461.60254	21653.9375
2464.36507	21633.4375
2467.12586	21620.9375
2469.88492	21586.1375
2472.64224	21574.5375
2475.39782	21531.3375
2478.15167	21601.7375
2480.90379	21598.0375
2483.65417	21670.7375
2486.40283	21656.4375
2489.14976	21645.2375
2491.89497	21660.4375
2494.63845	21653.6375
2497.3802	21618.3375
2500.12024	21590.3375
2502.85855	21515.4375
2505.59514	21464.3375
2508.33002	21421.2375
2511.06318	21374.9375
2513.79462	21320.5375
2516.52435	21253.5375
2519.25237	21245.3375
2521.97867	21211.5375
2524.70327	21203.0375
2527.42616	21124.0375
2530.14734	21147.0375
2532.86681	21119.5375
2535.58458	21130.6375
2538.30065	21095.6375
2541.01501	21056.8375
2543.72768	21032.6375
2546.43864	21002.8375
2549.14791	20964.7375
2551.85548	20917.5375
2554.56136	20891.6375
2557.26554	20852.4375
2559.96803	20885.4375
2562.66883	20829.2375
2565.36794	20791.5375
2568.06536	20803.4375
2570.7611	20785.5375
2573.45514	20732.4375
2576.14751	20678.0375
2578.83819	20642.6375
2581.52719	20616.8375
2584.21451	20554.7375
2586.90015	20531.2375
2589.58411	20518.4375
2592.2664	20492.3375
2594.94701	20461.8375
2597.62594	20468.9375
2600.30321	20387.6375
2602.9788	20332.1375
2605.65273	20256.8375
2608.32498	20288.6375
2610.99557	20241.8375
2613.66449	20281.8375
2616.33175	20231.0375
2618.99734	20194.0375
2621.66128	20188.2375
2624.32355	20165.8375
2626.98416	20147.2375
2629.64311	20089.1375
2632.30041	20063.9375
2634.95605	19994.3375
2637.61004	19989.0375
2640.26238	19970.5375
2642.91306	19990.0375
2645.56209	19928.2375
2648.20948	19922.9375
2650.85521	19892.5375
2653.4993	19877.2375
2656.14175	19900.4375
2658.78255	19932.3375
2661.42171	19945.0375
2664.05923	19961.1375
2666.6951	19914.3375
2669.32934	19940.0375
2671.96194	19964.5375
2674.59291	19967.4375
2677.22224	19961.5375
2679.84993	19956.4375
2682.476	19889.7375
2685.10043	19921.8375
2687.72324	19906.9375
2690.34441	19897.9375
2692.96396	19894.1375
2695.58188	19873.8375
2698.19818	19838.8375
2700.81285	19874.6375
2703.4259	19853.1375
2706.03733	19897.4375
2708.64714	19917.2375
2711.25533	19904.4375
2713.86191	19872.1375
2716.46687	19884.3375
2719.07021	19865.0375
2721.67194	19886.3375
2724.27206	19880.0375
2726.87057	19869.5375
2729.46747	19880.4375
2732.06276	19889.5375
2734.65644	19859.9375
2737.24852	19829.3375
2739.83899	19773.4375
2742.42786	19771.3375
2745.01513	19732.9375
2747.60079	19704.9375
2750.18486	19692.9375
2752.76733	19688.3375
2755.3482	19651.0375
2757.92747	19643.0375
2760.50515	19586.9375
2763.08123	19574.6375
2765.65573	19552.7375
2768.22863	19528.8375
2770.79994	19482.2375
2773.36967	19463.3375
2775.9378	19429.3375
2778.50435	19404.2375
2781.06932	19381.5375
2783.6327	19359.9375
2786.1945	19348.3375
2788.75471	19362.7375
2791.31335	19264.9375
2793.87041	19220.9375
2796.42589	19164.4375
2798.97979	19209.8375
2801.53212	19188.2375
2804.08288	19198.0375
2806.63206	19124.8375
2809.17967	19093.5375
2811.72571	19047.0375
2814.27018	19038.1375
2816.81308	18981.1375
2819.35442	18943.6375
2821.89419	18904.8375
2824.43239	18889.8375
2826.96904	18888.3375
2829.50412	18887.9375
2832.03763	18815.5375
2834.56959	18781.4375
2837.1	18786.3375
2839.62884	18769.5375
2842.15613	18743.2375
2844.68186	18732.9375
2847.20604	18677.3375
2849.72867	18695.6375
2852.24974	18655.4375
2854.76927	18635.2375
2857.28724	18659.0375
2859.80367	18654.1375
2862.31855	18604.9375
2864.83189	18643.3375
2867.34368	18585.0375
2869.85393	18611.6375
2872.36264	18561.6375
2874.8698	18523.3375
2877.37543	18498.9375
2879.87952	18505.8375
2882.38207	18481.3375
2884.88308	18464.7375
2887.38256	18470.4375
2889.88051	18430.8375
2892.37692	18437.9375
2894.8718	18452.8375
2897.36515	18455.0375
2899.85698	18428.0375
2902.34727	18431.7375
2904.83604	18469.3375
2907.32328	18507.1375
2909.809	18495.3375
2912.29319	18530.0375
2914.77587	18503.9375
2917.25702	18489.1375
2919.73665	18506.9375
2922.21476	18493.5375
2924.69136	18448.7375
2927.16644	18442.3375
2929.64	18393.1375
2932.11205	18376.5375
2934.58258	18277.4375
2937.05161	18289.6375
2939.51912	18305.7375
2941.98513	18291.8375
2944.44962	18229.6375
2946.91261	18191.5375
2949.37409	18236.1375
2951.83407	18181.1375
2954.29254	18210.9375
2956.74951	18226.5375
2959.20498	18187.7375
2961.65895	18208.1375
2964.11142	18204.1375
2966.56239	18185.8375
2969.01186	18168.1375
2971.45984	18122.0375
2973.90632	18144.9375
2976.35131	18072.2375
2978.7948	18053.1375
2981.23681	18037.9375
2983.67732	18059.2375
2986.11635	18038.5375
2988.55388	17985.3375
2990.98993	17966.7375
2993.4245	17911.7375
2995.85758	17864.6375
2998.28917	17811.4375
3000.71928	17796.3375
3003.14791	17734.8375
3005.57506	17742.4375
3008.00073	17670.4375
3010.42493	17670.4375
3012.84764	17631.1375
3015.26888	17613.5375
3017.68865	17592.6375
3020.10694	17551.2375
3022.52376	17564.6375
3024.9391	17476.7375
