Data from AgNPs_UA_1uM_CRN_0uM_R6G_10uM_Q_RamanShift__1__12-11-55-865.txt Node

Date: Wed Jul 13 12:11:55 BST 2022
User: TCL
Spectrometer: QEP01345
Trigger mode: 4
Integration Time (sec): 7.000000E0
Scans to average: 10
Electric dark correction enabled: true
Nonlinearity correction enabled: false
Boxcar width: 0
XAxis mode: Raman Shifts
Number of Pixels in Spectrum: 1044
>>>>>Begin Spectral Data<<<<<
46.04893	-0.6
50.45542	-1.5
54.85868	-0.8
59.25871	-1.5
63.6555	100.1
68.04907	105.7
72.43941	111.1
76.82654	114.7
81.21044	119
85.59113	122
89.96862	127.3
94.34289	132.8
98.71396	134.7
103.08183	138.7
107.4465	148.9
111.80798	142.3
116.16626	153.8
120.52136	156.3
124.87327	165
129.222	171.7
133.56755	179.4
137.90993	193.7
142.24913	208.1
146.58517	236.1
150.91804	271
155.24774	318
159.57429	389
163.89768	492.4
168.21792	651.1
172.53501	886.3
176.84895	1240.7
181.15975	1744.5
185.46741	2437.6
189.77193	3360
194.07331	4513.6
198.37157	5808.3
202.6667	7175.5
206.9587	8526.8
211.24758	9889.4
215.53334	11254.9
219.81599	12729.8
224.09553	14313.8
228.37195	16107
232.64527	18007.1
236.91549	19913.9
241.18261	21830.6
245.44663	23524.9
249.70755	25038.1
253.96539	26374.7
258.22014	27502.5
262.4718	28438.1
266.72039	29057.5
270.96589	29288.1
275.20832	29208.4
279.44768	28959.6
283.68397	28614.8
287.91719	28354.1
292.14735	28224.1
296.37445	28284.3
300.59849	28701.9
304.81948	29139.5
309.03742	29580.5
313.25231	29718.8
317.46415	29356.7
321.67296	28654.1
325.87872	27998.3
330.08145	27731.8
334.28114	27800.3
338.47781	28163.8
342.67145	28643.8
346.86207	29277.8
351.04966	30122.9
355.23424	30915.9
359.4158	31547.1
363.59435	31929.2
367.76989	32059
371.94243	32091.2
376.11196	32096.8
380.27849	32128.3
384.44203	32187.3
388.60257	32349.5
392.76012	32545.4
396.91468	32993.7
401.06626	33519
405.21485	33774
409.36047	33565.6
413.50311	32877.8
417.64277	32379.8
421.77947	32214.3
425.9132	32212.4
430.04396	32321.5
434.17176	32412.8
438.2966	32738.6
442.41849	33117.8
446.53742	33620.1
450.6534	34178.7
454.76644	34545.6
458.87653	34695.9
462.98368	34771.6
467.08789	34621.9
471.18916	34381.4
475.2875	33966.5
479.38291	33603.5
483.4754	33410.4
487.56496	33268.6
491.6516	33251.3
495.73531	33310.1
499.81612	33437.9
503.89401	33729
507.96899	33873.9
512.04106	33971
516.11023	34055.7
520.1765	34102.7
524.23987	34141.6
528.30034	34071
532.35792	33939
536.41261	33704.2
540.46441	33420.3
544.51333	33423.1
548.55936	33616.8
552.60252	33918.6
556.64279	34361.5
560.6802	34642.4
564.71473	34894.5
568.7464	35313.9
572.7752	35531
576.80114	35418.9
580.82422	35546.6
584.84444	35780.9
588.86181	36163.7
592.87633	36450.9
596.888	36709.9
600.89682	37268.1
604.9028	39236.8
608.90594	43833.4
612.90624	48417.1
616.90371	45520.9
620.89834	38505.9
624.89015	35625.3
628.87913	35303.7
632.86528	35628.7
636.84862	35963.1
640.82913	35612.4
644.80683	34901.1
648.78172	34566.8
652.75379	34732.1
656.72306	35321
660.68952	35989.6
664.65319	35818.8
668.61405	35325.8
672.57211	35400
676.52738	35505
680.47986	35316.3
684.42955	35007.8
688.37646	34904.5
692.32058	35146.5
696.26192	35623.5
700.20048	36048.9
704.13626	36225.4
708.06928	36089.3
711.99952	35832
715.927	35753.7
719.85171	35859.5
723.77365	35903.3
727.69284	35659.6
731.60928	35419.6
735.52295	35370.8
739.43388	35405.7
743.34206	35523.9
747.24749	35611.5
751.15017	35742.6
755.05012	36101.3
758.94733	36904.9
762.8418	38711.2
766.73354	41496.1
770.62254	43783.9
774.50882	44189.6
778.39237	42975.7
782.27321	40926.2
786.15132	38802
790.02671	37345.2
793.89938	36575.7
797.76935	36254.4
801.6366	35994
805.50115	35889.1
809.36299	35784.8
813.22213	35722.3
817.07857	35663.7
820.93231	35716.2
824.78336	35729.7
828.63172	35793.9
832.47738	35756.3
836.32036	35709.5
840.16066	35649.1
843.99827	35742.7
847.8332	35749.8
851.66546	35783
855.49504	35832.5
859.32195	35851.1
863.1462	35860.6
866.96777	35911
870.78668	35896.3
874.60293	36042.3
878.41652	36139.7
882.22745	36358.9
886.03573	36538.1
889.84136	36570.9
893.64433	36522.4
897.44466	36355
901.24235	36241.9
905.0374	36186.7
908.8298	36053.8
912.61957	36014.3
916.40671	36147.8
920.19121	36174
923.97308	36459.6
927.75233	36700.3
931.52895	36730.9
935.30295	36503.2
939.07433	36053
942.84309	35811.1
946.60924	35688.5
950.37278	35653.7
954.13371	35615
957.89203	35580.6
961.64774	35483.1
965.40086	35452
969.15137	35465.6
972.89929	35469.8
976.64461	35440
980.38733	35528.8
984.12747	35586.3
987.86502	35660.3
991.59999	35790.3
995.33237	35950.8
999.06217	36197.6
1002.78939	36568.8
1006.51404	37025.6
1010.23611	37490.6
1013.95561	37698.3
1017.67255	37728.4
1021.38692	37595.5
1025.09872	37264.1
1028.80796	37017.5
1032.51465	36858.8
1036.21877	36953.8
1039.92035	36988.1
1043.61937	37047.7
1047.31584	37143.1
1051.00976	37227.8
1054.70114	37337.5
1058.38998	37433
1062.07627	37632.9
1065.76003	37845.5
1069.44126	38141.9
1073.11995	38742.5
1076.79611	39419.1
1080.46974	39909.1
1084.14085	40188.1
1087.80943	40423.5
1091.47549	40517.6
1095.13903	40297.4
1098.80005	39948
1102.45857	39675.9
1106.11456	39469.3
1109.76805	39087.2
1113.41903	38983.9
1117.06751	39195.8
1120.71348	39648
1124.35696	40196.4
1127.99793	40666.1
1131.63641	40446.9
1135.2724	39825.8
1138.90589	39290.3
1142.5369	38954.2
1146.16542	38740.9
1149.79145	38648.6
1153.415	38476.5
1157.03607	38461.9
1160.65467	38670.9
1164.27079	39327.9
1167.88443	40192.3
1171.49561	41514.7
1175.10432	43568.2
1178.71056	46100.3
1182.31434	48070.2
1185.91565	48792.6
1189.51451	48494
1193.11091	47777
1196.70485	46772.1
1200.29634	45790.5
1203.88538	44772.6
1207.47197	43679
1211.05612	42687.6
1214.63782	41863.8
1218.21708	41227.9
1221.79391	40777.7
1225.36829	40637.9
1228.94024	40524.1
1232.50976	40494.2
1236.07685	40470.3
1239.6415	40443.4
1243.20374	40522.5
1246.76355	40697
1250.32093	40927.1
1253.8759	41375.1
1257.42845	42012.1
1260.97859	42856.3
1264.52631	43806.9
1268.07163	44495.8
1271.61453	45086.3
1275.15503	45455.8
1278.69312	45590.9
1282.22882	45726.7
1285.76211	46128.7
1289.29301	46835.6
1292.82151	47472.9
1296.34761	48282.5
1299.87133	49370.2
1303.39266	51155.3
1306.9116	53755.9
1310.42815	56708.9
1313.94233	58035.8
1317.45412	56835.5
1320.96354	54657.4
1324.47058	52784.3
1327.97525	51275.1
1331.47754	50486
1334.97747	50291.5
1338.47502	50489.6
1341.97022	51283.6
1345.46305	52719.8
1348.95352	54632.2
1352.44163	56565.3
1355.92738	58460.8
1359.41078	61246.3
1362.89183	63837.7
1366.37053	62149
1369.84688	56474.8
1373.32088	50951.8
1376.79254	47549.4
1380.26186	45849.8
1383.72883	44926.1
1387.19347	44185.1
1390.65578	43285.5
1394.11575	42505
1397.57339	41865.9
1401.0287	41565.7
1404.48168	41427.7
1407.93234	41532.9
1411.38068	41781.6
1414.82669	41827.6
1418.27039	41765.6
1421.71177	41497.9
1425.15083	41243.2
1428.58758	41162
1432.02203	41376.4
1435.45416	41704.9
1438.88399	41928.4
1442.31151	41965.2
1445.73673	41993.6
1449.15965	41999.9
1452.58027	41853.4
1455.9986	41755.1
1459.41463	41810.2
1462.82837	42230.1
1466.23982	42781.7
1469.64898	43316
1473.05586	43755.9
1476.46045	44132.2
1479.86276	44409.8
1483.26279	44848.4
1486.66054	45404.1
1490.05602	46160.7
1493.44922	47326.4
1496.84016	48990.2
1500.22882	51641.4
1503.61521	55021
1506.99934	58537.4
1510.38121	61015.9
1513.76081	60781.6
1517.13816	57618.4
1520.51324	53143.3
1523.88607	49415.6
1527.25665	47118.9
1530.62498	45892.5
1533.99105	45307.2
1537.35488	44902.8
1540.71647	44471.9
1544.07581	44080.7
1547.4329	43756.2
1550.78776	43618.3
1554.14038	43428.5
1557.49077	43478.6
1560.83892	43864.2
1564.18484	44406.6
1567.52853	45161.7
1570.86999	45642
1574.20922	46008.4
1577.54624	45778.3
1580.88103	44664.8
1584.2136	43352.7
1587.54395	42795.4
1590.87208	43118.5
1594.19801	44215.8
1597.52172	45739.8
1600.84321	46278.1
1604.16251	45809.4
1607.47959	44826.7
1610.79447	43497.6
1614.10715	41805.1
1617.41763	40240.5
1620.7259	39061.8
1624.03199	38388.2
1627.33587	38275.7
1630.63757	38581.2
1633.93707	39484.8
1637.23439	41173.5
1640.52951	43862.8
1643.82246	47448
1647.11321	50871.3
1650.40179	52651.3
1653.68819	50891.6
1656.97241	46704.4
1660.25446	42344.4
1663.53433	39235.2
1666.81203	37419.4
1670.08756	36334.4
1673.36092	35626.4
1676.63211	35149.4
1679.90115	34853.9
1683.16801	34592.1
1686.43272	34355.6
1689.69527	34184.8
1692.95567	34030.2
1696.2139	33984.1
1699.46999	33945.9
1702.72392	33889.6
1705.97571	33863
1709.22535	33909.1
1712.47284	33949.7
1715.71819	33946
1718.96139	33944.4
1722.20246	33841.4
1725.44139	33801.4
1728.67818	33711.8
1731.91284	33555.8
1735.14537	33461.2
1738.37576	33390.7
1741.60403	33264.7
1744.83017	33211.3
1748.05418	33130.4
1751.27607	33082.2
1754.49584	33047.5
1757.71349	33074.9
1760.92903	33006.3
1764.14244	32959.9
1767.35375	32975.4
1770.56294	32915.3
1773.77002	32877.3
1776.97499	32892.1
1780.17785	32842.1
1783.37861	32784
1786.57727	32723.9
1789.77382	32647.4
1792.96828	32636.2
1796.16064	32610.4
1799.3509	32570.2
1802.53907	32531.4
1805.72514	32462.9
1808.90913	32476.5
1812.09102	32366
1815.27083	32275.4
1818.44856	32223.3
1821.6242	32158
1824.79776	32107.4
1827.96924	32044.6
1831.13864	32024.5
1834.30597	32052.3
1837.47122	31939.4
1840.6344	31908.7
1843.7955	31920.6
1846.95454	31913.2
1850.11151	31880
1853.26642	31885.2
1856.41926	31809.8
1859.57004	31808.6
1862.71876	31815.4
1865.86542	31841.3
1869.01003	31834.7
1872.15258	31756.9
1875.29308	31731.5
1878.43152	31640.6
1881.56792	31597
1884.70227	31591.5
1887.83457	31549.6
1890.96482	31533.6
1894.09304	31457.5
1897.21921	31477.7
1900.34335	31408.4
1903.46544	31360.6
1906.58551	31359.6
1909.70353	31359.1
1912.81953	31271.5
1915.93349	31313.2
1919.04543	31217.4
1922.15534	31170.2
1925.26322	31119.9
1928.36908	31073.7
1931.47292	30997
1934.57473	30958.7
1937.67453	30892.3
1940.77232	30733.3
1943.86808	30745.2
1946.96184	30675.9
1950.05358	30569.7
1953.14331	30500.9
1956.23103	30442
1959.31675	30345.8
1962.40046	30275.5
1965.48217	30192.2
1968.56188	30111.8
1971.63959	30004
1974.7153	29963.7
1977.78901	29889.8
1980.86073	29800.4
1983.93046	29710.6
1986.99819	29609.3
1990.06394	29492.5
1993.1277	29432
1996.18947	29340.9
1999.24925	29301.3
2002.30706	29262
2005.36288	29155.3
2008.41672	29041.7
2011.46859	28949.6
2014.51848	28862.8
2017.56639	28803.1
2020.61233	28765.5
2023.6563	28654
2026.6983	28562.5
2029.73833	28526.1
2032.7764	28427.8
2035.8125	28345.8
2038.84664	28349
2041.87881	28286.3
2044.90903	28230.3
2047.93729	28153.8
2050.96359	28178.5
2053.98794	28133.4
2057.01034	28096.7
2060.03078	28060.4
2063.04927	28041.1
2066.06582	28058.9
2069.08042	28065.1
2072.09307	27968
2075.10378	27908.4
2078.11255	27911
2081.11938	27965.2
2084.12426	27912.1
2087.12722	27913.8
2090.12824	27890.1
2093.12732	27911.2
2096.12447	27915.3
2099.11969	27921.9
2102.11299	27910.9
2105.10435	27986.5
2108.09379	27958.4
2111.08131	28009.9
2114.0669	28010.1
2117.05057	28035.3
2120.03233	28053.2
2123.01216	28079.1
2125.99008	28149.6
2128.96609	28154.7
2131.94018	28141.6
2134.91236	28229
2137.88263	28243.4
2140.851	28281.8
2143.81746	28270.2
2146.78201	28262.8
2149.74466	28234.5
2152.7054	28292.9
2155.66425	28252
2158.6212	28261.6
2161.57625	28228.3
2164.52941	28225.9
2167.48067	28237.8
2170.43004	28235
2173.37752	28168.7
2176.32311	28248.7
2179.26681	28264.6
2182.20863	28228
2185.14856	28301.2
2188.08661	28250.9
2191.02278	28229.4
2193.95707	28202.5
2196.88948	28191.4
2199.82001	28137.6
2202.74867	28155.7
2205.67545	28104.2
2208.60037	28054.4
2211.52341	28048.8
2214.44458	27980.2
2217.36388	27906.7
2220.28132	27869.3
2223.1969	27855.1
2226.11061	27819.8
2229.02246	27697.5
2231.93245	27649.8
2234.84058	27632.5
2237.74686	27570.5
2240.65128	27611.5
2243.55385	27561.4
2246.45456	27545.7
2249.35343	27506
2252.25044	27504.9
2255.14561	27441.7
2258.03893	27373.6
2260.93041	27384.4
2263.82004	27297.1
2266.70783	27266.2
2269.59378	27226.6
2272.4779	27137.5
2275.36017	27075.6
2278.24061	27011.9
2281.11922	26963.5
2283.996	26917
2286.87094	26879.8
2289.74405	26872.7
2292.61534	26796.9
2295.4848	26791.2
2298.35243	26776
2301.21824	26754.5
2304.08223	26720.3
2306.94439	26711.9
2309.80474	26743.5
2312.66327	26745
2315.51999	26635.2
2318.37489	26622.8
2321.22797	26564.1
2324.07925	26520.7
2326.92871	26502.9
2329.77637	26490.4
2332.62222	26445
2335.46626	26412.9
2338.3085	26353.9
2341.14893	26281.2
2343.98756	26249.5
2346.8244	26260.8
2349.65943	26227.4
2352.49267	26267.3
2355.32411	26304.3
2358.15376	26318
2360.98161	26282.8
2363.80768	26254.2
2366.63195	26206.2
2369.45444	26221.9
2372.27514	26229.8
2375.09405	26183.8
2377.91118	26114.9
2380.72652	26067
2383.54009	26006.1
2386.35187	25951.8
2389.16188	25912.2
2391.97011	25825.4
2394.77657	25803.3
2397.58125	25739.1
2400.38416	25683.6
2403.18529	25638.4
2405.98466	25654.6
2408.78226	25564.6
2411.57809	25596.6
2414.37216	25531.8
2417.16446	25553.7
2419.955	25542
2422.74378	25496.9
2425.5308	25470.2
2428.31606	25474.2
2431.09956	25477.7
2433.88131	25406.4
2436.6613	25453.3
2439.43954	25412.4
2442.21603	25365.1
2444.99077	25386.6
2447.76377	25397.7
2450.53501	25313.9
2453.30451	25288
2456.07226	25263.4
2458.83827	25226.6
2461.60254	25178.9
2464.36507	25170.8
2467.12586	25131.4
2469.88492	25140
2472.64224	25173.5
2475.39782	25128.3
2478.15167	25099.3
2480.90379	25053.1
2483.65417	25093.8
2486.40283	25077.5
2489.14976	25075.8
2491.89497	25076.9
2494.63845	25089.4
2497.3802	25061.8
2500.12024	25078.1
2502.85855	25009.7
2505.59514	24961.2
2508.33002	24953.7
2511.06318	24909.3
2513.79462	24852.1
2516.52435	24798.3
2519.25237	24768.3
2521.97867	24734.9
2524.70327	24728
2527.42616	24689.6
2530.14734	24660.2
2532.86681	24609.1
2535.58458	24624.4
2538.30065	24571.9
2541.01501	24595.4
2543.72768	24497
2546.43864	24505.9
2549.14791	24446.3
2551.85548	24450.1
2554.56136	24355.3
2557.26554	24362.7
2559.96803	24329.8
2562.66883	24285.4
2565.36794	24223.5
2568.06536	24187
2570.7611	24130.7
2573.45514	24161.3
2576.14751	24152.3
2578.83819	24068.3
2581.52719	24020
2584.21451	23974.1
2586.90015	23927.4
2589.58411	23849.8
2592.2664	23845.1
2594.94701	23784.2
2597.62594	23777.7
2600.30321	23711
2602.9788	23693
2605.65273	23625.6
2608.32498	23615.8
2610.99557	23595.3
2613.66449	23593.1
2616.33175	23561.4
2618.99734	23559.1
2621.66128	23540
2624.32355	23496.1
2626.98416	23474.4
2629.64311	23432.6
2632.30041	23425.1
2634.95605	23375.6
2637.61004	23346.7
2640.26238	23273.4
2642.91306	23210.6
2645.56209	23190.5
2648.20948	23170
2650.85521	23162.6
2653.4993	23173.5
2656.14175	23152.6
2658.78255	23184.1
2661.42171	23179.3
2664.05923	23224.2
2666.6951	23201.7
2669.32934	23211.9
2671.96194	23186.6
2674.59291	23187.3
2677.22224	23172.6
2679.84993	23201.6
2682.476	23209.1
2685.10043	23233.7
2687.72324	23150.4
2690.34441	23176.8
2692.96396	23188.5
2695.58188	23183.1
2698.19818	23161.8
2700.81285	23155.3
2703.4259	23156.2
2706.03733	23144.8
2708.64714	23159.6
2711.25533	23188.4
2713.86191	23189.8
2716.46687	23166.8
2719.07021	23145.4
2721.67194	23184.2
2724.27206	23158.6
2726.87057	23190.6
2729.46747	23168.3
2732.06276	23182.8
2734.65644	23188.6
2737.24852	23171.1
2739.83899	23126.5
2742.42786	23110.5
2745.01513	23045.2
2747.60079	23056.8
2750.18486	22967.9
2752.76733	22975.3
2755.3482	22938.8
2757.92747	22932.1
2760.50515	22862.7
2763.08123	22872.4
2765.65573	22876.9
2768.22863	22844.8
2770.79994	22762.4
2773.36967	22800.8
2775.9378	22747.5
2778.50435	22727.7
2781.06932	22676.5
2783.6327	22673.3
2786.1945	22555.4
2788.75471	22583
2791.31335	22521.2
2793.87041	22489.9
2796.42589	22477.8
2798.97979	22440.8
2801.53212	22381
2804.08288	22369.7
2806.63206	22276.7
2809.17967	22217.2
2811.72571	22140.2
2814.27018	22106.1
2816.81308	22111.5
2819.35442	22091.3
2821.89419	22010.1
2824.43239	21977.7
2826.96904	21934.6
2829.50412	21982.3
2832.03763	21913.8
2834.56959	21886.6
2837.1	21865.3
2839.62884	21855.5
2842.15613	21840.3
2844.68186	21860.4
2847.20604	21821.8
2849.72867	21803.1
2852.24974	21760.4
2854.76927	21776.4
2857.28724	21742.7
2859.80367	21732.1
2862.31855	21661.8
2864.83189	21638.2
2867.34368	21598.6
2869.85393	21601
2872.36264	21555.1
2874.8698	21532.7
2877.37543	21508.3
2879.87952	21484.4
2882.38207	21469.2
2884.88308	21445.5
2887.38256	21439.3
2889.88051	21387.2
2892.37692	21385.7
2894.8718	21410
2897.36515	21449
2899.85698	21459
2902.34727	21461.4
2904.83604	21451.1
2907.32328	21460.8
2909.809	21525
2912.29319	21509
2914.77587	21494.9
2917.25702	21495.4
2919.73665	21469.6
2922.21476	21482.1
2924.69136	21360.2
2927.16644	21437
2929.64	21382.8
2932.11205	21354.4
2934.58258	21274.2
2937.05161	21328
2939.51912	21325.2
2941.98513	21332.6
2944.44962	21237.3
2946.91261	21168.2
2949.37409	21222.8
2951.83407	21202.4
2954.29254	21256.6
2956.74951	21207.2
2959.20498	21192.1
2961.65895	21152.9
2964.11142	21183.6
2966.56239	21215.5
2969.01186	21230.8
2971.45984	21170.3
2973.90632	21156.7
2976.35131	21123.9
2978.7948	21113.7
2981.23681	21041.6
2983.67732	21008.1
2986.11635	20966.6
2988.55388	20955.5
2990.98993	20922.6
2993.4245	20845.1
2995.85758	20799.4
2998.28917	20739.8
3000.71928	20670.3
3003.14791	20635.6
3005.57506	20653.9
3008.00073	20609.3
3010.42493	20580.9
3012.84764	20533.1
3015.26888	20521.1
3017.68865	20436.2
3020.10694	20443.4
3022.52376	20396.3
3024.9391	20370.2
3027.35298	20356.7
3029.76539	20303.2
3032.17632	20307.8
3034.5858	20242
3036.9938	20244.2
3039.40034	20214.4
3041.80542	20161.5
3044.20903	20151
3046.61118	20106.4
3049.01187	20067.4
3051.4111	20092
3053.80888	20064.5
3056.20519	20027.6
3058.60005	19975.7
3060.99345	19936.1
3063.3854	19908.2
3065.7759	19840.4
3068.16494	19814.1
3070.55254	19735.7
3072.93868	19680
3075.32338	19639.6
3077.70662	19610.6
3080.08842	19583.2
3082.46878	19579.9
3084.84769	19539.6
3087.22515	19496
3089.60118	19501.3
3091.97576	19485.9
3094.3489	19481.7
3096.72061	19464.1
3099.09087	19511.2
3101.4597	19473.2
3103.82709	19508.8
3106.19305	19429.5
3108.55757	19434.1
3110.92066	19386.7
3113.28232	19401.7
3115.64255	19304.7
3118.00134	19319.6
3120.35871	19277.5
3122.71466	19267.6
3125.06917	19195.9
3127.42226	19183.2
3129.77393	19193.2
3132.12417	19114.3
3134.47299	19073.9
3136.82039	19072.3
3139.16636	19078.4
3141.51092	19074
3143.85406	19040.5
3146.19579	19080.2
3148.53609	19044.1
3150.87499	19061.5
3153.21246	19039.1
3155.54853	19059.7
3157.88318	19017.9
3160.21642	19087.5
3162.54826	19063.4
3164.87868	19064.4
3167.2077	19020.6
3169.5353	18999.6
3171.86151	19025.7
3174.18631	18992.4
3176.5097	18968.6
3178.83169	18930.3
3181.15228	18940.9
3183.47147	18829.2
3185.78926	18887.6
3188.10565	18776.3
3190.42065	18805.5
3192.73424	18766.5
3195.04645	18736.7
3197.35725	18752.3
3199.66667	18706.6
3201.97469	18722.1
3204.28132	18674.7
3206.58656	18729.6
3208.8904	18714.8
3211.19287	18694
3213.49394	18661.8
3215.79363	18673
3218.09193	18724
3220.38884	18722.3
3222.68438	18765
3224.97853	18724.5
3227.2713	18705.5
3229.56269	18670.1
3231.8527	18649.6
3234.14133	18626.6
3236.42858	18601.4
3238.71446	18544.4
3240.99896	18482.2
3243.28209	18459.1
3245.56384	18457.6
3247.84423	18432.7
3250.12324	18398.4
3252.40088	18365.2
3254.67715	18349.8
3256.95205	18341.4
3259.22558	18336
3261.49775	18360.5
3263.76855	18301.3
3266.03799	18292.4
3268.30606	18293.4
3270.57277	18282.1
3272.83812	18193.5
3275.10211	18165.2
3277.36474	18097.8
3279.62601	18082
3281.88593	18085.3
3284.14448	18110.9
3286.40168	18076.5
3288.65753	18050.7
3290.91202	18066.9
3293.16516	18007.9
3295.41695	17971
3297.66738	17892.2
3299.91647	17787.4
3302.16421	17700.4
3304.4106	17623
3306.65564	17486.2
3308.89933	17408.1
3311.14169	17278.5
3313.38269	17154.3
3315.62236	17097.6
3317.86068	16970.4
3320.09766	16817.1
3322.3333	16705.6
3324.5676	16617
3326.80056	16424.8
3329.03219	16283.9
3331.26248	4.9
3333.49143	1
3335.71905	-0.6
