Data from AgNPs_UA_1uM_CRN_0uM_R6G_10uM_Q_RamanShift__2__12-13-05-866.txt Node

Date: Wed Jul 13 12:13:05 BST 2022
User: TCL
Spectrometer: QEP01345
Trigger mode: 4
Integration Time (sec): 7.000000E0
Scans to average: 10
Electric dark correction enabled: true
Nonlinearity correction enabled: false
Boxcar width: 0
XAxis mode: Raman Shifts
Number of Pixels in Spectrum: 1044
>>>>>Begin Spectral Data<<<<<
46.04893	-1.5875
50.45542	-0.8875
54.85868	-1.7875
59.25871	0.3125
63.6555	99.1125
68.04907	105.9125
72.43941	108.9125
76.82654	111.2125
81.21044	119.9125
85.59113	121.1125
89.96862	125.4125
94.34289	130.5125
98.71396	131.8125
103.08183	132.9125
107.4465	144.5125
111.80798	142.1125
116.16626	151.0125
120.52136	153.8125
124.87327	159.0125
129.222	167.1125
133.56755	175.5125
137.90993	189.9125
142.24913	211.1125
146.58517	232.6125
150.91804	264.9125
155.24774	313.6125
159.57429	381.8125
163.89768	490.0125
168.21792	641.6125
172.53501	873.7125
176.84895	1220.3125
181.15975	1705.1125
185.46741	2397.4125
189.77193	3311.3125
194.07331	4422.8125
198.37157	5721.0125
202.6667	7065.3125
206.9587	8403.6125
211.24758	9736.5125
215.53334	11100.5125
219.81599	12547.1125
224.09553	14123.1125
228.37195	15854.8125
232.64527	17738.6125
236.91549	19674.6125
241.18261	21522.3125
245.44663	23147.8125
249.70755	24627.0125
253.96539	25906.2125
258.22014	27016.7125
262.4718	27900.4125
266.72039	28515.7125
270.96589	28770.1125
275.20832	28723.8125
279.44768	28400.3125
283.68397	28069.1125
287.91719	27829.6125
292.14735	27675.4125
296.37445	27788.8125
300.59849	28211.7125
304.81948	28684.6125
309.03742	29132.7125
313.25231	29307.7125
317.46415	28924.6125
321.67296	28150.4125
325.87872	27490.8125
330.08145	27195.8125
334.28114	27283.0125
338.47781	27632.1125
342.67145	28102.6125
346.86207	28724.2125
351.04966	29546.2125
355.23424	30384.6125
359.4158	30952.4125
363.59435	31380.7125
367.76989	31538.4125
371.94243	31551.5125
376.11196	31546.5125
380.27849	31542.9125
384.44203	31589.9125
388.60257	31684.0125
392.76012	31913.3125
396.91468	32345.4125
401.06626	32885.9125
405.21485	33140.5125
409.36047	32847.4125
413.50311	32194.7125
417.64277	31709.5125
421.77947	31520.2125
425.9132	31467.2125
430.04396	31580.4125
434.17176	31746.9125
438.2966	31957.9125
442.41849	32349.0125
446.53742	32810.8125
450.6534	33333.1125
454.76644	33736.8125
458.87653	33916.2125
462.98368	33934.6125
467.08789	33855.7125
471.18916	33535.1125
475.2875	33119.1125
479.38291	32817.0125
483.4754	32550.8125
487.56496	32453.2125
491.6516	32431.7125
495.73531	32523.7125
499.81612	32668.3125
503.89401	32904.7125
507.96899	33074.5125
512.04106	33160.8125
516.11023	33245.2125
520.1765	33282.0125
524.23987	33301.6125
528.30034	33208.1125
532.35792	33057.8125
536.41261	32853.7125
540.46441	32579.2125
544.51333	32524.1125
548.55936	32684.4125
552.60252	33076.0125
556.64279	33516.9125
560.6802	33760.9125
564.71473	34041.7125
568.7464	34434.2125
572.7752	34671.2125
576.80114	34593.6125
580.82422	34620.8125
584.84444	34883.9125
588.86181	35155.7125
592.87633	35376.8125
596.888	35574.3125
600.89682	36258.0125
604.9028	38317.5125
608.90594	43041.6125
612.90624	47707.4125
616.90371	44744.1125
620.89834	37617.4125
624.89015	34716.7125
628.87913	34333.5125
632.86528	34672.6125
636.84862	35025.2125
640.82913	34643.3125
644.80683	33975.6125
648.78172	33569.2125
652.75379	33777.1125
656.72306	34380.2125
660.68952	35000.9125
664.65319	34792.2125
668.61405	34363.7125
672.57211	34409.1125
676.52738	34543.8125
680.47986	34332.2125
684.42955	33993.3125
688.37646	33896.6125
692.32058	34161.5125
696.26192	34624.6125
700.20048	35042.1125
704.13626	35169.4125
708.06928	35066.6125
711.99952	34822.9125
715.927	34772.3125
719.85171	34837.1125
723.77365	34846.1125
727.69284	34611.9125
731.60928	34362.2125
735.52295	34309.4125
739.43388	34381.7125
743.34206	34454.2125
747.24749	34571.0125
751.15017	34681.8125
755.05012	35000.9125
758.94733	35802.8125
762.8418	37633.2125
766.73354	40541.9125
770.62254	42899.5125
774.50882	43271.0125
778.39237	42029.5125
782.27321	39934.6125
786.15132	37733.9125
790.02671	36298.6125
793.89938	35509.0125
797.76935	35123.7125
801.6366	34917.6125
805.50115	34811.2125
809.36299	34682.7125
813.22213	34639.5125
817.07857	34573.4125
820.93231	34584.2125
824.78336	34598.9125
828.63172	34684.2125
832.47738	34618.4125
836.32036	34579.3125
840.16066	34577.5125
843.99827	34565.0125
847.8332	34540.4125
851.66546	34694.6125
855.49504	34695.0125
859.32195	34742.7125
863.1462	34752.7125
866.96777	34763.0125
870.78668	34791.2125
874.60293	34858.7125
878.41652	34983.5125
882.22745	35215.6125
886.03573	35407.1125
889.84136	35400.5125
893.64433	35311.6125
897.44466	35215.7125
901.24235	35038.8125
905.0374	35012.9125
908.8298	34908.7125
912.61957	34847.6125
916.40671	34898.8125
920.19121	35044.6125
923.97308	35255.1125
927.75233	35492.4125
931.52895	35559.9125
935.30295	35335.6125
939.07433	34928.2125
942.84309	34584.0125
946.60924	34505.5125
950.37278	34453.1125
954.13371	34421.7125
957.89203	34382.7125
961.64774	34278.2125
965.40086	34295.0125
969.15137	34241.0125
972.89929	34298.5125
976.64461	34233.1125
980.38733	34264.1125
984.12747	34349.8125
987.86502	34405.3125
991.59999	34542.7125
995.33237	34711.3125
999.06217	34961.6125
1002.78939	35233.0125
1006.51404	35743.0125
1010.23611	36202.6125
1013.95561	36333.1125
1017.67255	36410.6125
1021.38692	36256.9125
1025.09872	35955.5125
1028.80796	35711.4125
1032.51465	35605.8125
1036.21877	35639.9125
1039.92035	35674.6125
1043.61937	35792.5125
1047.31584	35846.7125
1051.00976	35918.0125
1054.70114	36018.3125
1058.38998	36181.4125
1062.07627	36366.9125
1065.76003	36556.9125
1069.44126	36834.6125
1073.11995	37470.5125
1076.79611	38049.0125
1080.46974	38541.2125
1084.14085	38865.9125
1087.80943	39111.3125
1091.47549	39178.4125
1095.13903	38972.5125
1098.80005	38664.2125
1102.45857	38436.0125
1106.11456	38153.9125
1109.76805	37781.4125
1113.41903	37697.9125
1117.06751	37915.0125
1120.71348	38397.3125
1124.35696	38970.6125
1127.99793	39439.8125
1131.63641	39151.8125
1135.2724	38498.5125
1138.90589	37977.4125
1142.5369	37629.1125
1146.16542	37368.7125
1149.79145	37242.4125
1153.415	37126.6125
1157.03607	37129.8125
1160.65467	37370.8125
1164.27079	37994.0125
1167.88443	38836.3125
1171.49561	40167.5125
1175.10432	42173.3125
1178.71056	44719.0125
1182.31434	46728.5125
1185.91565	47383.1125
1189.51451	47091.5125
1193.11091	46386.5125
1196.70485	45408.3125
1200.29634	44396.3125
1203.88538	43379.0125
1207.47197	42235.6125
1211.05612	41199.7125
1214.63782	40317.9125
1218.21708	39699.7125
1221.79391	39313.0125
1225.36829	39133.9125
1228.94024	39033.4125
1232.50976	39014.6125
1236.07685	39009.3125
1239.6415	39020.9125
1243.20374	39076.5125
1246.76355	39211.5125
1250.32093	39462.0125
1253.8759	39832.9125
1257.42845	40480.3125
1260.97859	41402.9125
1264.52631	42250.0125
1268.07163	42922.0125
1271.61453	43527.7125
1275.15503	43798.6125
1278.69312	43970.2125
1282.22882	44171.8125
1285.76211	44565.8125
1289.29301	45175.5125
1292.82151	45861.2125
1296.34761	46638.7125
1299.87133	47729.7125
1303.39266	49484.1125
1306.9116	52149.1125
1310.42815	55063.0125
1313.94233	56339.2125
1317.45412	55115.4125
1320.96354	52936.8125
1324.47058	51081.0125
1327.97525	49609.8125
1331.47754	48874.6125
1334.97747	48593.6125
1338.47502	48836.3125
1341.97022	49671.3125
1345.46305	51128.2125
1348.95352	53114.1125
1352.44163	55041.6125
1355.92738	57097.2125
1359.41078	59899.0125
1362.89183	62503.9125
1366.37053	60776.3125
1369.84688	55068.7125
1373.32088	49470.3125
1376.79254	46017.1125
1380.26186	44327.4125
1383.72883	43399.8125
1387.19347	42591.0125
1390.65578	41719.0125
1394.11575	40862.2125
1397.57339	40312.9125
1401.0287	39948.1125
1404.48168	39858.8125
1407.93234	39935.0125
1411.38068	40172.0125
1414.82669	40253.3125
1418.27039	40166.3125
1421.71177	39959.6125
1425.15083	39693.2125
1428.58758	39568.7125
1432.02203	39785.7125
1435.45416	40001.8125
1438.88399	40242.5125
1442.31151	40314.4125
1445.73673	40362.3125
1449.15965	40314.7125
1452.58027	40221.0125
1455.9986	40068.4125
1459.41463	40143.7125
1462.82837	40569.6125
1466.23982	41162.7125
1469.64898	41614.0125
1473.05586	42122.3125
1476.46045	42434.4125
1479.86276	42753.1125
1483.26279	43134.1125
1486.66054	43732.5125
1490.05602	44560.3125
1493.44922	45743.7125
1496.84016	47469.2125
1500.22882	50169.9125
1503.61521	53746.3125
1506.99934	57345.2125
1510.38121	59834.8125
1513.76081	59665.3125
1517.13816	56361.7125
1520.51324	51854.3125
1523.88607	47967.7125
1527.25665	45599.0125
1530.62498	44378.4125
1533.99105	43794.6125
1537.35488	43260.5125
1540.71647	42877.5125
1544.07581	42462.1125
1547.4329	42181.3125
1550.78776	42004.7125
1554.14038	41827.1125
1557.49077	41926.6125
1560.83892	42235.6125
1564.18484	42834.7125
1567.52853	43576.8125
1570.86999	44125.4125
1574.20922	44525.3125
1577.54624	44308.2125
1580.88103	43163.7125
1584.2136	41740.5125
1587.54395	41121.5125
1590.87208	41352.2125
1594.19801	42454.3125
1597.52172	43854.8125
1600.84321	44445.0125
1604.16251	43934.3125
1607.47959	43031.2125
1610.79447	41754.8125
1614.10715	40114.6125
1617.41763	38603.7125
1620.7259	37514.3125
1624.03199	36838.4125
1627.33587	36690.1125
1630.63757	37032.7125
1633.93707	37839.4125
1637.23439	39519.1125
1640.52951	42098.7125
1643.82246	45629.3125
1647.11321	49108.3125
1650.40179	50937.3125
1653.68819	49393.1125
1656.97241	45155.0125
1660.25446	40880.0125
1663.53433	37795.4125
1666.81203	35919.4125
1670.08756	34780.2125
1673.36092	34122.6125
1676.63211	33644.7125
1679.90115	33362.6125
1683.16801	33108.3125
1686.43272	32873.2125
1689.69527	32748.0125
1692.95567	32529.0125
1696.2139	32516.5125
1699.46999	32458.0125
1702.72392	32414.1125
1705.97571	32403.9125
1709.22535	32393.4125
1712.47284	32446.8125
1715.71819	32446.3125
1718.96139	32439.7125
1722.20246	32339.7125
1725.44139	32308.5125
1728.67818	32174.5125
1731.91284	32084.5125
1735.14537	31966.9125
1738.37576	31869.7125
1741.60403	31798.0125
1744.83017	31724.3125
1748.05418	31664.4125
1751.27607	31582.8125
1754.49584	31529.1125
1757.71349	31570.7125
1760.92903	31528.2125
1764.14244	31429.9125
1767.35375	31428.9125
1770.56294	31440.8125
1773.77002	31384.7125
1776.97499	31372.2125
1780.17785	31345.3125
1783.37861	31257.4125
1786.57727	31178.4125
1789.77382	31126.4125
1792.96828	31138.0125
1796.16064	31084.5125
1799.3509	31075.1125
1802.53907	31034.4125
1805.72514	31011.8125
1808.90913	30911.5125
1812.09102	30859.9125
1815.27083	30738.7125
1818.44856	30730.7125
1821.6242	30661.8125
1824.79776	30627.8125
1827.96924	30589.8125
1831.13864	30546.4125
1834.30597	30527.5125
1837.47122	30448.1125
1840.6344	30425.3125
1843.7955	30420.8125
1846.95454	30409.1125
1850.11151	30431.6125
1853.26642	30366.3125
1856.41926	30316.1125
1859.57004	30314.7125
1862.71876	30287.7125
1865.86542	30347.0125
1869.01003	30309.6125
1872.15258	30235.2125
1875.29308	30242.8125
1878.43152	30166.8125
1881.56792	30128.2125
1884.70227	30109.0125
1887.83457	30059.5125
1890.96482	30018.4125
1894.09304	29972.6125
1897.21921	29946.6125
1900.34335	29921.8125
1903.46544	29851.8125
1906.58551	29889.9125
1909.70353	29800.9125
1912.81953	29816.2125
1915.93349	29809.7125
1919.04543	29710.7125
1922.15534	29621.8125
1925.26322	29619.2125
1928.36908	29532.3125
1931.47292	29485.4125
1934.57473	29426.7125
1937.67453	29354.0125
1940.77232	29306.9125
1943.86808	29218.6125
1946.96184	29220.1125
1950.05358	29113.8125
1953.14331	29004.4125
1956.23103	28901.0125
1959.31675	28842.0125
1962.40046	28790.0125
1965.48217	28711.1125
1968.56188	28657.0125
1971.63959	28588.5125
1974.7153	28481.7125
1977.78901	28427.4125
1980.86073	28349.4125
1983.93046	28278.2125
1986.99819	28172.6125
1990.06394	28053.4125
1993.1277	27957.0125
1996.18947	27894.3125
1999.24925	27880.2125
2002.30706	27832.3125
2005.36288	27701.1125
2008.41672	27597.1125
2011.46859	27507.1125
2014.51848	27460.0125
2017.56639	27372.9125
2020.61233	27297.9125
2023.6563	27198.0125
2026.6983	27145.2125
2029.73833	27124.2125
2032.7764	27019.1125
2035.8125	27000.2125
2038.84664	26916.9125
2041.87881	26837.1125
2044.90903	26810.7125
2047.93729	26736.5125
2050.96359	26784.8125
2053.98794	26711.1125
2057.01034	26706.8125
2060.03078	26645.4125
2063.04927	26641.2125
2066.06582	26660.9125
2069.08042	26616.4125
2072.09307	26578.7125
2075.10378	26530.9125
2078.11255	26522.3125
2081.11938	26528.8125
2084.12426	26487.7125
2087.12722	26525.4125
2090.12824	26464.5125
2093.12732	26482.4125
2096.12447	26520.4125
2099.11969	26524.2125
2102.11299	26492.3125
2105.10435	26526.2125
2108.09379	26524.0125
2111.08131	26550.9125
2114.0669	26557.3125
2117.05057	26626.0125
2120.03233	26660.6125
2123.01216	26656.9125
2125.99008	26671.6125
2128.96609	26700.9125
2131.94018	26746.5125
2134.91236	26790.6125
2137.88263	26814.0125
2140.851	26797.5125
2143.81746	26827.2125
2146.78201	26781.8125
2149.74466	26821.9125
2152.7054	26834.3125
2155.66425	26814.1125
2158.6212	26795.3125
2161.57625	26774.3125
2164.52941	26767.7125
2167.48067	26792.0125
2170.43004	26795.8125
2173.37752	26750.2125
2176.32311	26782.5125
2179.26681	26796.3125
2182.20863	26761.7125
2185.14856	26793.7125
2188.08661	26771.6125
2191.02278	26786.4125
2193.95707	26771.2125
2196.88948	26735.2125
2199.82001	26693.3125
2202.74867	26650.8125
2205.67545	26637.8125
2208.60037	26620.1125
2211.52341	26566.5125
2214.44458	26530.1125
2217.36388	26448.5125
2220.28132	26429.3125
2223.1969	26365.6125
2226.11061	26336.3125
2229.02246	26274.8125
2231.93245	26199.6125
2234.84058	26187.2125
2237.74686	26131.1125
2240.65128	26167.4125
2243.55385	26143.1125
2246.45456	26125.9125
2249.35343	26079.2125
2252.25044	26065.1125
2255.14561	26036.5125
2258.03893	26004.9125
2260.93041	25918.2125
2263.82004	25846.9125
2266.70783	25814.7125
2269.59378	25746.8125
2272.4779	25713.9125
2275.36017	25635.8125
2278.24061	25578.5125
2281.11922	25546.7125
2283.996	25539.7125
2286.87094	25505.2125
2289.74405	25424.9125
2292.61534	25365.7125
2295.4848	25349.6125
2298.35243	25333.8125
2301.21824	25343.1125
2304.08223	25290.7125
2306.94439	25297.5125
2309.80474	25288.9125
2312.66327	25323.4125
2315.51999	25221.6125
2318.37489	25203.1125
2321.22797	25160.6125
2324.07925	25143.7125
2326.92871	25110.3125
2329.77637	25085.6125
2332.62222	25044.1125
2335.46626	24960.1125
2338.3085	24950.1125
2341.14893	24850.5125
2343.98756	24827.8125
2346.8244	24780.8125
2349.65943	24823.5125
2352.49267	24839.0125
2355.32411	24875.1125
2358.15376	24878.6125
2360.98161	24855.0125
2363.80768	24808.7125
2366.63195	24851.1125
2369.45444	24763.3125
2372.27514	24796.7125
2375.09405	24777.3125
2377.91118	24705.3125
2380.72652	24705.1125
2383.54009	24582.4125
2386.35187	24543.0125
2389.16188	24497.2125
2391.97011	24434.4125
2394.77657	24396.7125
2397.58125	24318.6125
2400.38416	24287.2125
2403.18529	24236.5125
2405.98466	24229.6125
2408.78226	24204.5125
2411.57809	24156.4125
2414.37216	24179.1125
2417.16446	24085.8125
2419.955	24152.0125
2422.74378	24100.0125
2425.5308	24084.7125
2428.31606	24075.8125
2431.09956	24096.3125
2433.88131	24019.4125
2436.6613	24070.9125
2439.43954	23991.3125
2442.21603	23997.1125
2444.99077	23995.9125
2447.76377	23976.0125
2450.53501	23925.0125
2453.30451	23887.6125
2456.07226	23883.1125
2458.83827	23861.6125
2461.60254	23791.5125
2464.36507	23795.6125
2467.12586	23751.6125
2469.88492	23782.9125
2472.64224	23763.9125
2475.39782	23771.8125
2478.15167	23696.5125
2480.90379	23682.0125
2483.65417	23692.1125
2486.40283	23708.5125
2489.14976	23664.8125
2491.89497	23692.0125
2494.63845	23685.5125
2497.3802	23659.7125
2500.12024	23650.9125
2502.85855	23617.1125
2505.59514	23590.7125
2508.33002	23555.8125
2511.06318	23537.6125
2513.79462	23479.5125
2516.52435	23428.2125
2519.25237	23379.6125
2521.97867	23359.0125
2524.70327	23370.8125
2527.42616	23287.5125
2530.14734	23328.7125
2532.86681	23247.2125
2535.58458	23238.3125
2538.30065	23233.0125
2541.01501	23224.7125
2543.72768	23160.4125
2546.43864	23131.8125
2549.14791	23118.8125
2551.85548	23069.8125
2554.56136	23010.4125
2557.26554	22986.5125
2559.96803	22969.3125
2562.66883	22894.6125
2565.36794	22870.6125
2568.06536	22838.1125
2570.7611	22764.1125
2573.45514	22784.7125
2576.14751	22800.1125
2578.83819	22699.4125
2581.52719	22680.4125
2584.21451	22604.8125
2586.90015	22582.9125
2589.58411	22524.5125
2592.2664	22471.1125
2594.94701	22445.4125
2597.62594	22446.9125
2600.30321	22380.8125
2602.9788	22310.3125
2605.65273	22275.2125
2608.32498	22296.9125
2610.99557	22232.7125
2613.66449	22227.0125
2616.33175	22231.6125
2618.99734	22230.2125
2621.66128	22201.4125
2624.32355	22120.0125
2626.98416	22119.2125
2629.64311	22092.5125
2632.30041	22120.3125
2634.95605	22065.0125
2637.61004	21978.6125
2640.26238	21930.6125
2642.91306	21866.3125
2645.56209	21840.7125
2648.20948	21864.5125
2650.85521	21828.3125
2653.4993	21825.0125
2656.14175	21827.4125
2658.78255	21876.1125
2661.42171	21862.6125
2664.05923	21907.6125
2666.6951	21877.8125
2669.32934	21910.1125
2671.96194	21883.7125
2674.59291	21843.5125
2677.22224	21885.9125
2679.84993	21877.4125
2682.476	21891.2125
2685.10043	21893.9125
2687.72324	21832.4125
2690.34441	21801.8125
2692.96396	21832.8125
2695.58188	21860.6125
2698.19818	21828.6125
2700.81285	21864.8125
2703.4259	21814.7125
2706.03733	21850.0125
2708.64714	21862.4125
2711.25533	21854.8125
2713.86191	21821.3125
2716.46687	21874.5125
2719.07021	21850.1125
2721.67194	21850.6125
2724.27206	21820.3125
2726.87057	21865.0125
2729.46747	21832.7125
2732.06276	21872.6125
2734.65644	21840.6125
2737.24852	21856.4125
2739.83899	21774.7125
2742.42786	21780.2125
2745.01513	21739.8125
2747.60079	21717.3125
2750.18486	21673.7125
2752.76733	21617.7125
2755.3482	21605.5125
2757.92747	21599.4125
2760.50515	21552.6125
2763.08123	21536.3125
2765.65573	21488.4125
2768.22863	21510.9125
2770.79994	21472.1125
2773.36967	21437.5125
2775.9378	21413.3125
2778.50435	21397.3125
2781.06932	21372.6125
2783.6327	21337.0125
2786.1945	21284.1125
2788.75471	21242.3125
2791.31335	21188.9125
2793.87041	21219.6125
2796.42589	21153.6125
2798.97979	21151.1125
2801.53212	21048.6125
2804.08288	21031.8125
2806.63206	20987.5125
2809.17967	20946.4125
2811.72571	20832.7125
2814.27018	20843.5125
2816.81308	20813.5125
2819.35442	20791.6125
2821.89419	20720.5125
2824.43239	20709.5125
2826.96904	20725.0125
2829.50412	20688.0125
2832.03763	20631.5125
2834.56959	20656.5125
2837.1	20582.7125
2839.62884	20573.0125
2842.15613	20565.2125
2844.68186	20601.4125
2847.20604	20564.1125
2849.72867	20531.7125
2852.24974	20486.7125
2854.76927	20491.5125
2857.28724	20461.9125
2859.80367	20440.4125
2862.31855	20393.6125
2864.83189	20405.3125
2867.34368	20332.8125
2869.85393	20381.0125
2872.36264	20299.3125
2874.8698	20280.2125
2877.37543	20228.8125
2879.87952	20255.2125
2882.38207	20220.6125
2884.88308	20194.0125
2887.38256	20164.0125
2889.88051	20122.1125
2892.37692	20162.7125
2894.8718	20154.8125
2897.36515	20188.4125
2899.85698	20191.1125
2902.34727	20201.6125
2904.83604	20190.7125
2907.32328	20196.8125
2909.809	20228.1125
2912.29319	20282.9125
2914.77587	20246.9125
2917.25702	20254.4125
2919.73665	20247.8125
2922.21476	20248.4125
2924.69136	20174.2125
2927.16644	20161.7125
2929.64	20106.5125
2932.11205	20107.8125
2934.58258	20022.9125
2937.05161	20067.9125
2939.51912	20081.6125
2941.98513	20060.4125
2944.44962	20005.2125
2946.91261	19941.6125
2949.37409	20012.0125
2951.83407	19986.8125
2954.29254	19990.2125
2956.74951	19967.2125
2959.20498	19963.1125
2961.65895	19941.3125
2964.11142	19950.0125
2966.56239	19950.3125
2969.01186	19995.8125
2971.45984	19937.6125
2973.90632	19947.9125
2976.35131	19864.4125
2978.7948	19844.9125
2981.23681	19847.2125
2983.67732	19790.0125
2986.11635	19755.1125
2988.55388	19705.8125
2990.98993	19654.0125
2993.4245	19623.0125
2995.85758	19568.9125
2998.28917	19536.3125
3000.71928	19510.3125
3003.14791	19467.3125
3005.57506	19448.9125
3008.00073	19374.2125
3010.42493	19387.9125
3012.84764	19310.9125
3015.26888	19340.1125
3017.68865	19223.0125
3020.10694	19219.8125
3022.52376	19246.0125
3024.9391	19189.4125
