Data from AgNPs_UA_2uM_CRN_0uM_R6G_10uM_Q_RamanShift__30__13-36-01-933.txt Node

Date: Wed Jul 13 13:36:01 BST 2022
User: TCL
Spectrometer: QEP01345
Trigger mode: 4
Integration Time (sec): 7.000000E0
Scans to average: 10
Electric dark correction enabled: true
Nonlinearity correction enabled: false
Boxcar width: 0
XAxis mode: Raman Shifts
Number of Pixels in Spectrum: 1044
>>>>>Begin Spectral Data<<<<<
46.04893	-0.2875
50.45542	-0.9875
54.85868	-0.7875
59.25871	-1.1875
63.6555	58.8125
68.04907	64.9125
72.43941	66.5125
76.82654	75.7125
81.21044	80.4125
85.59113	81.4125
89.96862	92.3125
94.34289	90.6125
98.71396	91.4125
103.08183	91.3125
107.4465	95.9125
111.80798	93.7125
116.16626	98.1125
120.52136	101.2125
124.87327	100.4125
129.222	102.4125
133.56755	110.1125
137.90993	114.3125
142.24913	118.7125
146.58517	129.3125
150.91804	146.0125
155.24774	170.5125
159.57429	201.6125
163.89768	249.1125
168.21792	312.0125
172.53501	424.1125
176.84895	571.5125
181.15975	795.5125
185.46741	1087.0125
189.77193	1482.4125
194.07331	1974.4125
198.37157	2524.1125
202.6667	3106.5125
206.9587	3670.1125
211.24758	4233.5125
215.53334	4830.0125
219.81599	5502.5125
224.09553	6238.7125
228.37195	7054.3125
232.64527	7915.0125
236.91549	8827.8125
241.18261	9657.6125
245.44663	10381.7125
249.70755	10994.0125
253.96539	11529.0125
258.22014	11997.7125
262.4718	12390.6125
266.72039	12650.4125
270.96589	12820.7125
275.20832	12816.2125
279.44768	12806.7125
283.68397	12770.4125
287.91719	12718.9125
292.14735	12765.9125
296.37445	12882.6125
300.59849	13137.8125
304.81948	13388.8125
309.03742	13527.5125
313.25231	13373.9125
317.46415	12900.5125
321.67296	12229.1125
325.87872	11783.2125
330.08145	11591.8125
334.28114	11617.7125
338.47781	11768.7125
342.67145	12049.5125
346.86207	12452.0125
351.04966	12963.0125
355.23424	13508.0125
359.4158	13923.6125
363.59435	14108.9125
367.76989	14187.5125
371.94243	14135.2125
376.11196	14096.8125
380.27849	14065.1125
384.44203	14044.7125
388.60257	14005.4125
392.76012	14062.9125
396.91468	14306.6125
401.06626	14662.7125
405.21485	14902.6125
409.36047	14726.6125
413.50311	14336.1125
417.64277	13983.0125
421.77947	13865.6125
425.9132	13897.4125
430.04396	13990.6125
434.17176	14150.2125
438.2966	14482.5125
442.41849	14902.7125
446.53742	15480.0125
450.6534	16053.8125
454.76644	16378.3125
458.87653	16305.6125
462.98368	16004.4125
467.08789	15638.2125
471.18916	15261.9125
475.2875	14921.2125
479.38291	14646.4125
483.4754	14458.7125
487.56496	14266.5125
491.6516	14044.7125
495.73531	13965.6125
499.81612	13945.8125
503.89401	14035.9125
507.96899	14111.9125
512.04106	14158.5125
516.11023	14167.8125
520.1765	14136.5125
524.23987	14105.2125
528.30034	13970.5125
532.35792	13814.7125
536.41261	13578.8125
540.46441	13350.0125
544.51333	13296.9125
548.55936	13488.0125
552.60252	13832.7125
556.64279	14190.1125
560.6802	14410.4125
564.71473	14694.6125
568.7464	15290.5125
572.7752	15672.2125
576.80114	15640.9125
580.82422	15628.7125
584.84444	15781.1125
588.86181	16053.7125
592.87633	16456.3125
596.888	16753.3125
600.89682	17017.3125
604.9028	18238.8125
608.90594	21333.2125
612.90624	24098.6125
616.90371	21535.8125
620.89834	16629.0125
624.89015	14891.8125
628.87913	14695.6125
632.86528	14684.9125
636.84862	14591.3125
640.82913	14184.4125
644.80683	13662.0125
648.78172	13367.3125
652.75379	13463.7125
656.72306	13938.1125
660.68952	14353.4125
664.65319	14169.2125
668.61405	13741.6125
672.57211	13587.8125
676.52738	13570.6125
680.47986	13491.7125
684.42955	13441.2125
688.37646	13417.8125
692.32058	13512.6125
696.26192	13639.6125
700.20048	13867.5125
704.13626	14006.6125
708.06928	14002.2125
711.99952	13892.8125
715.927	13798.4125
719.85171	13770.0125
723.77365	13696.4125
727.69284	13518.7125
731.60928	13468.9125
735.52295	13536.7125
739.43388	13622.9125
743.34206	13764.8125
747.24749	13891.2125
751.15017	14102.4125
755.05012	14453.1125
758.94733	15145.9125
762.8418	16554.8125
766.73354	18643.4125
770.62254	20332.0125
774.50882	20622.6125
778.39237	19312.0125
782.27321	17207.2125
786.15132	15434.2125
790.02671	14448.5125
793.89938	14011.9125
797.76935	13815.6125
801.6366	13733.3125
805.50115	13649.5125
809.36299	13578.3125
813.22213	13513.5125
817.07857	13535.6125
820.93231	13544.7125
824.78336	13619.2125
828.63172	13683.6125
832.47738	13715.0125
836.32036	13712.2125
840.16066	13682.6125
843.99827	13659.0125
847.8332	13571.2125
851.66546	13551.7125
855.49504	13553.7125
859.32195	13518.2125
863.1462	13441.3125
866.96777	13406.4125
870.78668	13378.8125
874.60293	13442.6125
878.41652	13492.3125
882.22745	13597.7125
886.03573	13623.7125
889.84136	13577.7125
893.64433	13535.4125
897.44466	13477.2125
901.24235	13472.3125
905.0374	13424.7125
908.8298	13409.9125
912.61957	13485.1125
916.40671	13614.2125
920.19121	13824.0125
923.97308	14018.4125
927.75233	14105.2125
931.52895	14055.0125
935.30295	13767.5125
939.07433	13468.6125
942.84309	13211.4125
946.60924	13109.4125
950.37278	13024.5125
954.13371	12972.2125
957.89203	12905.8125
961.64774	12884.3125
965.40086	12890.4125
969.15137	12837.1125
972.89929	12803.2125
976.64461	12801.2125
980.38733	12836.8125
984.12747	12885.0125
987.86502	12960.8125
991.59999	13115.4125
995.33237	13434.6125
999.06217	13948.6125
1002.78939	14552.7125
1006.51404	14906.6125
1010.23611	15166.6125
1013.95561	15349.0125
1017.67255	15270.1125
1021.38692	14926.2125
1025.09872	14664.1125
1028.80796	14701.4125
1032.51465	15032.5125
1036.21877	15271.9125
1039.92035	15319.1125
1043.61937	15140.6125
1047.31584	14866.3125
1051.00976	14597.8125
1054.70114	14455.7125
1058.38998	14523.0125
1062.07627	14606.1125
1065.76003	14707.2125
1069.44126	14906.6125
1073.11995	15100.5125
1076.79611	15219.4125
1080.46974	15346.4125
1084.14085	15564.3125
1087.80943	15776.7125
1091.47549	15847.8125
1095.13903	15572.2125
1098.80005	15150.5125
1102.45857	14804.2125
1106.11456	14586.9125
1109.76805	14602.3125
1113.41903	14805.2125
1117.06751	15086.2125
1120.71348	15483.4125
1124.35696	15913.4125
1127.99793	16211.4125
1131.63641	16125.3125
1135.2724	15699.7125
1138.90589	15376.4125
1142.5369	15198.5125
1146.16542	15083.5125
1149.79145	15082.3125
1153.415	15221.0125
1157.03607	15409.2125
1160.65467	15727.4125
1164.27079	16317.0125
1167.88443	17197.4125
1171.49561	18591.8125
1175.10432	20707.6125
1178.71056	23231.0125
1182.31434	25136.8125
1185.91565	25784.6125
1189.51451	25294.0125
1193.11091	24093.2125
1196.70485	22582.2125
1200.29634	21295.0125
1203.88538	20139.4125
1207.47197	19100.6125
1211.05612	18430.5125
1214.63782	18164.6125
1218.21708	18290.4125
1221.79391	18472.9125
1225.36829	18631.2125
1228.94024	18544.8125
1232.50976	18261.5125
1236.07685	18086.5125
1239.6415	17982.4125
1243.20374	17939.0125
1246.76355	18041.1125
1250.32093	18206.5125
1253.8759	18668.5125
1257.42845	19276.8125
1260.97859	19849.5125
1264.52631	20389.8125
1268.07163	20828.8125
1271.61453	21319.1125
1275.15503	21836.3125
1278.69312	22356.4125
1282.22882	22909.8125
1285.76211	23552.7125
1289.29301	24344.2125
1292.82151	25230.7125
1296.34761	26215.0125
1299.87133	27674.2125
1303.39266	29649.3125
1306.9116	32265.6125
1310.42815	35108.3125
1313.94233	36721.7125
1317.45412	36394.0125
1320.96354	35003.6125
1324.47058	33333.6125
1327.97525	31973.3125
1331.47754	31239.1125
1334.97747	30939.8125
1338.47502	31058.0125
1341.97022	31332.5125
1345.46305	31475.0125
1348.95352	31673.3125
1352.44163	32225.2125
1355.92738	33632.5125
1359.41078	36208.2125
1362.89183	38271.8125
1366.37053	36942.6125
1369.84688	32864.3125
1373.32088	28786.9125
1376.79254	26160.9125
1380.26186	24860.3125
1383.72883	24396.6125
1387.19347	24202.2125
1390.65578	23898.6125
1394.11575	23846.4125
1397.57339	24174.8125
1401.0287	24775.3125
1404.48168	25372.1125
1407.93234	25832.2125
1411.38068	25939.0125
1414.82669	25392.4125
1418.27039	24313.5125
1421.71177	23099.7125
1425.15083	22218.0125
1428.58758	21927.0125
1432.02203	22103.3125
1435.45416	22355.9125
1438.88399	22584.2125
1442.31151	22768.1125
1445.73673	22959.9125
1449.15965	23113.3125
1452.58027	23105.0125
1455.9986	23035.6125
1459.41463	23047.9125
1462.82837	23388.3125
1466.23982	23783.3125
1469.64898	24172.3125
1473.05586	24351.0125
1476.46045	24500.1125
1479.86276	24625.2125
1483.26279	24841.4125
1486.66054	25186.2125
1490.05602	25682.8125
1493.44922	26342.8125
1496.84016	27091.2125
1500.22882	28252.1125
1503.61521	29861.1125
1506.99934	31631.6125
1510.38121	33192.3125
1513.76081	33547.8125
1517.13816	32234.1125
1520.51324	29885.5125
1523.88607	27818.6125
1527.25665	26548.5125
1530.62498	25886.7125
1533.99105	25552.7125
1537.35488	25322.2125
1540.71647	25131.6125
1544.07581	24808.5125
1547.4329	24354.2125
1550.78776	23792.9125
1554.14038	23300.9125
1557.49077	23027.2125
1560.83892	23059.2125
1564.18484	23217.8125
1567.52853	23440.7125
1570.86999	23604.4125
1574.20922	23732.3125
1577.54624	23645.3125
1580.88103	23017.4125
1584.2136	22517.8125
1587.54395	22823.0125
1590.87208	24061.9125
1594.19801	26171.5125
1597.52172	28442.9125
1600.84321	29514.3125
1604.16251	28550.5125
1607.47959	26211.7125
1610.79447	23454.4125
1614.10715	21069.8125
1617.41763	19324.8125
1620.7259	18281.9125
1624.03199	17826.0125
1627.33587	17907.6125
1630.63757	18446.7125
1633.93707	19597.4125
1637.23439	21378.0125
1640.52951	23705.2125
1643.82246	26337.7125
1647.11321	28469.7125
1650.40179	28971.9125
1653.68819	27189.8125
1656.97241	23761.9125
1660.25446	20321.1125
1663.53433	17813.8125
1666.81203	16268.4125
1670.08756	15326.6125
1673.36092	14706.8125
1676.63211	14307.2125
1679.90115	14040.5125
1683.16801	13804.6125
1686.43272	13672.5125
1689.69527	13534.9125
1692.95567	13481.0125
1696.2139	13454.4125
1699.46999	13425.0125
1702.72392	13402.6125
1705.97571	13371.9125
1709.22535	13345.3125
1712.47284	13353.1125
1715.71819	13364.8125
1718.96139	13363.4125
1722.20246	13323.9125
1725.44139	13250.0125
1728.67818	13199.6125
1731.91284	13116.6125
1735.14537	13043.8125
1738.37576	12996.2125
1741.60403	12931.9125
1744.83017	12887.2125
1748.05418	12891.4125
1751.27607	12846.7125
1754.49584	12841.5125
1757.71349	12827.2125
1760.92903	12811.2125
1764.14244	12799.6125
1767.35375	12810.4125
1770.56294	12777.4125
1773.77002	12768.2125
1776.97499	12755.6125
1780.17785	12756.7125
1783.37861	12714.5125
1786.57727	12704.0125
1789.77382	12696.5125
1792.96828	12698.2125
1796.16064	12689.0125
1799.3509	12654.4125
1802.53907	12648.9125
1805.72514	12628.5125
1808.90913	12613.6125
1812.09102	12583.1125
1815.27083	12529.6125
1818.44856	12507.8125
1821.6242	12486.8125
1824.79776	12485.0125
1827.96924	12447.2125
1831.13864	12451.4125
1834.30597	12436.9125
1837.47122	12433.0125
1840.6344	12438.2125
1843.7955	12428.5125
1846.95454	12421.5125
1850.11151	12419.0125
1853.26642	12409.0125
1856.41926	12434.7125
1859.57004	12448.0125
1862.71876	12451.7125
1865.86542	12439.4125
1869.01003	12461.9125
1872.15258	12452.9125
1875.29308	12468.8125
1878.43152	12509.5125
1881.56792	12485.6125
1884.70227	12511.8125
1887.83457	12503.8125
1890.96482	12501.8125
1894.09304	12484.7125
1897.21921	12474.5125
1900.34335	12498.4125
1903.46544	12499.3125
1906.58551	12507.3125
1909.70353	12485.6125
1912.81953	12501.2125
1915.93349	12481.8125
1919.04543	12463.2125
1922.15534	12434.5125
1925.26322	12400.3125
1928.36908	12384.2125
1931.47292	12355.8125
1934.57473	12334.3125
1937.67453	12301.3125
1940.77232	12260.5125
1943.86808	12181.3125
1946.96184	12156.4125
1950.05358	12119.5125
1953.14331	12065.8125
1956.23103	12028.8125
1959.31675	11989.6125
1962.40046	11975.8125
1965.48217	11919.8125
1968.56188	11873.4125
1971.63959	11838.1125
1974.7153	11820.4125
1977.78901	11768.9125
1980.86073	11732.2125
1983.93046	11699.2125
1986.99819	11667.3125
1990.06394	11632.7125
1993.1277	11597.9125
1996.18947	11573.9125
1999.24925	11518.8125
2002.30706	11515.7125
2005.36288	11464.6125
2008.41672	11457.3125
2011.46859	11430.0125
2014.51848	11362.6125
2017.56639	11344.8125
2020.61233	11301.9125
2023.6563	11302.5125
2026.6983	11252.7125
2029.73833	11230.1125
2032.7764	11211.7125
2035.8125	11205.1125
2038.84664	11186.7125
2041.87881	11161.7125
2044.90903	11131.1125
2047.93729	11111.6125
2050.96359	11126.5125
2053.98794	11099.7125
2057.01034	11077.5125
2060.03078	11076.5125
2063.04927	11054.0125
2066.06582	11055.1125
2069.08042	11042.4125
2072.09307	11051.8125
2075.10378	11026.1125
2078.11255	11010.9125
2081.11938	11002.7125
2084.12426	10981.2125
2087.12722	10982.9125
2090.12824	10947.3125
2093.12732	10955.9125
2096.12447	11000.5125
2099.11969	10967.6125
2102.11299	10959.4125
2105.10435	10963.4125
2108.09379	10959.7125
2111.08131	10985.5125
2114.0669	10987.9125
2117.05057	10964.0125
2120.03233	10981.6125
2123.01216	10983.2125
2125.99008	10970.0125
2128.96609	11003.2125
2131.94018	11004.9125
2134.91236	11007.1125
2137.88263	11033.0125
2140.851	11026.5125
2143.81746	11025.5125
2146.78201	11016.9125
2149.74466	11000.7125
2152.7054	11033.2125
2155.66425	11010.4125
2158.6212	11030.2125
2161.57625	10998.2125
2164.52941	10980.8125
2167.48067	10988.2125
2170.43004	10974.5125
2173.37752	10987.0125
2176.32311	10969.1125
2179.26681	10964.6125
2182.20863	10957.6125
2185.14856	10979.6125
2188.08661	11006.1125
2191.02278	10981.5125
2193.95707	10969.1125
2196.88948	10959.4125
2199.82001	10984.8125
2202.74867	10984.3125
2205.67545	10951.9125
2208.60037	10943.8125
2211.52341	10926.9125
2214.44458	10902.1125
2217.36388	10876.0125
2220.28132	10884.6125
2223.1969	10825.2125
2226.11061	10831.6125
2229.02246	10806.6125
2231.93245	10792.0125
2234.84058	10771.6125
2237.74686	10762.8125
2240.65128	10738.9125
2243.55385	10758.9125
2246.45456	10722.1125
2249.35343	10687.8125
2252.25044	10695.8125
2255.14561	10710.0125
2258.03893	10684.6125
2260.93041	10659.9125
2263.82004	10619.4125
2266.70783	10620.6125
2269.59378	10571.7125
2272.4779	10536.8125
2275.36017	10518.6125
2278.24061	10503.2125
2281.11922	10481.3125
2283.996	10449.8125
2286.87094	10438.7125
2289.74405	10418.2125
2292.61534	10427.2125
2295.4848	10397.9125
2298.35243	10415.9125
2301.21824	10405.4125
2304.08223	10398.8125
2306.94439	10379.1125
2309.80474	10383.7125
2312.66327	10408.8125
2315.51999	10391.1125
2318.37489	10430.4125
2321.22797	10375.0125
2324.07925	10373.4125
2326.92871	10368.4125
2329.77637	10336.6125
2332.62222	10350.1125
2335.46626	10318.3125
2338.3085	10326.2125
2341.14893	10328.6125
2343.98756	10341.0125
2346.8244	10349.8125
2349.65943	10353.7125
2352.49267	10375.6125
2355.32411	10370.1125
2358.15376	10364.8125
2360.98161	10355.6125
2363.80768	10356.1125
2366.63195	10343.9125
2369.45444	10333.3125
2372.27514	10310.4125
2375.09405	10295.5125
2377.91118	10255.6125
2380.72652	10233.4125
2383.54009	10181.9125
2386.35187	10182.4125
2389.16188	10169.6125
2391.97011	10131.8125
2394.77657	10092.9125
2397.58125	10098.2125
2400.38416	10070.8125
2403.18529	10035.8125
2405.98466	10028.4125
2408.78226	9995.9125
2411.57809	10002.2125
2414.37216	9980.1125
2417.16446	9942.9125
2419.955	9929.2125
2422.74378	9932.8125
2425.5308	9921.0125
2428.31606	9933.4125
2431.09956	9928.1125
2433.88131	9911.4125
2436.6613	9902.6125
2439.43954	9885.5125
2442.21603	9879.3125
2444.99077	9881.4125
2447.76377	9901.2125
2450.53501	9894.8125
2453.30451	9864.4125
2456.07226	9857.1125
2458.83827	9863.5125
2461.60254	9861.4125
2464.36507	9845.6125
2467.12586	9821.8125
2469.88492	9820.8125
2472.64224	9840.5125
2475.39782	9821.3125
2478.15167	9897.6125
2480.90379	9890.5125
2483.65417	9896.0125
2486.40283	9882.5125
2489.14976	9924.0125
2491.89497	9903.2125
2494.63845	9917.9125
2497.3802	9927.0125
2500.12024	9927.9125
2502.85855	9918.8125
2505.59514	9875.4125
2508.33002	9847.6125
2511.06318	9850.2125
2513.79462	9826.2125
2516.52435	9799.5125
2519.25237	9765.1125
2521.97867	9760.2125
2524.70327	9790.8125
2527.42616	9759.6125
2530.14734	9746.5125
2532.86681	9749.5125
2535.58458	9733.8125
2538.30065	9743.1125
2541.01501	9708.4125
2543.72768	9726.1125
2546.43864	9743.6125
2549.14791	9683.2125
2551.85548	9710.7125
2554.56136	9690.7125
2557.26554	9669.6125
2559.96803	9661.2125
2562.66883	9658.9125
2565.36794	9615.2125
2568.06536	9630.3125
2570.7611	9589.2125
2573.45514	9599.4125
2576.14751	9597.9125
2578.83819	9575.9125
2581.52719	9610.1125
2584.21451	9573.3125
2586.90015	9605.7125
2589.58411	9599.5125
2592.2664	9575.8125
2594.94701	9569.3125
2597.62594	9567.5125
2600.30321	9548.2125
2602.9788	9552.0125
2605.65273	9555.0125
2608.32498	9533.7125
2610.99557	9531.6125
2613.66449	9571.7125
2616.33175	9547.2125
2618.99734	9565.7125
2621.66128	9558.3125
2624.32355	9578.9125
2626.98416	9567.7125
2629.64311	9562.1125
2632.30041	9572.4125
2634.95605	9535.0125
2637.61004	9529.1125
2640.26238	9497.9125
2642.91306	9498.4125
2645.56209	9490.0125
2648.20948	9493.2125
2650.85521	9446.7125
2653.4993	9459.4125
2656.14175	9454.4125
2658.78255	9471.4125
2661.42171	9454.9125
2664.05923	9488.7125
2666.6951	9482.1125
2669.32934	9511.1125
2671.96194	9514.0125
2674.59291	9535.3125
2677.22224	9519.7125
2679.84993	9514.0125
2682.476	9503.0125
2685.10043	9506.9125
2687.72324	9511.9125
2690.34441	9493.2125
2692.96396	9494.6125
2695.58188	9516.9125
2698.19818	9499.2125
2700.81285	9503.5125
2703.4259	9479.0125
2706.03733	9491.4125
2708.64714	9499.7125
2711.25533	9504.3125
2713.86191	9472.9125
2716.46687	9528.9125
2719.07021	9532.7125
2721.67194	9521.8125
2724.27206	9496.9125
2726.87057	9522.4125
2729.46747	9539.7125
2732.06276	9557.8125
2734.65644	9544.6125
2737.24852	9554.5125
2739.83899	9510.8125
2742.42786	9514.9125
2745.01513	9510.0125
2747.60079	9508.8125
2750.18486	9454.1125
2752.76733	9479.9125
2755.3482	9467.2125
2757.92747	9492.4125
2760.50515	9448.5125
2763.08123	9444.8125
2765.65573	9455.9125
2768.22863	9448.1125
2770.79994	9438.9125
2773.36967	9437.2125
2775.9378	9430.4125
2778.50435	9465.4125
2781.06932	9433.1125
2783.6327	9425.0125
2786.1945	9423.5125
2788.75471	9435.8125
2791.31335	9399.4125
2793.87041	9401.6125
2796.42589	9395.6125
2798.97979	9382.0125
2801.53212	9375.6125
2804.08288	9344.9125
2806.63206	9331.0125
2809.17967	9289.7125
2811.72571	9269.5125
2814.27018	9284.0125
2816.81308	9267.0125
2819.35442	9249.1125
2821.89419	9250.3125
2824.43239	9239.0125
2826.96904	9258.0125
2829.50412	9249.4125
2832.03763	9234.7125
2834.56959	9224.7125
2837.1	9227.7125
2839.62884	9251.4125
2842.15613	9235.7125
2844.68186	9252.6125
2847.20604	9269.6125
2849.72867	9265.6125
2852.24974	9258.2125
2854.76927	9262.6125
2857.28724	9233.9125
2859.80367	9213.3125
2862.31855	9220.6125
2864.83189	9199.1125
2867.34368	9199.7125
2869.85393	9153.4125
2872.36264	9170.2125
2874.8698	9164.2125
2877.37543	9154.8125
2879.87952	9142.7125
2882.38207	9136.9125
2884.88308	9133.3125
2887.38256	9132.4125
2889.88051	9133.6125
2892.37692	9139.0125
2894.8718	9138.2125
2897.36515	9158.2125
2899.85698	9170.1125
2902.34727	9174.0125
2904.83604	9179.6125
2907.32328	9185.5125
2909.809	9176.6125
2912.29319	9179.6125
2914.77587	9182.8125
2917.25702	9172.5125
2919.73665	9170.8125
2922.21476	9156.7125
2924.69136	9124.0125
2927.16644	9143.9125
2929.64	9117.3125
2932.11205	9114.8125
2934.58258	9107.9125
2937.05161	9107.0125
2939.51912	9088.0125
2941.98513	9054.7125
2944.44962	9042.8125
2946.91261	9005.9125
2949.37409	9031.9125
2951.83407	9016.4125
2954.29254	8987.2125
2956.74951	8976.8125
2959.20498	8984.4125
2961.65895	8963.6125
2964.11142	8947.8125
2966.56239	8946.4125
2969.01186	8928.7125
2971.45984	8900.1125
2973.90632	8895.3125
2976.35131	8861.8125
2978.7948	8865.7125
2981.23681	8839.3125
2983.67732	8814.3125
2986.11635	8765.1125
2988.55388	8743.6125
2990.98993	8734.2125
2993.4245	8713.4125
2995.85758	8713.9125
2998.28917	8675.0125
3000.71928	8681.3125
3003.14791	8645.5125
3005.57506	8635.6125
3008.00073	8593.3125
3010.42493	8579.0125
3012.84764	8559.4125
3015.26888	8570.3125
3017.68865	8519.1125
3020.10694	8519.5125
3022.52376	8489.6125
3024.9391	8478.7125
3027.35298	8464.7125
3029.76539	8476.8125
3032.17632	8472.0125
3034.5858	8466.9125
3036.9938	8452.1125
3039.40034	8439.2125
3041.80542	8418.0125
3044.20903	8417.8125
3046.61118	8400.6125
3049.01187	8402.2125
3051.4111	8388.2125
3053.80888	8355.8125
3056.20519	8324.3125
