Data from AgNPs_UA_5uM_CRN_0uM_R6G_10uM_Q_RamanShift__8__10-58-35-298.txt Node

Date: Mon Jul 18 10:58:35 BST 2022
User: TCL
Spectrometer: QEP01345
Trigger mode: 4
Integration Time (sec): 7.000000E0
Scans to average: 10
Electric dark correction enabled: true
Nonlinearity correction enabled: false
Boxcar width: 0
XAxis mode: Raman Shifts
Number of Pixels in Spectrum: 1044
>>>>>Begin Spectral Data<<<<<
46.04893	-0.9875
50.45542	-1.8875
54.85868	-3.1875
59.25871	-1.7875
63.6555	187.4125
68.04907	197.4125
72.43941	199.5125
76.82654	207.5125
81.21044	214.9125
85.59113	220.1125
89.96862	232.4125
94.34289	230.2125
98.71396	243.4125
103.08183	251.4125
107.4465	258.4125
111.80798	267.2125
116.16626	280.2125
120.52136	295.6125
124.87327	303.6125
129.222	327.0125
133.56755	356.1125
137.90993	388.7125
142.24913	432.6125
146.58517	500.8125
150.91804	582.9125
155.24774	704.3125
159.57429	894.3125
163.89768	1157.2125
168.21792	1552.9125
172.53501	2142.8125
176.84895	3007.2125
181.15975	4277.8125
185.46741	6016.3125
189.77193	8348.5125
194.07331	11185.6125
198.37157	14462.3125
202.6667	17918.8125
206.9587	21299.6125
211.24758	24645.3125
215.53334	28083.6125
219.81599	31725.3125
224.09553	35806.5125
228.37195	40258.9125
232.64527	45143.4125
236.91549	50054.5125
241.18261	54725.1125
245.44663	58757.4125
249.70755	62183.9125
253.96539	65171.4125
258.22014	67729.6125
262.4718	69969.2125
266.72039	71417.6125
270.96589	72066.6125
275.20832	71953.4125
279.44768	71444.5125
283.68397	70513.3125
287.91719	69938.7125
292.14735	69784.5125
296.37445	70314.6125
300.59849	71306.9125
304.81948	72702.9125
309.03742	73921.1125
313.25231	74306.0125
317.46415	73356.9125
321.67296	71358.3125
325.87872	69480.7125
330.08145	68566.6125
334.28114	68664.3125
338.47781	69443.7125
342.67145	70608.4125
346.86207	72107.4125
351.04966	74163.5125
355.23424	76352.3125
359.4158	78144.7125
363.59435	79341.3125
367.76989	79861.4125
371.94243	80062.7125
376.11196	80149.7125
380.27849	80343.6125
384.44203	80813.7125
388.60257	81429.6125
392.76012	82176.9125
396.91468	83270.4125
401.06626	84449.7125
405.21485	85115.0125
409.36047	84416.6125
413.50311	82694.1125
417.64277	81210.0125
421.77947	80527.7125
425.9132	80153.0125
430.04396	80230.4125
434.17176	80467.3125
438.2966	81202.9125
442.41849	82323.8125
446.53742	83997.8125
450.6534	85853.8125
454.76644	87270.8125
458.87653	87794.0125
462.98368	87630.4125
467.08789	87290.8125
471.18916	86168.5125
475.2875	84606.3125
479.38291	83247.7125
483.4754	82165.6125
487.56496	81375.1125
491.6516	80936.0125
495.73531	80706.2125
499.81612	81025.9125
503.89401	81695.5125
507.96899	82128.9125
512.04106	82240.2125
516.11023	82455.4125
520.1765	82532.5125
524.23987	82464.5125
528.30034	82209.5125
532.35792	81848.7125
536.41261	81237.1125
540.46441	80301.4125
544.51333	79993.5125
548.55936	80666.7125
552.60252	81983.6125
556.64279	83436.8125
560.6802	84548.5125
564.71473	85322.7125
568.7464	86134.8125
572.7752	86608.9125
576.80114	86579.0125
580.82422	87101.6125
584.84444	88216.5125
588.86181	89223.6125
592.87633	89765.3125
596.888	90256.5125
600.89682	91768.4125
604.9028	97785.3125
608.90594	111824.8125
612.90624	125127.4125
616.90371	116136.7125
620.89834	94664.0125
624.89015	85495.8125
628.87913	84725.6125
632.86528	86365.8125
636.84862	87399.9125
640.82913	86085.7125
644.80683	83420.6125
648.78172	81680.4125
652.75379	81573.6125
656.72306	83299.5125
660.68952	85389.5125
664.65319	85074.6125
668.61405	84131.5125
672.57211	84756.9125
676.52738	84998.8125
680.47986	83493.9125
684.42955	81912.7125
688.37646	81488.2125
692.32058	82281.6125
696.26192	83908.9125
700.20048	85415.8125
704.13626	85763.0125
708.06928	85069.6125
711.99952	84186.4125
715.927	83837.5125
719.85171	84181.0125
723.77365	84091.1125
727.69284	83178.5125
731.60928	82413.9125
735.52295	82109.8125
739.43388	82252.3125
743.34206	82552.7125
747.24749	82754.7125
751.15017	83103.6125
755.05012	84053.0125
758.94733	86584.4125
762.8418	91875.6125
766.73354	100223.6125
770.62254	107499.7125
774.50882	109440.4125
778.39237	106389.5125
782.27321	100529.7125
786.15132	93585.2125
790.02671	88427.4125
793.89938	85529.4125
797.76935	84087.9125
801.6366	83301.1125
805.50115	82818.3125
809.36299	82382.4125
813.22213	82116.3125
817.07857	81848.7125
820.93231	81693.9125
824.78336	81760.4125
828.63172	81910.2125
832.47738	81628.0125
836.32036	81381.9125
840.16066	81236.4125
843.99827	81118.1125
847.8332	81049.2125
851.66546	81311.0125
855.49504	81628.3125
859.32195	81666.8125
863.1462	81567.9125
866.96777	81639.5125
870.78668	81771.2125
874.60293	81985.9125
878.41652	82241.5125
882.22745	82780.0125
886.03573	83156.7125
889.84136	83095.7125
893.64433	82819.2125
897.44466	82382.0125
901.24235	82283.9125
905.0374	82073.4125
908.8298	81718.8125
912.61957	81571.1125
916.40671	81677.7125
920.19121	82096.5125
923.97308	82695.9125
927.75233	83306.7125
931.52895	83613.5125
935.30295	83027.1125
939.07433	81863.4125
942.84309	80880.7125
946.60924	80391.6125
950.37278	80210.5125
954.13371	80294.4125
957.89203	80339.8125
961.64774	80404.2125
965.40086	80384.4125
969.15137	80295.0125
972.89929	80181.0125
976.64461	80205.5125
980.38733	80362.2125
984.12747	80554.3125
987.86502	81002.2125
991.59999	81241.7125
995.33237	81825.4125
999.06217	82712.6125
1002.78939	83971.1125
1006.51404	85754.6125
1010.23611	87535.4125
1013.95561	88585.4125
1017.67255	89092.1125
1021.38692	88637.3125
1025.09872	87291.0125
1028.80796	85782.2125
1032.51465	84910.6125
1036.21877	84871.2125
1039.92035	85268.8125
1043.61937	85718.0125
1047.31584	85967.5125
1051.00976	86221.7125
1054.70114	86585.6125
1058.38998	87112.7125
1062.07627	88121.8125
1065.76003	89188.5125
1069.44126	90657.4125
1073.11995	93081.8125
1076.79611	95422.8125
1080.46974	96665.1125
1084.14085	97159.7125
1087.80943	98035.3125
1091.47549	98879.0125
1095.13903	99265.4125
1098.80005	99043.9125
1102.45857	98787.3125
1106.11456	97688.0125
1109.76805	95791.3125
1113.41903	94846.3125
1117.06751	95242.7125
1120.71348	96149.6125
1124.35696	97341.0125
1127.99793	98406.7125
1131.63641	97977.6125
1135.2724	96156.2125
1138.90589	94759.6125
1142.5369	93958.6125
1146.16542	93925.9125
1149.79145	93708.9125
1153.415	93201.2125
1157.03607	92766.6125
1160.65467	93580.1125
1164.27079	95588.3125
1167.88443	98817.9125
1171.49561	103315.6125
1175.10432	109501.9125
1178.71056	117553.4125
1182.31434	124672.0125
1185.91565	128334.5125
1189.51451	128892.8125
1193.11091	127853.6125
1196.70485	125030.2125
1200.29634	121735.1125
1203.88538	118439.3125
1207.47197	114856.3125
1211.05612	111458.1125
1214.63782	108375.8125
1218.21708	105594.5125
1221.79391	103450.5125
1225.36829	102248.7125
1228.94024	101890.0125
1232.50976	101729.3125
1236.07685	101376.2125
1239.6415	101331.0125
1243.20374	101626.8125
1246.76355	102173.6125
1250.32093	103321.8125
1253.8759	105226.3125
1257.42845	108264.1125
1260.97859	111684.7125
1264.52631	115012.8125
1268.07163	117449.5125
1271.61453	119064.5125
1275.15503	120109.9125
1278.69312	120440.1125
1282.22882	120643.7125
1285.76211	121828.4125
1289.29301	123815.7125
1292.82151	126139.8125
1296.34761	129257.2125
1299.87133	133535.6125
1303.39266	139681.4125
1306.9116	148023.3125
1310.42815	156799.3125
1313.94233	161457.3125
1317.45412	159492.9125
1320.96354	154328.5125
1324.47058	148689.5125
1327.97525	143804.3125
1331.47754	140695.0125
1334.97747	139701.6125
1338.47502	140836.4125
1341.97022	144416.3125
1345.46305	150089.2125
1348.95352	156678.9125
1352.44163	162630.7125
1355.92738	167916.2125
1359.41078	174275.8125
1362.89183	179163.5125
1366.37053	173421.0125
1369.84688	156556.6125
1373.32088	139263.4125
1376.79254	128274.4125
1380.26186	122860.3125
1383.72883	120077.8125
1387.19347	117894.3125
1390.65578	115255.8125
1394.11575	112786.8125
1397.57339	110990.3125
1401.0287	109945.4125
1404.48168	109867.6125
1407.93234	110487.8125
1411.38068	111474.0125
1414.82669	111649.0125
1418.27039	110579.9125
1421.71177	109330.9125
1425.15083	108567.9125
1428.58758	108448.6125
1432.02203	109315.0125
1435.45416	110680.4125
1438.88399	111458.9125
1442.31151	111807.7125
1445.73673	111932.2125
1449.15965	112242.1125
1452.58027	112014.9125
1455.9986	111722.1125
1459.41463	112266.2125
1462.82837	114067.6125
1466.23982	116160.4125
1469.64898	118039.5125
1473.05586	119342.4125
1476.46045	120032.5125
1479.86276	120468.0125
1483.26279	120927.2125
1486.66054	122036.9125
1490.05602	124112.0125
1493.44922	127687.2125
1496.84016	133075.6125
1500.22882	141155.6125
1503.61521	151153.7125
1506.99934	160474.4125
1510.38121	165567.4125
1513.76081	163711.2125
1517.13816	155057.0125
1520.51324	143569.5125
1523.88607	133818.5125
1527.25665	127940.1125
1530.62498	124790.1125
1533.99105	123254.1125
1537.35488	121993.2125
1540.71647	120900.5125
1544.07581	119684.3125
1547.4329	118360.0125
1550.78776	116852.3125
1554.14038	115572.5125
1557.49077	115071.5125
1560.83892	115496.6125
1564.18484	116896.8125
1567.52853	118790.5125
1570.86999	120300.4125
1574.20922	121129.3125
1577.54624	120478.5125
1580.88103	117333.3125
1584.2136	113636.9125
1587.54395	111967.6125
1590.87208	113300.8125
1594.19801	117649.2125
1597.52172	123217.0125
1600.84321	126092.3125
1604.16251	124666.7125
1607.47959	120995.2125
1610.79447	115329.7125
1614.10715	108398.2125
1617.41763	101961.8125
1620.7259	97185.5125
1624.03199	94377.4125
1627.33587	93747.3125
1630.63757	95038.3125
1633.93707	98682.7125
1637.23439	105316.9125
1640.52951	115112.9125
1643.82246	127649.8125
1647.11321	138407.8125
1650.40179	142518.6125
1653.68819	135731.9125
1656.97241	121426.4125
1660.25446	106655.2125
1663.53433	95922.5125
1666.81203	89136.2125
1670.08756	84997.0125
1673.36092	82409.2125
1676.63211	80624.5125
1679.90115	79324.8125
1683.16801	78292.5125
1686.43272	77468.7125
1689.69527	76824.3125
1692.95567	76386.9125
1696.2139	75980.2125
1699.46999	75766.6125
1702.72392	75663.3125
1705.97571	75558.1125
1709.22535	75454.7125
1712.47284	75489.9125
1715.71819	75536.1125
1718.96139	75478.8125
1722.20246	75172.1125
1725.44139	74768.9125
1728.67818	74381.3125
1731.91284	73968.2125
1735.14537	73598.9125
1738.37576	73362.5125
1741.60403	73069.4125
1744.83017	72933.8125
1748.05418	72684.5125
1751.27607	72505.0125
1754.49584	72321.9125
1757.71349	72222.9125
1760.92903	72053.4125
1764.14244	71900.8125
1767.35375	71783.1125
1770.56294	71572.4125
1773.77002	71570.4125
1776.97499	71382.0125
1780.17785	71195.2125
1783.37861	71048.1125
1786.57727	70873.8125
1789.77382	70772.1125
1792.96828	70657.5125
1796.16064	70547.1125
1799.3509	70441.7125
1802.53907	70238.9125
1805.72514	70023.7125
1808.90913	69820.9125
1812.09102	69750.7125
1815.27083	69525.3125
1818.44856	69391.3125
1821.6242	69353.9125
1824.79776	69291.5125
1827.96924	69029.8125
1831.13864	68829.3125
1834.30597	68818.1125
1837.47122	68637.3125
1840.6344	68655.0125
1843.7955	68733.2125
1846.95454	68616.4125
1850.11151	68396.0125
1853.26642	68221.0125
1856.41926	68145.7125
1859.57004	68109.9125
1862.71876	68123.5125
1865.86542	68050.5125
1869.01003	68025.9125
1872.15258	67973.5125
1875.29308	67840.0125
1878.43152	67640.3125
1881.56792	67594.6125
1884.70227	67446.0125
1887.83457	67319.1125
1890.96482	67333.0125
1894.09304	67271.6125
1897.21921	67159.5125
1900.34335	67083.5125
1903.46544	66999.4125
1906.58551	66884.6125
1909.70353	66717.7125
1912.81953	66576.6125
1915.93349	66347.6125
1919.04543	66293.3125
1922.15534	66257.9125
1925.26322	65987.3125
1928.36908	65896.0125
1931.47292	65755.9125
1934.57473	65460.2125
1937.67453	65285.2125
1940.77232	65163.5125
1943.86808	64942.1125
1946.96184	64716.0125
1950.05358	64500.0125
1953.14331	64425.1125
1956.23103	64169.4125
1959.31675	63944.4125
1962.40046	63822.9125
1965.48217	63693.2125
1968.56188	63415.1125
1971.63959	63294.7125
1974.7153	63178.2125
1977.78901	62984.6125
1980.86073	62657.1125
1983.93046	62448.2125
1986.99819	62178.8125
1990.06394	61977.6125
1993.1277	61871.1125
1996.18947	61569.8125
1999.24925	61494.1125
2002.30706	61325.6125
2005.36288	61232.6125
2008.41672	61058.4125
2011.46859	60874.7125
2014.51848	60679.2125
2017.56639	60541.8125
2020.61233	60473.6125
2023.6563	60280.6125
2026.6983	60057.9125
2029.73833	59787.1125
2032.7764	59593.4125
2035.8125	59441.5125
2038.84664	59282.1125
2041.87881	59193.6125
2044.90903	59030.7125
2047.93729	58862.4125
2050.96359	58892.5125
2053.98794	58798.2125
2057.01034	58717.8125
2060.03078	58651.3125
2063.04927	58507.7125
2066.06582	58458.6125
2069.08042	58334.6125
2072.09307	58319.9125
2075.10378	58244.0125
2078.11255	58183.8125
2081.11938	58140.2125
2084.12426	58082.2125
2087.12722	57945.9125
2090.12824	57918.2125
2093.12732	57995.6125
2096.12447	58009.3125
2099.11969	58049.3125
2102.11299	58122.7125
2105.10435	58165.1125
2108.09379	58156.6125
2111.08131	58151.5125
2114.0669	58128.3125
2117.05057	58115.0125
2120.03233	58176.4125
2123.01216	58218.9125
2125.99008	58185.1125
2128.96609	58278.2125
2131.94018	58338.1125
2134.91236	58310.5125
2137.88263	58316.5125
2140.851	58381.8125
2143.81746	58430.6125
2146.78201	58386.4125
2149.74466	58387.2125
2152.7054	58357.0125
2155.66425	58242.6125
2158.6212	58294.9125
2161.57625	58225.6125
2164.52941	58169.5125
2167.48067	58138.5125
2170.43004	58173.7125
2173.37752	58076.9125
2176.32311	58025.4125
2179.26681	57998.0125
2182.20863	58018.3125
2185.14856	58006.5125
2188.08661	58029.1125
2191.02278	58030.4125
2193.95707	57936.9125
2196.88948	57829.0125
2199.82001	57874.4125
2202.74867	57727.4125
2205.67545	57667.3125
2208.60037	57559.7125
2211.52341	57313.0125
2214.44458	57236.4125
2217.36388	57102.5125
2220.28132	57010.7125
2223.1969	56776.6125
2226.11061	56678.8125
2229.02246	56564.7125
2231.93245	56509.0125
2234.84058	56404.1125
2237.74686	56333.1125
2240.65128	56191.4125
2243.55385	56094.0125
2246.45456	56032.5125
2249.35343	56026.2125
2252.25044	55954.9125
2255.14561	55902.0125
2258.03893	55793.8125
2260.93041	55718.6125
2263.82004	55522.3125
2266.70783	55431.9125
2269.59378	55355.4125
2272.4779	55355.1125
2275.36017	55119.4125
2278.24061	54950.8125
2281.11922	54921.6125
2283.996	54804.2125
2286.87094	54677.5125
2289.74405	54512.4125
2292.61534	54486.2125
2295.4848	54386.0125
2298.35243	54340.1125
2301.21824	54305.0125
2304.08223	54223.8125
2306.94439	54180.5125
2309.80474	54150.6125
2312.66327	54164.0125
2315.51999	54055.9125
2318.37489	54074.2125
2321.22797	53983.0125
2324.07925	53799.8125
2326.92871	53649.5125
2329.77637	53649.0125
2332.62222	53510.0125
2335.46626	53458.1125
2338.3085	53379.7125
2341.14893	53397.2125
2343.98756	53344.9125
2346.8244	53268.7125
2349.65943	53391.2125
2352.49267	53337.7125
2355.32411	53233.2125
2358.15376	53271.7125
2360.98161	53253.6125
2363.80768	53287.1125
2366.63195	53271.5125
2369.45444	53077.1125
2372.27514	53118.6125
2375.09405	53057.9125
2377.91118	52950.6125
2380.72652	52806.4125
2383.54009	52606.3125
2386.35187	52585.0125
2389.16188	52473.6125
2391.97011	52330.6125
2394.77657	52263.4125
2397.58125	52086.8125
2400.38416	52003.8125
2403.18529	51843.0125
2405.98466	51850.4125
2408.78226	51797.5125
2411.57809	51733.5125
2414.37216	51661.8125
2417.16446	51634.7125
2419.955	51538.5125
2422.74378	51604.0125
2425.5308	51573.9125
2428.31606	51485.1125
2431.09956	51469.9125
2433.88131	51415.9125
2436.6613	51390.1125
2439.43954	51334.7125
2442.21603	51341.1125
2444.99077	51292.1125
2447.76377	51220.7125
2450.53501	51175.5125
2453.30451	51189.5125
2456.07226	51156.0125
2458.83827	51010.2125
2461.60254	50967.2125
2464.36507	50984.8125
2467.12586	50963.6125
2469.88492	50906.2125
2472.64224	50811.6125
2475.39782	50680.9125
2478.15167	50736.1125
2480.90379	50852.3125
2483.65417	50947.3125
2486.40283	50887.1125
2489.14976	50930.7125
2491.89497	50862.6125
2494.63845	50852.2125
2497.3802	50680.5125
2500.12024	50656.3125
2502.85855	50571.8125
2505.59514	50522.8125
2508.33002	50362.8125
2511.06318	50344.3125
2513.79462	50272.0125
2516.52435	50228.7125
2519.25237	50229.6125
2521.97867	50093.5125
2524.70327	50101.2125
2527.42616	49988.8125
2530.14734	49934.6125
2532.86681	49806.8125
2535.58458	49823.6125
2538.30065	49764.6125
2541.01501	49836.1125
2543.72768	49766.6125
2546.43864	49746.4125
2549.14791	49663.4125
2551.85548	49683.4125
2554.56136	49517.1125
2557.26554	49418.4125
2559.96803	49351.4125
2562.66883	49199.7125
2565.36794	49173.0125
2568.06536	49050.1125
2570.7611	48896.1125
2573.45514	48823.8125
2576.14751	48723.0125
2578.83819	48548.7125
2581.52719	48639.7125
2584.21451	48456.6125
2586.90015	48434.8125
2589.58411	48338.9125
2592.2664	48271.7125
2594.94701	48155.7125
2597.62594	48155.0125
2600.30321	48128.9125
2602.9788	48063.7125
2605.65273	47916.4125
2608.32498	47894.3125
2610.99557	47853.4125
2613.66449	47981.9125
2616.33175	47829.6125
2618.99734	47766.2125
2621.66128	47628.0125
2624.32355	47554.8125
2626.98416	47546.7125
2629.64311	47564.3125
2632.30041	47405.0125
2634.95605	47308.8125
2637.61004	47182.5125
2640.26238	47225.2125
2642.91306	47171.9125
2645.56209	47121.4125
2648.20948	47055.8125
2650.85521	47029.7125
2653.4993	47071.7125
2656.14175	47015.9125
2658.78255	47129.8125
2661.42171	47153.2125
2664.05923	47301.4125
2666.6951	47270.3125
2669.32934	47248.8125
2671.96194	47204.0125
2674.59291	47238.7125
2677.22224	47125.3125
2679.84993	47168.0125
2682.476	47065.6125
2685.10043	47054.3125
2687.72324	46984.1125
2690.34441	46981.9125
2692.96396	46932.1125
2695.58188	46943.8125
2698.19818	46849.2125
2700.81285	46981.5125
2703.4259	46943.1125
2706.03733	47018.3125
2708.64714	46933.9125
2711.25533	46918.7125
2713.86191	46894.0125
2716.46687	47037.8125
2719.07021	46986.7125
2721.67194	46998.9125
2724.27206	46929.5125
2726.87057	46949.0125
2729.46747	46870.8125
2732.06276	46878.0125
2734.65644	46814.0125
2737.24852	46878.9125
2739.83899	46770.0125
2742.42786	46723.7125
2745.01513	46624.8125
2747.60079	46529.9125
2750.18486	46544.1125
2752.76733	46531.6125
2755.3482	46570.1125
2757.92747	46532.0125
2760.50515	46452.7125
2763.08123	46407.9125
2765.65573	46246.0125
2768.22863	46168.5125
2770.79994	46124.4125
2773.36967	46094.0125
2775.9378	46052.2125
2778.50435	45932.2125
2781.06932	45930.2125
2783.6327	45922.6125
2786.1945	45878.1125
2788.75471	45740.5125
2791.31335	45559.6125
2793.87041	45445.6125
2796.42589	45358.8125
2798.97979	45377.9125
2801.53212	45264.0125
2804.08288	45204.8125
2806.63206	45155.5125
2809.17967	45099.8125
2811.72571	44968.8125
2814.27018	44869.9125
2816.81308	44743.4125
2819.35442	44603.0125
2821.89419	44438.5125
2824.43239	44409.7125
2826.96904	44342.3125
2829.50412	44316.7125
2832.03763	44206.4125
2834.56959	44290.8125
2837.1	44198.6125
2839.62884	44183.7125
2842.15613	44047.0125
2844.68186	43972.5125
2847.20604	43848.7125
2849.72867	43859.2125
2852.24974	43725.7125
2854.76927	43657.6125
2857.28724	43601.3125
2859.80367	43648.1125
2862.31855	43606.4125
2864.83189	43667.2125
2867.34368	43586.8125
2869.85393	43562.4125
2872.36264	43407.2125
2874.8698	43351.5125
2877.37543	43289.3125
2879.87952	43240.0125
2882.38207	43168.5125
2884.88308	43122.0125
2887.38256	43085.8125
2889.88051	43042.4125
2892.37692	42990.2125
2894.8718	43002.9125
2897.36515	43103.6125
2899.85698	43061.0125
2902.34727	43153.9125
2904.83604	43091.9125
2907.32328	43211.4125
2909.809	43286.4125
2912.29319	43408.0125
2914.77587	43353.9125
2917.25702	43298.0125
2919.73665	43166.5125
2922.21476	43283.0125
2924.69136	43146.7125
2927.16644	43065.4125
2929.64	42953.8125
2932.11205	42844.6125
2934.58258	42658.6125
2937.05161	42649.0125
2939.51912	42619.1125
2941.98513	42583.7125
2944.44962	42512.5125
2946.91261	42414.1125
2949.37409	42426.3125
2951.83407	42403.6125
2954.29254	42417.7125
2956.74951	42373.4125
2959.20498	42356.4125
2961.65895	42260.8125
2964.11142	42357.4125
2966.56239	42181.1125
2969.01186	42246.5125
2971.45984	42177.3125
2973.90632	42123.1125
2976.35131	42032.5125
2978.7948	42000.2125
2981.23681	41861.0125
2983.67732	41827.1125
2986.11635	41764.1125
2988.55388	41716.9125
2990.98993	41610.7125
2993.4245	41464.5125
2995.85758	41362.3125
2998.28917	41265.3125
3000.71928	41236.0125
3003.14791	41101.5125
3005.57506	41006.9125
3008.00073	40819.5125
