Data from AgNPs_UA_1uM_CRN_0uM_R6G_10uM_Q_RamanShift__22__12-36-25-890.txt Node

Date: Wed Jul 13 12:36:25 BST 2022
User: TCL
Spectrometer: QEP01345
Trigger mode: 4
Integration Time (sec): 7.000000E0
Scans to average: 10
Electric dark correction enabled: true
Nonlinearity correction enabled: false
Boxcar width: 0
XAxis mode: Raman Shifts
Number of Pixels in Spectrum: 1044
>>>>>Begin Spectral Data<<<<<
46.04893	-2.225
50.45542	-0.225
54.85868	-1.925
59.25871	-0.425
63.6555	86.375
68.04907	90.675
72.43941	93.575
76.82654	99.275
81.21044	102.575
85.59113	107.475
89.96862	108.375
94.34289	116.275
98.71396	111.275
103.08183	118.175
107.4465	124.375
111.80798	124.275
116.16626	129.875
120.52136	135.175
124.87327	139.775
129.222	149.975
133.56755	155.575
137.90993	167.475
142.24913	183.075
146.58517	205.075
150.91804	231.575
155.24774	276.175
159.57429	340.475
163.89768	430.675
168.21792	568.175
172.53501	767.175
176.84895	1072.575
181.15975	1490.675
185.46741	2078.875
189.77193	2848.975
194.07331	3793.075
198.37157	4873.375
202.6667	5995.775
206.9587	7112.475
211.24758	8221.675
215.53334	9296.975
219.81599	10531.675
224.09553	11856.075
228.37195	13382.875
232.64527	14962.875
236.91549	16621.575
241.18261	18264.675
245.44663	19761.275
249.70755	21057.075
253.96539	22177.075
258.22014	23177.875
262.4718	23987.875
266.72039	24509.975
270.96589	24781.275
275.20832	24737.775
279.44768	24568.475
283.68397	24312.775
287.91719	24113.275
292.14735	23987.575
296.37445	24030.675
300.59849	24218.775
304.81948	24434.375
309.03742	24573.075
313.25231	24496.475
317.46415	24099.975
321.67296	23410.175
325.87872	23002.375
330.08145	22808.875
334.28114	22866.275
338.47781	23138.875
342.67145	23535.475
346.86207	23990.475
351.04966	24617.775
355.23424	25263.875
359.4158	25791.675
363.59435	26126.875
367.76989	26319.475
371.94243	26484.875
376.11196	26559.975
380.27849	26664.975
384.44203	26789.375
388.60257	26903.675
392.76012	27090.375
396.91468	27406.475
401.06626	27863.375
405.21485	28195.375
409.36047	28029.575
413.50311	27694.175
417.64277	27640.675
421.77947	27621.475
425.9132	27510.775
430.04396	27613.675
434.17176	27884.075
438.2966	28317.275
442.41849	29015.575
446.53742	29967.075
450.6534	30926.175
454.76644	31550.675
458.87653	31530.975
462.98368	31066.575
467.08789	30449.175
471.18916	29720.975
475.2875	29093.075
479.38291	28684.475
483.4754	28432.475
487.56496	28132.175
491.6516	27846.675
495.73531	27674.175
499.81612	27562.675
503.89401	27726.875
507.96899	27860.075
512.04106	27861.075
516.11023	27839.275
520.1765	27777.475
524.23987	27766.475
528.30034	27686.275
532.35792	27449.275
536.41261	27074.275
540.46441	26728.475
544.51333	26714.175
548.55936	26951.275
552.60252	27515.175
556.64279	28095.475
560.6802	28488.175
564.71473	28734.775
568.7464	29211.475
572.7752	29751.575
576.80114	30098.375
580.82422	30494.975
584.84444	31175.975
588.86181	32200.875
592.87633	33392.675
596.888	34017.975
600.89682	33955.375
604.9028	34941.275
608.90594	38072.875
612.90624	40761.575
616.90371	37418.875
620.89834	31617.375
624.89015	29646.375
628.87913	29583.075
632.86528	29276.075
636.84862	28774.875
640.82913	28140.175
644.80683	27337.775
648.78172	26967.275
652.75379	27007.275
656.72306	27434.075
660.68952	27918.375
664.65319	27712.575
668.61405	27285.075
672.57211	27163.875
676.52738	27103.975
680.47986	26993.375
684.42955	26866.175
688.37646	26875.775
692.32058	27042.075
696.26192	27377.275
700.20048	27743.775
704.13626	27925.475
708.06928	27741.875
711.99952	27484.175
715.927	27466.875
719.85171	27474.475
723.77365	27352.975
727.69284	27056.475
731.60928	26981.175
735.52295	27021.075
739.43388	27162.375
743.34206	27284.875
747.24749	27456.875
751.15017	27680.875
755.05012	28154.675
758.94733	29016.575
762.8418	30715.975
766.73354	33215.375
770.62254	35249.875
774.50882	35439.075
778.39237	33723.875
782.27321	31277.175
786.15132	29290.575
790.02671	28104.975
793.89938	27623.175
797.76935	27464.875
801.6366	27377.775
805.50115	27282.775
809.36299	27135.475
813.22213	26938.275
817.07857	26865.875
820.93231	26832.575
824.78336	26828.075
828.63172	26874.975
832.47738	26943.275
836.32036	27009.075
840.16066	27266.775
843.99827	27373.675
847.8332	27263.575
851.66546	27132.775
855.49504	27043.775
859.32195	27029.175
863.1462	26880.275
866.96777	26732.775
870.78668	26671.875
874.60293	26726.775
878.41652	26762.075
882.22745	26925.875
886.03573	26981.975
889.84136	26934.875
893.64433	26808.175
897.44466	26756.875
901.24235	26628.675
905.0374	26571.075
908.8298	26524.875
912.61957	26538.075
916.40671	26820.075
920.19121	27214.075
923.97308	27679.375
927.75233	27975.075
931.52895	27932.175
935.30295	27584.775
939.07433	26973.475
942.84309	26599.375
946.60924	26494.375
950.37278	26391.975
954.13371	26206.675
957.89203	26009.675
961.64774	25861.475
965.40086	25818.575
969.15137	25718.275
972.89929	25682.375
976.64461	25632.875
980.38733	25704.175
984.12747	25900.475
987.86502	26242.875
991.59999	26692.275
995.33237	27467.475
999.06217	28644.675
1002.78939	29866.275
1006.51404	30295.775
1010.23611	30403.575
1013.95561	30600.075
1017.67255	30630.875
1021.38692	30253.975
1025.09872	30136.575
1028.80796	30777.875
1032.51465	32138.575
1036.21877	33209.575
1039.92035	33101.575
1043.61937	32200.875
1047.31584	30894.575
1051.00976	29600.575
1054.70114	28999.175
1058.38998	28805.075
1062.07627	28814.775
1065.76003	28778.775
1069.44126	28842.775
1073.11995	29141.575
1076.79611	29492.775
1080.46974	29787.475
1084.14085	30167.775
1087.80943	30513.375
1091.47549	30546.675
1095.13903	30247.075
1098.80005	29646.475
1102.45857	29155.675
1106.11456	28969.875
1109.76805	29089.975
1113.41903	29366.475
1117.06751	29691.375
1120.71348	30165.475
1124.35696	30518.575
1127.99793	30757.375
1131.63641	30689.075
1135.2724	30295.575
1138.90589	29949.675
1142.5369	29726.275
1146.16542	29607.275
1149.79145	29669.575
1153.415	29825.075
1157.03607	30182.375
1160.65467	30836.875
1164.27079	31944.375
1167.88443	33568.775
1171.49561	35931.175
1175.10432	39128.775
1178.71056	43064.075
1182.31434	46269.075
1185.91565	47590.475
1189.51451	46684.275
1193.11091	44359.375
1196.70485	41892.875
1200.29634	39828.675
1203.88538	38312.375
1207.47197	37129.675
1211.05612	36316.675
1214.63782	35938.375
1218.21708	36119.375
1221.79391	36619.275
1225.36829	36967.075
1228.94024	36481.375
1232.50976	35411.475
1236.07685	34504.875
1239.6415	34100.975
1243.20374	33994.775
1246.76355	34199.975
1250.32093	34718.675
1253.8759	35530.275
1257.42845	36544.275
1260.97859	37571.375
1264.52631	38561.575
1268.07163	39559.575
1271.61453	40827.475
1275.15503	42248.475
1278.69312	43660.275
1282.22882	44885.575
1285.76211	45761.475
1289.29301	46714.675
1292.82151	47967.475
1296.34761	49844.775
1299.87133	52558.675
1303.39266	56108.975
1306.9116	60748.875
1310.42815	65647.575
1313.94233	68611.575
1317.45412	68213.975
1320.96354	65535.175
1324.47058	62361.475
1327.97525	59627.175
1331.47754	57713.775
1334.97747	56856.775
1338.47502	56752.075
1341.97022	56861.675
1345.46305	56631.275
1348.95352	56391.275
1352.44163	56782.275
1355.92738	58585.075
1359.41078	62297.375
1362.89183	65314.475
1366.37053	63586.275
1369.84688	57393.475
1373.32088	50668.875
1376.79254	46306.275
1380.26186	44403.875
1383.72883	43823.575
1387.19347	43581.375
1390.65578	43058.575
1394.11575	43070.575
1397.57339	43839.275
1401.0287	45006.575
1404.48168	45984.975
1407.93234	46436.575
1411.38068	46318.875
1414.82669	45429.675
1418.27039	43923.675
1421.71177	42196.275
1425.15083	40832.475
1428.58758	40223.375
1432.02203	40595.175
1435.45416	41416.975
1438.88399	42327.275
1442.31151	42982.875
1445.73673	43433.575
1449.15965	43743.675
1452.58027	43782.675
1455.9986	43498.875
1459.41463	43525.475
1462.82837	44121.575
1466.23982	45068.875
1469.64898	45847.975
1473.05586	46413.675
1476.46045	46613.775
1479.86276	46609.875
1483.26279	46453.975
1486.66054	46451.375
1490.05602	46720.875
1493.44922	47062.675
1496.84016	47356.975
1500.22882	47936.775
1503.61521	49209.075
1506.99934	51061.075
1510.38121	52822.775
1513.76081	53395.275
1517.13816	52107.675
1520.51324	49625.375
1523.88607	47215.375
1527.25665	45770.075
1530.62498	45044.775
1533.99105	44728.675
1537.35488	44509.175
1540.71647	44133.975
1544.07581	43629.875
1547.4329	43006.375
1550.78776	42326.375
1554.14038	41768.975
1557.49077	41374.475
1560.83892	41209.075
1564.18484	41165.275
1567.52853	41122.775
1570.86999	41236.175
1574.20922	41501.675
1577.54624	41611.575
1580.88103	41363.575
1584.2136	41305.675
1587.54395	42485.075
1590.87208	45056.575
1594.19801	48940.275
1597.52172	52995.375
1600.84321	54524.175
1604.16251	52446.075
1607.47959	48165.775
1610.79447	43478.975
1614.10715	39443.475
1617.41763	36353.175
1620.7259	34398.275
1624.03199	33515.075
1627.33587	33713.475
1630.63757	34855.375
1633.93707	37135.475
1637.23439	40538.775
1640.52951	45124.775
1643.82246	50008.875
1647.11321	53470.075
1650.40179	53318.475
1653.68819	49119.575
1656.97241	42733.075
1660.25446	36819.575
1663.53433	32738.875
1666.81203	30208.375
1670.08756	28659.475
1673.36092	27647.675
1676.63211	26972.175
1679.90115	26530.575
1683.16801	26159.175
1686.43272	25907.875
1689.69527	25731.375
1692.95567	25562.575
1696.2139	25494.875
1699.46999	25422.475
1702.72392	25351.575
1705.97571	25352.875
1709.22535	25318.475
1712.47284	25286.475
1715.71819	25325.375
1718.96139	25259.775
1722.20246	25168.875
1725.44139	25073.375
1728.67818	24956.875
1731.91284	24892.575
1735.14537	24733.275
1738.37576	24671.475
1741.60403	24564.075
1744.83017	24512.475
1748.05418	24478.875
1751.27607	24413.875
1754.49584	24401.775
1757.71349	24382.575
1760.92903	24358.475
1764.14244	24327.775
1767.35375	24283.975
1770.56294	24318.075
1773.77002	24286.475
1776.97499	24295.775
1780.17785	24277.775
1783.37861	24215.075
1786.57727	24185.475
1789.77382	24105.275
1792.96828	24156.775
1796.16064	24062.275
1799.3509	24104.675
1802.53907	24035.175
1805.72514	24041.975
1808.90913	23967.375
1812.09102	23946.075
1815.27083	23845.875
1818.44856	23817.575
1821.6242	23776.775
1824.79776	23739.375
1827.96924	23728.475
1831.13864	23718.275
1834.30597	23710.475
1837.47122	23707.375
1840.6344	23735.975
1843.7955	23709.775
1846.95454	23689.875
1850.11151	23654.475
1853.26642	23647.275
1856.41926	23654.575
1859.57004	23687.375
1862.71876	23718.475
1865.86542	23722.575
1869.01003	23729.975
1872.15258	23691.475
1875.29308	23717.275
1878.43152	23676.375
1881.56792	23665.375
1884.70227	23673.175
1887.83457	23678.675
1890.96482	23716.675
1894.09304	23668.075
1897.21921	23622.575
1900.34335	23658.275
1903.46544	23639.775
1906.58551	23611.675
1909.70353	23620.175
1912.81953	23629.675
1915.93349	23627.575
1919.04543	23559.875
1922.15534	23560.175
1925.26322	23508.075
1928.36908	23468.775
1931.47292	23402.575
1934.57473	23371.875
1937.67453	23309.675
1940.77232	23252.075
1943.86808	23172.975
1946.96184	23184.975
1950.05358	23072.575
1953.14331	22990.375
1956.23103	22904.575
1959.31675	22892.675
1962.40046	22822.975
1965.48217	22747.275
1968.56188	22708.975
1971.63959	22627.375
1974.7153	22539.575
1977.78901	22544.075
1980.86073	22469.575
1983.93046	22411.975
1986.99819	22340.575
1990.06394	22237.875
1993.1277	22191.275
1996.18947	22130.575
1999.24925	22092.475
2002.30706	22085.675
2005.36288	21990.775
2008.41672	21907.875
2011.46859	21860.675
2014.51848	21796.875
2017.56639	21771.275
2020.61233	21716.575
2023.6563	21654.475
2026.6983	21674.875
2029.73833	21602.575
2032.7764	21593.775
2035.8125	21574.075
2038.84664	21561.175
2041.87881	21532.275
2044.90903	21486.775
2047.93729	21497.975
2050.96359	21453.775
2053.98794	21417.175
2057.01034	21412.375
2060.03078	21442.675
2063.04927	21383.975
2066.06582	21404.575
2069.08042	21385.775
2072.09307	21351.275
2075.10378	21298.675
2078.11255	21302.575
2081.11938	21288.175
2084.12426	21286.175
2087.12722	21248.675
2090.12824	21250.175
2093.12732	21222.575
2096.12447	21289.175
2099.11969	21223.275
2102.11299	21238.275
2105.10435	21260.875
2108.09379	21275.375
2111.08131	21269.375
2114.0669	21284.475
2117.05057	21309.875
2120.03233	21336.775
2123.01216	21367.775
2125.99008	21395.975
2128.96609	21446.675
2131.94018	21434.375
2134.91236	21446.075
2137.88263	21450.075
2140.851	21484.175
2143.81746	21541.775
2146.78201	21523.575
2149.74466	21544.675
2152.7054	21580.175
2155.66425	21578.275
2158.6212	21529.075
2161.57625	21510.375
2164.52941	21544.575
2167.48067	21539.775
2170.43004	21541.675
2173.37752	21548.575
2176.32311	21561.175
2179.26681	21624.275
2182.20863	21581.375
2185.14856	21654.075
2188.08661	21665.975
2191.02278	21636.075
2193.95707	21659.675
2196.88948	21660.875
2199.82001	21658.475
2202.74867	21681.675
2205.67545	21668.475
2208.60037	21651.975
2211.52341	21631.675
2214.44458	21664.175
2217.36388	21637.975
2220.28132	21609.575
2223.1969	21595.675
2226.11061	21594.475
2229.02246	21544.375
2231.93245	21504.175
2234.84058	21451.375
2237.74686	21397.375
2240.65128	21390.375
2243.55385	21400.275
2246.45456	21353.475
2249.35343	21322.475
2252.25044	21338.275
2255.14561	21257.075
2258.03893	21241.775
2260.93041	21199.275
2263.82004	21188.275
2266.70783	21132.975
2269.59378	21065.375
2272.4779	21030.775
2275.36017	20981.675
2278.24061	20938.175
2281.11922	20888.775
2283.996	20901.175
2286.87094	20872.575
2289.74405	20853.575
2292.61534	20894.875
2295.4848	20843.775
2298.35243	20863.275
2301.21824	20888.075
2304.08223	20897.875
2306.94439	20967.175
2309.80474	21001.875
2312.66327	21028.875
2315.51999	21013.375
2318.37489	21016.375
2321.22797	20999.875
2324.07925	20976.275
2326.92871	20993.475
2329.77637	20992.475
2332.62222	20970.475
2335.46626	21008.775
2338.3085	21023.375
2341.14893	21003.475
2343.98756	21003.175
2346.8244	21025.975
2349.65943	21054.475
2352.49267	21062.975
2355.32411	21096.275
2358.15376	21089.375
2360.98161	21060.775
2363.80768	21020.175
2366.63195	20978.375
2369.45444	20974.075
2372.27514	20903.575
2375.09405	20887.075
2377.91118	20804.475
2380.72652	20799.775
2383.54009	20710.875
2386.35187	20694.575
2389.16188	20665.675
2391.97011	20642.575
2394.77657	20615.975
2397.58125	20560.075
2400.38416	20538.475
2403.18529	20530.175
2405.98466	20489.675
2408.78226	20474.475
2411.57809	20408.175
2414.37216	20380.875
2417.16446	20359.175
2419.955	20335.275
2422.74378	20329.075
2425.5308	20298.575
2428.31606	20302.975
2431.09956	20292.875
2433.88131	20287.775
2436.6613	20324.575
2439.43954	20285.375
2442.21603	20279.675
2444.99077	20330.875
2447.76377	20313.375
2450.53501	20321.075
2453.30451	20311.275
2456.07226	20273.675
2458.83827	20245.175
2461.60254	20251.075
2464.36507	20239.175
2467.12586	20221.075
2469.88492	20274.075
2472.64224	20287.575
2475.39782	20293.875
2478.15167	20316.175
2480.90379	20283.075
2483.65417	20354.675
2486.40283	20377.175
2489.14976	20409.375
2491.89497	20406.675
2494.63845	20418.375
2497.3802	20469.875
2500.12024	20452.675
2502.85855	20473.575
2505.59514	20442.675
2508.33002	20378.075
2511.06318	20411.675
2513.79462	20354.975
2516.52435	20309.575
2519.25237	20336.575
2521.97867	20310.575
2524.70327	20337.775
2527.42616	20297.075
2530.14734	20305.475
2532.86681	20318.675
2535.58458	20349.475
2538.30065	20289.975
2541.01501	20290.075
2543.72768	20288.675
2546.43864	20309.975
2549.14791	20276.075
2551.85548	20249.875
2554.56136	20260.975
2557.26554	20198.675
2559.96803	20185.375
2562.66883	20199.575
2565.36794	20146.775
2568.06536	20131.675
2570.7611	20133.875
2573.45514	20166.075
2576.14751	20208.575
2578.83819	20201.975
2581.52719	20210.375
2584.21451	20211.075
2586.90015	20197.075
2589.58411	20164.975
2592.2664	20163.975
2594.94701	20163.275
2597.62594	20174.275
2600.30321	20151.875
2602.9788	20136.175
2605.65273	20144.675
2608.32498	20133.175
2610.99557	20124.675
2613.66449	20175.275
2616.33175	20181.975
2618.99734	20234.675
2621.66128	20236.675
2624.32355	20282.475
2626.98416	20259.475
2629.64311	20272.075
2632.30041	20337.075
2634.95605	20277.875
2637.61004	20258.275
2640.26238	20219.175
2642.91306	20163.875
2645.56209	20120.075
2648.20948	20087.675
2650.85521	20061.675
2653.4993	20053.975
2656.14175	20101.575
2658.78255	20098.575
2661.42171	20129.175
2664.05923	20130.075
2666.6951	20149.675
2669.32934	20190.775
2671.96194	20186.875
2674.59291	20205.275
2677.22224	20197.275
2679.84993	20207.475
2682.476	20201.875
2685.10043	20212.575
2687.72324	20140.875
2690.34441	20128.775
2692.96396	20083.975
2695.58188	20105.475
2698.19818	20094.975
2700.81285	20102.875
2703.4259	20097.175
2706.03733	20110.975
2708.64714	20158.775
2711.25533	20158.675
2713.86191	20149.075
2716.46687	20188.675
2719.07021	20173.575
2721.67194	20192.275
2724.27206	20206.675
2726.87057	20244.775
2729.46747	20254.675
2732.06276	20222.175
2734.65644	20276.875
2737.24852	20270.275
2739.83899	20246.875
2742.42786	20257.975
2745.01513	20226.975
2747.60079	20218.475
2750.18486	20239.475
2752.76733	20173.875
2755.3482	20180.175
2757.92747	20226.775
2760.50515	20180.875
2763.08123	20226.175
2765.65573	20198.775
2768.22863	20215.575
2770.79994	20182.075
2773.36967	20198.175
2775.9378	20176.675
2778.50435	20231.775
2781.06932	20170.175
2783.6327	20194.775
2786.1945	20178.275
2788.75471	20158.975
2791.31335	20138.075
2793.87041	20105.175
2796.42589	20110.075
2798.97979	20073.375
2801.53212	20021.775
2804.08288	20019.175
2806.63206	19960.475
2809.17967	19939.175
2811.72571	19908.875
2814.27018	19890.775
2816.81308	19867.075
2819.35442	19848.375
2821.89419	19829.675
2824.43239	19851.075
2826.96904	19834.175
2829.50412	19838.175
2832.03763	19800.575
2834.56959	19815.975
2837.1	19777.675
2839.62884	19776.375
2842.15613	19761.275
2844.68186	19783.175
2847.20604	19729.775
2849.72867	19754.575
2852.24974	19726.875
2854.76927	19715.575
2857.28724	19723.975
2859.80367	19714.775
2862.31855	19687.475
2864.83189	19678.475
2867.34368	19653.775
2869.85393	19674.475
2872.36264	19632.975
2874.8698	19595.575
2877.37543	19640.875
2879.87952	19603.175
2882.38207	19610.075
2884.88308	19609.475
2887.38256	19627.275
2889.88051	19633.975
2892.37692	19655.375
2894.8718	19664.375
2897.36515	19698.575
2899.85698	19713.775
2902.34727	19798.775
2904.83604	19721.475
2907.32328	19818.775
2909.809	19871.175
2912.29319	19886.575
2914.77587	19892.775
2917.25702	19886.275
2919.73665	19846.275
2922.21476	19840.575
2924.69136	19771.175
2927.16644	19796.575
2929.64	19728.475
2932.11205	19754.475
2934.58258	19650.175
2937.05161	19721.875
2939.51912	19723.975
2941.98513	19713.675
2944.44962	19687.275
2946.91261	19623.175
2949.37409	19662.375
2951.83407	19676.375
2954.29254	19689.975
2956.74951	19672.075
2959.20498	19663.475
2961.65895	19677.275
2964.11142	19666.675
2966.56239	19662.975
2969.01186	19681.675
2971.45984	19594.375
2973.90632	19603.475
2976.35131	19568.575
2978.7948	19502.475
2981.23681	19460.475
2983.67732	19420.775
2986.11635	19365.275
2988.55388	19336.575
2990.98993	19317.575
2993.4245	19249.775
2995.85758	19244.575
2998.28917	19217.875
3000.71928	19179.175
3003.14791	19165.575
3005.57506	19117.675
3008.00073	19076.475
3010.42493	19062.275
3012.84764	19014.775
3015.26888	18995.875
3017.68865	18965.475
3020.10694	18972.475
3022.52376	18909.675
3024.9391	18932.175
3027.35298	18884.375
3029.76539	18907.175
3032.17632	18901.375
3034.5858	18853.475
3036.9938	18851.075
3039.40034	18838.875
3041.80542	18813.975
3044.20903	18793.975
3046.61118	18770.375
3049.01187	18742.175
3051.4111	18763.275
3053.80888	18749.675
3056.20519	18723.675
3058.60005	18683.575
3060.99345	18618.575
3063.3854	18596.875
3065.7759	18550.575
3068.16494	18486.275
3070.55254	18422.675
3072.93868	18391.575
3075.32338	18332.975
3077.70662	18325.775
3080.08842	18291.375
3082.46878	18276.975
3084.84769	18229.875
3087.22515	18234.775
3089.60118	18246.775
3091.97576	18232.575
3094.3489	18219.975
3096.72061	18223.575
3099.09087	18242.075
3101.4597	18249.275
3103.82709	18219.875
3106.19305	18223.175
3108.55757	18248.675
3110.92066	18193.675
3113.28232	18182.775
3115.64255	18116.775
3118.00134	18139.175
3120.35871	18119.675
3122.71466	18118.775
3125.06917	18073.575
3127.42226	18024.575
3129.77393	18040.075
