Data from AgNPs_UA_50uM_CRN_0uM_R6G_10uM_Q_RamanShift__33__12-49-41-796.txt Node

Date: Tue Jul 26 12:49:41 BST 2022
User: TCL
Spectrometer: QEP01345
Trigger mode: 4
Integration Time (sec): 7.000000E0
Scans to average: 10
Electric dark correction enabled: true
Nonlinearity correction enabled: false
Boxcar width: 0
XAxis mode: Raman Shifts
Number of Pixels in Spectrum: 1044
>>>>>Begin Spectral Data<<<<<
46.04893	1.025
50.45542	0.725
54.85868	0.125
59.25871	-1.375
63.6555	61.825
68.04907	65.625
72.43941	69.325
76.82654	79.325
81.21044	79.625
85.59113	82.425
89.96862	86.525
94.34289	90.425
98.71396	90.025
103.08183	95.425
107.4465	95.825
111.80798	99.325
116.16626	94.225
120.52136	103.525
124.87327	101.225
129.222	105.425
133.56755	111.025
137.90993	118.925
142.24913	122.625
146.58517	134.125
150.91804	146.125
155.24774	168.125
159.57429	198.325
163.89768	249.225
168.21792	323.125
172.53501	436.525
176.84895	579.025
181.15975	805.425
185.46741	1121.625
189.77193	1544.525
194.07331	2046.025
198.37157	2640.225
202.6667	3279.025
206.9587	3912.825
211.24758	4560.525
215.53334	5291.625
219.81599	6103.825
224.09553	7045.825
228.37195	8074.825
232.64527	9172.325
236.91549	10187.325
241.18261	11024.925
245.44663	11645.825
249.70755	12128.425
253.96539	12469.825
258.22014	12736.625
262.4718	12895.825
266.72039	12963.825
270.96589	12870.125
275.20832	12598.025
279.44768	12270.425
283.68397	11956.925
287.91719	11831.925
292.14735	11989.225
296.37445	12545.925
300.59849	13471.625
304.81948	14605.425
309.03742	15484.925
313.25231	15624.825
317.46415	14726.225
321.67296	13204.425
325.87872	11885.325
330.08145	11352.625
334.28114	11339.925
338.47781	11734.025
342.67145	12237.825
346.86207	13061.625
351.04966	14304.525
355.23424	15680.525
359.4158	16587.825
363.59435	16916.625
367.76989	16833.725
371.94243	16545.325
376.11196	16240.525
380.27849	15894.825
384.44203	15531.725
388.60257	15182.525
392.76012	14925.925
396.91468	15047.425
401.06626	15510.025
405.21485	15763.425
409.36047	15215.925
413.50311	14001.725
417.64277	12853.325
421.77947	12162.125
425.9132	11857.725
430.04396	11798.125
434.17176	11918.625
438.2966	12246.525
442.41849	12740.725
446.53742	13357.625
450.6534	13837.325
454.76644	14007.825
458.87653	13925.225
462.98368	13589.825
467.08789	13143.525
471.18916	12635.525
475.2875	12078.825
479.38291	11649.625
483.4754	11362.325
487.56496	11191.025
491.6516	11053.725
495.73531	11001.025
499.81612	11077.825
503.89401	11276.425
507.96899	11571.525
512.04106	11925.825
516.11023	12374.625
520.1765	12660.125
524.23987	12680.025
528.30034	12467.325
532.35792	12219.825
536.41261	11912.425
540.46441	11475.525
544.51333	11284.425
548.55936	11327.725
552.60252	11612.625
556.64279	11980.625
560.6802	12198.025
564.71473	12691.525
568.7464	13588.125
572.7752	13765.325
576.80114	12784.325
580.82422	11848.525
584.84444	11544.125
588.86181	11596.525
592.87633	11836.925
596.888	12211.025
600.89682	13206.025
604.9028	16273.525
608.90594	23726.025
612.90624	32045.025
616.90371	29218.725
620.89834	18173.225
624.89015	13328.525
628.87913	12566.925
632.86528	12795.525
636.84862	13074.925
640.82913	12571.925
644.80683	11580.125
648.78172	10944.425
652.75379	11073.525
656.72306	11929.925
660.68952	12778.325
664.65319	12358.925
668.61405	11328.325
672.57211	10911.225
676.52738	10883.225
680.47986	10746.725
684.42955	10581.625
688.37646	10484.025
692.32058	10541.625
696.26192	10727.025
700.20048	10941.625
704.13626	11047.325
708.06928	10942.425
711.99952	10788.025
715.927	10803.525
719.85171	10931.625
723.77365	11005.425
727.69284	10905.225
731.60928	10801.825
735.52295	10788.425
739.43388	10870.925
743.34206	10938.625
747.24749	10991.325
751.15017	11032.425
755.05012	11407.425
758.94733	12574.025
762.8418	15231.525
766.73354	19152.425
770.62254	22490.025
774.50882	24220.725
778.39237	23176.825
782.27321	19122.225
786.15132	14916.925
790.02671	12563.925
793.89938	11583.325
797.76935	11168.925
801.6366	10969.425
805.50115	10904.925
809.36299	10838.425
813.22213	10790.125
817.07857	10725.825
820.93231	10704.025
824.78336	10792.725
828.63172	10877.425
832.47738	10925.725
836.32036	10801.725
840.16066	10678.025
843.99827	10587.825
847.8332	10541.225
851.66546	10527.725
855.49504	10524.025
859.32195	10462.025
863.1462	10418.425
866.96777	10378.825
870.78668	10393.525
874.60293	10489.825
878.41652	10615.625
882.22745	10744.425
886.03573	10873.725
889.84136	10822.525
893.64433	10755.325
897.44466	10715.425
901.24235	10723.825
905.0374	10605.825
908.8298	10466.025
912.61957	10352.325
916.40671	10363.925
920.19121	10438.825
923.97308	10633.425
927.75233	10967.825
931.52895	11252.725
935.30295	11005.625
939.07433	10499.725
942.84309	10096.325
946.60924	9880.525
950.37278	9781.325
954.13371	9724.925
957.89203	9694.725
961.64774	9646.925
965.40086	9606.325
969.15137	9579.225
972.89929	9559.725
976.64461	9567.425
980.38733	9588.525
984.12747	9625.425
987.86502	9699.825
991.59999	9819.225
995.33237	10084.125
999.06217	10444.325
1002.78939	10853.825
1006.51404	11215.325
1010.23611	11481.025
1013.95561	11677.025
1017.67255	11682.425
1021.38692	11482.625
1025.09872	11262.025
1028.80796	11247.525
1032.51465	11457.825
1036.21877	11644.025
1039.92035	11725.725
1043.61937	11655.925
1047.31584	11479.125
1051.00976	11285.325
1054.70114	11098.925
1058.38998	11050.925
1062.07627	11083.125
1065.76003	11114.725
1069.44126	11177.925
1073.11995	11360.825
1076.79611	11663.125
1080.46974	12155.825
1084.14085	12809.325
1087.80943	13290.225
1091.47549	13285.025
1095.13903	12801.025
1098.80005	12113.925
1102.45857	11666.525
1106.11456	11607.225
1109.76805	11878.825
1113.41903	12490.325
1117.06751	13389.625
1120.71348	14664.725
1124.35696	16105.925
1127.99793	16816.525
1131.63641	15961.825
1135.2724	14505.825
1138.90589	13365.325
1142.5369	12642.725
1146.16542	12146.125
1149.79145	11877.725
1153.415	11809.225
1157.03607	11957.325
1160.65467	12281.125
1164.27079	12924.625
1167.88443	13859.325
1171.49561	15512.825
1175.10432	18214.425
1178.71056	21731.325
1182.31434	24427.825
1185.91565	25014.125
1189.51451	24039.125
1193.11091	22049.325
1196.70485	19847.425
1200.29634	18212.525
1203.88538	16831.125
1207.47197	15293.025
1211.05612	14063.725
1214.63782	13317.025
1218.21708	13040.425
1221.79391	13062.925
1225.36829	13111.125
1228.94024	13166.625
1232.50976	13223.325
1236.07685	13287.825
1239.6415	13453.225
1243.20374	13613.425
1246.76355	13749.625
1250.32093	13936.225
1253.8759	14312.525
1257.42845	14954.725
1260.97859	15691.125
1264.52631	16423.025
1268.07163	17040.625
1271.61453	17470.125
1275.15503	17711.825
1278.69312	17798.325
1282.22882	18162.625
1285.76211	18901.325
1289.29301	19818.125
1292.82151	20609.925
1296.34761	21577.925
1299.87133	23165.425
1303.39266	26079.025
1306.9116	30478.725
1310.42815	34846.325
1313.94233	36036.125
1317.45412	33247.125
1320.96354	29088.125
1324.47058	25360.325
1327.97525	22742.025
1331.47754	21567.125
1334.97747	21554.825
1338.47502	22233.625
1341.97022	23502.525
1345.46305	25423.725
1348.95352	28016.425
1352.44163	31221.625
1355.92738	36136.925
1359.41078	43209.125
1362.89183	47799.725
1366.37053	43638.425
1369.84688	34633.425
1373.32088	27296.425
1376.79254	23069.125
1380.26186	20829.325
1383.72883	19356.825
1387.19347	18116.325
1390.65578	16867.725
1394.11575	15895.325
1397.57339	15415.025
1401.0287	15339.925
1404.48168	15551.125
1407.93234	15949.125
1411.38068	16473.725
1414.82669	16792.825
1418.27039	16739.825
1421.71177	16431.125
1425.15083	16196.625
1428.58758	16338.825
1432.02203	16773.525
1435.45416	16996.025
1438.88399	16963.225
1442.31151	16822.425
1445.73673	16821.325
1449.15965	16857.025
1452.58027	16568.425
1455.9986	16194.525
1459.41463	16054.925
1462.82837	16314.325
1466.23982	16792.225
1469.64898	17279.625
1473.05586	17629.425
1476.46045	17931.125
1479.86276	18384.325
1483.26279	18939.325
1486.66054	19774.825
1490.05602	20933.025
1493.44922	22656.425
1496.84016	25331.525
1500.22882	29371.425
1503.61521	34931.925
1506.99934	40872.825
1510.38121	45028.625
1513.76081	44754.425
1517.13816	39558.325
1520.51324	32316.125
1523.88607	26391.525
1527.25665	22834.325
1530.62498	20961.125
1533.99105	19869.225
1537.35488	19248.425
1540.71647	18988.325
1544.07581	18937.925
1547.4329	18949.725
1550.78776	18952.925
1554.14038	18908.925
1557.49077	18950.725
1560.83892	19230.925
1564.18484	20000.725
1567.52853	21067.225
1570.86999	21828.925
1574.20922	22185.125
1577.54624	21697.625
1580.88103	19958.225
1584.2136	17955.525
1587.54395	16939.325
1590.87208	17230.825
1594.19801	18666.425
1597.52172	20712.425
1600.84321	21797.325
1604.16251	21263.525
1607.47959	19688.725
1610.79447	17731.225
1614.10715	15847.025
1617.41763	14454.225
1620.7259	13650.725
1624.03199	13325.225
1627.33587	13495.925
1630.63757	14043.925
1633.93707	15101.025
1637.23439	16850.925
1640.52951	19538.625
1643.82246	23307.125
1647.11321	27292.925
1650.40179	29197.925
1653.68819	27155.925
1656.97241	22323.225
1660.25446	17643.125
1663.53433	14547.625
1666.81203	12734.525
1670.08756	11688.225
1673.36092	11051.225
1676.63211	10650.625
1679.90115	10340.425
1683.16801	10110.025
1686.43272	9935.925
1689.69527	9839.925
1692.95567	9780.825
1696.2139	9727.925
1699.46999	9702.325
1702.72392	9655.025
1705.97571	9653.425
1709.22535	9653.525
1712.47284	9647.225
1715.71819	9666.025
1718.96139	9646.425
1722.20246	9577.225
1725.44139	9488.525
1728.67818	9425.225
1731.91284	9322.425
1735.14537	9232.425
1738.37576	9198.125
1741.60403	9106.525
1744.83017	9082.925
1748.05418	9029.925
1751.27607	9016.025
1754.49584	8966.925
1757.71349	8959.025
1760.92903	8924.325
1764.14244	8900.025
1767.35375	8878.225
1770.56294	8830.925
1773.77002	8797.925
1776.97499	8756.625
1780.17785	8748.225
1783.37861	8736.225
1786.57727	8700.725
1789.77382	8693.425
1792.96828	8692.425
1796.16064	8650.525
1799.3509	8671.025
1802.53907	8650.425
1805.72514	8617.825
1808.90913	8579.025
1812.09102	8547.725
1815.27083	8505.225
1818.44856	8500.025
1821.6242	8462.525
1824.79776	8448.325
1827.96924	8430.425
1831.13864	8393.225
1834.30597	8393.325
1837.47122	8393.625
1840.6344	8394.625
1843.7955	8352.625
1846.95454	8362.725
1850.11151	8359.825
1853.26642	8332.625
1856.41926	8339.625
1859.57004	8353.225
1862.71876	8356.425
1865.86542	8332.125
1869.01003	8342.425
1872.15258	8330.825
1875.29308	8345.525
1878.43152	8331.025
1881.56792	8344.125
1884.70227	8336.025
1887.83457	8330.425
1890.96482	8308.925
1894.09304	8296.225
1897.21921	8281.925
1900.34335	8261.625
1903.46544	8282.625
1906.58551	8278.325
1909.70353	8280.625
1912.81953	8287.325
1915.93349	8261.725
1919.04543	8244.625
1922.15534	8224.625
1925.26322	8214.825
1928.36908	8194.125
1931.47292	8167.125
1934.57473	8157.825
1937.67453	8123.625
1940.77232	8079.125
1943.86808	8083.825
1946.96184	8046.025
1950.05358	8020.125
1953.14331	8010.325
1956.23103	7989.225
1959.31675	7958.025
1962.40046	7934.925
1965.48217	7921.925
1968.56188	7920.225
1971.63959	7898.225
1974.7153	7895.125
1977.78901	7857.025
1980.86073	7822.425
1983.93046	7767.725
1986.99819	7742.725
1990.06394	7732.525
1993.1277	7683.425
1996.18947	7669.325
1999.24925	7646.525
2002.30706	7608.725
2005.36288	7582.925
2008.41672	7584.525
2011.46859	7540.225
2014.51848	7508.125
2017.56639	7477.325
2020.61233	7471.525
2023.6563	7448.925
2026.6983	7427.525
2029.73833	7403.225
2032.7764	7416.925
2035.8125	7393.625
2038.84664	7378.725
2041.87881	7385.325
2044.90903	7367.725
2047.93729	7359.625
2050.96359	7345.425
2053.98794	7339.325
2057.01034	7312.525
2060.03078	7323.325
2063.04927	7285.125
2066.06582	7306.925
2069.08042	7285.025
2072.09307	7254.125
2075.10378	7245.125
2078.11255	7246.925
2081.11938	7232.225
2084.12426	7240.325
2087.12722	7235.925
2090.12824	7227.225
2093.12732	7236.525
2096.12447	7222.325
2099.11969	7208.325
2102.11299	7198.925
2105.10435	7208.925
2108.09379	7231.625
2111.08131	7204.925
2114.0669	7231.125
2117.05057	7240.025
2120.03233	7261.325
2123.01216	7252.525
2125.99008	7260.725
2128.96609	7237.525
2131.94018	7272.325
2134.91236	7246.225
2137.88263	7263.825
2140.851	7251.725
2143.81746	7211.525
2146.78201	7220.125
2149.74466	7219.725
2152.7054	7215.525
2155.66425	7227.325
2158.6212	7204.825
2161.57625	7199.125
2164.52941	7173.025
2167.48067	7166.325
2170.43004	7195.825
2173.37752	7177.425
2176.32311	7172.825
2179.26681	7176.825
2182.20863	7171.125
2185.14856	7187.925
2188.08661	7175.025
2191.02278	7166.425
2193.95707	7179.025
2196.88948	7167.925
2199.82001	7170.225
2202.74867	7148.825
2205.67545	7172.925
2208.60037	7145.425
2211.52341	7160.125
2214.44458	7125.825
2217.36388	7095.525
2220.28132	7095.725
2223.1969	7081.525
2226.11061	7070.825
2229.02246	7046.225
2231.93245	7051.025
2234.84058	7035.025
2237.74686	6995.525
2240.65128	7017.325
2243.55385	6980.925
2246.45456	7002.825
2249.35343	6979.425
2252.25044	7006.525
2255.14561	7009.025
2258.03893	7021.125
2260.93041	7016.025
2263.82004	7016.525
2266.70783	6998.825
2269.59378	6962.025
2272.4779	6959.525
2275.36017	6931.725
2278.24061	6883.725
2281.11922	6885.125
2283.996	6859.625
2286.87094	6849.225
2289.74405	6833.725
2292.61534	6801.125
2295.4848	6789.925
2298.35243	6780.225
2301.21824	6775.125
2304.08223	6776.425
2306.94439	6812.125
2309.80474	6792.525
2312.66327	6813.025
2315.51999	6799.425
2318.37489	6804.425
2321.22797	6787.625
2324.07925	6793.625
2326.92871	6773.925
2329.77637	6764.625
2332.62222	6761.525
2335.46626	6751.925
2338.3085	6748.525
2341.14893	6754.325
2343.98756	6777.925
2346.8244	6787.025
2349.65943	6808.925
2352.49267	6818.925
2355.32411	6821.325
2358.15376	6815.625
2360.98161	6817.725
2363.80768	6838.125
2366.63195	6846.825
2369.45444	6844.825
2372.27514	6832.625
2375.09405	6831.525
2377.91118	6808.625
2380.72652	6769.925
2383.54009	6718.825
2386.35187	6700.125
2389.16188	6661.325
2391.97011	6653.825
2394.77657	6626.925
2397.58125	6603.625
2400.38416	6596.625
2403.18529	6561.325
2405.98466	6556.625
2408.78226	6525.425
2411.57809	6515.525
2414.37216	6487.325
2417.16446	6504.125
2419.955	6494.725
2422.74378	6498.225
2425.5308	6488.025
2428.31606	6480.625
2431.09956	6480.625
2433.88131	6476.025
2436.6613	6506.025
2439.43954	6503.925
2442.21603	6496.525
2444.99077	6486.825
2447.76377	6471.225
2450.53501	6490.125
2453.30451	6478.025
2456.07226	6491.825
2458.83827	6466.725
2461.60254	6487.025
2464.36507	6441.625
2467.12586	6433.625
2469.88492	6450.025
2472.64224	6464.225
2475.39782	6480.725
2478.15167	6473.425
2480.90379	6484.625
2483.65417	6536.425
2486.40283	6562.525
2489.14976	6575.525
2491.89497	6573.625
2494.63845	6602.225
2497.3802	6575.625
2500.12024	6572.925
2502.85855	6542.725
2505.59514	6523.525
2508.33002	6485.125
2511.06318	6472.325
2513.79462	6436.525
2516.52435	6424.025
2519.25237	6388.025
2521.97867	6371.625
2524.70327	6343.725
2527.42616	6336.625
2530.14734	6330.025
2532.86681	6342.925
2535.58458	6337.725
2538.30065	6320.125
2541.01501	6322.925
2543.72768	6331.925
2546.43864	6332.225
2549.14791	6338.725
2551.85548	6342.925
2554.56136	6322.325
2557.26554	6317.825
2559.96803	6326.025
2562.66883	6296.325
2565.36794	6292.125
2568.06536	6293.225
2570.7611	6282.325
2573.45514	6273.225
2576.14751	6249.425
2578.83819	6247.325
2581.52719	6242.225
2584.21451	6234.725
2586.90015	6240.625
2589.58411	6220.625
2592.2664	6232.925
2594.94701	6209.625
2597.62594	6219.725
2600.30321	6211.425
2602.9788	6198.525
2605.65273	6226.725
2608.32498	6209.425
2610.99557	6223.425
2613.66449	6217.525
2616.33175	6223.925
2618.99734	6244.625
2621.66128	6243.725
2624.32355	6243.025
2626.98416	6236.525
2629.64311	6225.425
2632.30041	6213.325
2634.95605	6230.425
2637.61004	6211.825
2640.26238	6205.425
2642.91306	6180.825
2645.56209	6192.625
2648.20948	6149.625
2650.85521	6156.625
2653.4993	6160.525
2656.14175	6156.725
2658.78255	6171.025
2661.42171	6171.625
2664.05923	6194.325
2666.6951	6210.225
2669.32934	6211.125
2671.96194	6229.125
2674.59291	6239.025
2677.22224	6220.725
2679.84993	6229.725
2682.476	6216.825
2685.10043	6234.325
2687.72324	6200.325
2690.34441	6201.225
2692.96396	6194.525
2695.58188	6191.725
2698.19818	6190.025
2700.81285	6191.525
2703.4259	6180.425
2706.03733	6185.925
2708.64714	6185.925
2711.25533	6198.725
2713.86191	6179.825
2716.46687	6191.725
2719.07021	6218.825
2721.67194	6209.925
2724.27206	6213.125
2726.87057	6191.125
2729.46747	6197.925
2732.06276	6185.025
2734.65644	6195.225
2737.24852	6195.425
2739.83899	6189.225
2742.42786	6180.925
2745.01513	6179.625
2747.60079	6153.325
2750.18486	6147.125
2752.76733	6121.325
2755.3482	6133.325
2757.92747	6144.925
2760.50515	6110.725
2763.08123	6109.925
2765.65573	6109.725
2768.22863	6099.825
2770.79994	6102.625
2773.36967	6110.125
2775.9378	6097.625
2778.50435	6107.425
2781.06932	6095.425
2783.6327	6109.825
2786.1945	6121.425
2788.75471	6116.925
2791.31335	6088.625
2793.87041	6100.625
2796.42589	6080.425
2798.97979	6081.425
2801.53212	6067.125
2804.08288	6086.925
2806.63206	6075.125
2809.17967	6066.925
2811.72571	6051.925
2814.27018	6055.525
2816.81308	6075.925
2819.35442	6093.925
2821.89419	6106.225
2824.43239	6104.725
2826.96904	6078.625
2829.50412	6106.625
2832.03763	6089.525
2834.56959	6091.725
2837.1	6073.225
2839.62884	6090.125
2842.15613	6088.425
2844.68186	6094.625
2847.20604	6104.825
2849.72867	6115.225
2852.24974	6108.425
2854.76927	6103.325
2857.28724	6101.225
2859.80367	6110.525
2862.31855	6121.525
2864.83189	6116.525
2867.34368	6131.525
2869.85393	6125.825
2872.36264	6098.325
2874.8698	6120.125
2877.37543	6092.725
2879.87952	6083.725
2882.38207	6072.025
2884.88308	6067.325
2887.38256	6081.525
2889.88051	6056.825
2892.37692	6059.825
2894.8718	6051.725
2897.36515	6058.025
2899.85698	6059.725
2902.34727	6074.825
2904.83604	6077.625
2907.32328	6087.725
2909.809	6074.225
2912.29319	6072.525
2914.77587	6065.725
2917.25702	6051.625
2919.73665	6033.325
2922.21476	6024.125
2924.69136	6019.225
2927.16644	6013.925
2929.64	5990.225
2932.11205	5976.825
2934.58258	5971.825
2937.05161	5980.725
2939.51912	5963.525
2941.98513	5944.425
2944.44962	5936.425
2946.91261	5921.725
2949.37409	5920.125
2951.83407	5898.425
2954.29254	5904.625
2956.74951	5902.225
2959.20498	5896.825
2961.65895	5875.125
2964.11142	5877.725
2966.56239	5852.025
2969.01186	5837.725
2971.45984	5838.225
2973.90632	5821.925
2976.35131	5804.825
2978.7948	5787.625
2981.23681	5775.025
2983.67732	5745.225
2986.11635	5751.225
2988.55388	5730.325
2990.98993	5714.825
2993.4245	5697.325
2995.85758	5699.525
2998.28917	5685.825
3000.71928	5687.925
3003.14791	5651.625
3005.57506	5649.025
3008.00073	5623.625
3010.42493	5627.725
3012.84764	5609.925
3015.26888	5631.325
3017.68865	5601.425
3020.10694	5575.625
3022.52376	5566.225
3024.9391	5553.925
3027.35298	5541.225
3029.76539	5540.425
3032.17632	5521.725
3034.5858	5517.225
3036.9938	5504.025
3039.40034	5490.725
3041.80542	5500.525
3044.20903	5471.225
3046.61118	5485.825
3049.01187	5452.425
3051.4111	5442.125
3053.80888	5425.825
3056.20519	5415.425
3058.60005	5375.725
3060.99345	5390.725
3063.3854	5371.925
3065.7759	5361.125
3068.16494	5347.125
3070.55254	5330.025
3072.93868	5314.225
3075.32338	5291.425
3077.70662	5270.925
3080.08842	5236.625
3082.46878	5258.825
3084.84769	5249.725
3087.22515	5242.225
3089.60118	5228.525
3091.97576	5227.225
3094.3489	5221.025
3096.72061	5216.025
3099.09087	5207.425
3101.4597	5208.025
3103.82709	5209.825
3106.19305	5198.725
3108.55757	5199.725
3110.92066	5179.225
3113.28232	5160.025
3115.64255	5190.025
3118.00134	5164.625
3120.35871	5162.025
3122.71466	5158.625
3125.06917	5159.625
3127.42226	5136.525
3129.77393	5133.225
3132.12417	5145.925
3134.47299	5127.125
3136.82039	5124.125
3139.16636	5130.525
3141.51092	5133.525
3143.85406	5157.725
3146.19579	5151.825
3148.53609	5146.725
3150.87499	5145.025
3153.21246	5152.925
3155.54853	5157.925
3157.88318	5155.325
3160.21642	5154.225
3162.54826	5158.125
3164.87868	5156.325
3167.2077	5159.725
3169.5353	5159.025
3171.86151	5143.525
3174.18631	5166.625
3176.5097	5147.425
3178.83169	5150.325
3181.15228	5146.525
3183.47147	5148.125
3185.78926	5143.425
3188.10565	5118.125
3190.42065	5148.325
3192.73424	5149.425
3195.04645	5143.025
