Data from AgNPs_UA_50uM_CRN_0uM_R6G_10uM_Q_RamanShift__28__12-43-51-789.txt Node

Date: Tue Jul 26 12:43:51 BST 2022
User: TCL
Spectrometer: QEP01345
Trigger mode: 4
Integration Time (sec): 7.000000E0
Scans to average: 10
Electric dark correction enabled: true
Nonlinearity correction enabled: false
Boxcar width: 0
XAxis mode: Raman Shifts
Number of Pixels in Spectrum: 1044
>>>>>Begin Spectral Data<<<<<
46.04893	0.0125
50.45542	0.4125
54.85868	0.5125
59.25871	-1.2875
63.6555	75.0125
68.04907	79.8125
72.43941	85.2125
76.82654	90.9125
81.21044	95.8125
85.59113	96.5125
89.96862	101.3125
94.34289	108.2125
98.71396	112.2125
103.08183	112.3125
107.4465	114.1125
111.80798	117.7125
116.16626	118.6125
120.52136	125.5125
124.87327	123.8125
129.222	130.4125
133.56755	138.5125
137.90993	145.5125
142.24913	151.7125
146.58517	166.9125
150.91804	187.7125
155.24774	217.5125
159.57429	262.6125
163.89768	326.2125
168.21792	417.3125
172.53501	565.8125
176.84895	767.1125
181.15975	1066.5125
185.46741	1504.1125
189.77193	2058.8125
194.07331	2736.2125
198.37157	3530.3125
202.6667	4343.1125
206.9587	5180.0125
211.24758	6053.8125
215.53334	6931.8125
219.81599	7906.4125
224.09553	9055.0125
228.37195	10326.0125
232.64527	11642.5125
236.91549	13024.4125
241.18261	14186.0125
245.44663	15118.7125
249.70755	15893.1125
253.96539	16526.3125
258.22014	17058.0125
262.4718	17471.7125
266.72039	17769.2125
270.96589	17802.7125
275.20832	17604.6125
279.44768	17241.0125
283.68397	16888.6125
287.91719	16740.1125
292.14735	16748.6125
296.37445	17152.4125
300.59849	17888.2125
304.81948	18715.8125
309.03742	19353.9125
313.25231	19417.2125
317.46415	18682.0125
321.67296	17425.2125
325.87872	16356.3125
330.08145	15877.5125
334.28114	15961.4125
338.47781	16266.0125
342.67145	16781.0125
346.86207	17486.6125
351.04966	18571.1125
355.23424	19703.4125
359.4158	20632.3125
363.59435	21099.4125
367.76989	21234.2125
371.94243	21148.4125
376.11196	21043.4125
380.27849	20891.7125
384.44203	20707.4125
388.60257	20524.5125
392.76012	20436.2125
396.91468	20666.7125
401.06626	21110.9125
405.21485	21520.1125
409.36047	21153.9125
413.50311	20148.8125
417.64277	19173.2125
421.77947	18593.3125
425.9132	18344.4125
430.04396	18321.3125
434.17176	18505.5125
438.2966	18835.8125
442.41849	19387.5125
446.53742	20041.6125
450.6534	20684.1125
454.76644	21147.5125
458.87653	21200.2125
462.98368	20969.7125
467.08789	20574.0125
471.18916	19996.5125
475.2875	19390.1125
479.38291	18874.9125
483.4754	18577.7125
487.56496	18363.4125
491.6516	18194.3125
495.73531	18078.3125
499.81612	18085.6125
503.89401	18256.0125
507.96899	18486.8125
512.04106	18784.0125
516.11023	19083.9125
520.1765	19368.3125
524.23987	19383.3125
528.30034	19233.1125
532.35792	18996.7125
536.41261	18692.3125
540.46441	18379.7125
544.51333	18228.6125
548.55936	18337.4125
552.60252	18664.6125
556.64279	19032.1125
560.6802	19253.4125
564.71473	19554.4125
568.7464	20261.3125
572.7752	20470.9125
576.80114	19804.6125
580.82422	19216.6125
584.84444	19126.8125
588.86181	19357.6125
592.87633	19726.3125
596.888	20245.9125
600.89682	21251.0125
604.9028	24306.4125
608.90594	31263.3125
612.90624	38555.8125
616.90371	35627.9125
620.89834	25698.5125
624.89015	21497.8125
628.87913	20945.6125
632.86528	20911.5125
636.84862	20812.0125
640.82913	20149.2125
644.80683	19099.7125
648.78172	18397.3125
652.75379	18452.9125
656.72306	19222.8125
660.68952	20094.4125
664.65319	19873.7125
668.61405	19085.3125
672.57211	18746.7125
676.52738	18653.6125
680.47986	18532.4125
684.42955	18323.5125
688.37646	18344.5125
692.32058	18444.3125
696.26192	18610.7125
700.20048	18840.8125
704.13626	18908.4125
708.06928	18731.5125
711.99952	18541.2125
715.927	18543.3125
719.85171	18669.0125
723.77365	18620.1125
727.69284	18469.2125
731.60928	18392.4125
735.52295	18419.3125
739.43388	18540.2125
743.34206	18728.9125
747.24749	18810.5125
751.15017	18950.8125
755.05012	19288.6125
758.94733	20363.9125
762.8418	22788.0125
766.73354	26442.3125
770.62254	29762.9125
774.50882	31272.8125
778.39237	29929.2125
782.27321	26102.5125
786.15132	22414.9125
790.02671	20318.0125
793.89938	19348.0125
797.76935	18990.5125
801.6366	18894.2125
805.50115	18788.2125
809.36299	18689.6125
813.22213	18574.1125
817.07857	18494.8125
820.93231	18476.6125
824.78336	18584.1125
828.63172	18726.6125
832.47738	18769.7125
836.32036	18807.1125
840.16066	18828.9125
843.99827	18887.8125
847.8332	18801.0125
851.66546	18664.5125
855.49504	18612.4125
859.32195	18606.1125
863.1462	18458.1125
866.96777	18351.6125
870.78668	18380.4125
874.60293	18390.7125
878.41652	18502.7125
882.22745	18664.0125
886.03573	18793.7125
889.84136	18775.4125
893.64433	18644.7125
897.44466	18579.3125
901.24235	18545.9125
905.0374	18467.4125
908.8298	18366.0125
912.61957	18350.5125
916.40671	18442.3125
920.19121	18712.3125
923.97308	19025.5125
927.75233	19491.1125
931.52895	19770.5125
935.30295	19565.0125
939.07433	18931.6125
942.84309	18479.4125
946.60924	18285.7125
950.37278	18189.6125
954.13371	18016.3125
957.89203	17829.4125
961.64774	17729.6125
965.40086	17658.3125
969.15137	17627.5125
972.89929	17548.0125
976.64461	17562.0125
980.38733	17603.0125
984.12747	17718.4125
987.86502	17933.5125
991.59999	18286.4125
995.33237	18848.3125
999.06217	19838.1125
1002.78939	20916.5125
1006.51404	21428.9125
1010.23611	21629.8125
1013.95561	21898.2125
1017.67255	22084.5125
1021.38692	22054.1125
1025.09872	22163.6125
1028.80796	22800.9125
1032.51465	23938.9125
1036.21877	24794.2125
1039.92035	24693.8125
1043.61937	23957.9125
1047.31584	22842.2125
1051.00976	21629.8125
1054.70114	21010.2125
1058.38998	20851.2125
1062.07627	20761.4125
1065.76003	20644.6125
1069.44126	20626.3125
1073.11995	20749.9125
1076.79611	21047.6125
1080.46974	21503.6125
1084.14085	22088.4125
1087.80943	22526.9125
1091.47549	22433.0125
1095.13903	21914.6125
1098.80005	21256.1125
1102.45857	20836.2125
1106.11456	20785.2125
1109.76805	21077.3125
1113.41903	21667.3125
1117.06751	22442.5125
1120.71348	23450.5125
1124.35696	24532.3125
1127.99793	25116.2125
1131.63641	24614.8125
1135.2724	23485.8125
1138.90589	22553.0125
1142.5369	21911.1125
1146.16542	21390.2125
1149.79145	21076.9125
1153.415	21077.7125
1157.03607	21296.8125
1160.65467	21690.9125
1164.27079	22445.3125
1167.88443	23646.9125
1171.49561	25553.1125
1175.10432	28578.6125
1178.71056	32535.0125
1182.31434	35863.3125
1185.91565	37234.4125
1189.51451	36482.4125
1193.11091	34144.3125
1196.70485	31436.7125
1200.29634	29398.3125
1203.88538	27810.0125
1207.47197	26238.1125
1211.05612	24949.7125
1214.63782	24305.4125
1218.21708	24242.6125
1221.79391	24576.0125
1225.36829	24875.2125
1228.94024	24762.6125
1232.50976	24384.7125
1236.07685	24119.4125
1239.6415	24069.6125
1243.20374	24223.5125
1246.76355	24558.2125
1250.32093	24988.5125
1253.8759	25670.8125
1257.42845	26638.7125
1260.97859	27506.4125
1264.52631	28336.4125
1268.07163	29136.9125
1271.61453	29958.4125
1275.15503	30880.2125
1278.69312	31798.8125
1282.22882	32695.2125
1285.76211	33522.6125
1289.29301	34248.6125
1292.82151	35046.8125
1296.34761	36197.2125
1299.87133	38329.6125
1303.39266	41855.5125
1306.9116	47098.8125
1310.42815	52446.4125
1313.94233	54551.8125
1317.45412	52214.8125
1320.96354	47884.8125
1324.47058	43539.0125
1327.97525	40233.1125
1331.47754	38401.4125
1334.97747	38048.4125
1338.47502	38624.0125
1341.97022	39842.7125
1345.46305	41663.3125
1348.95352	43712.3125
1352.44163	46241.1125
1355.92738	50540.1125
1359.41078	57291.0125
1362.89183	62492.6125
1366.37053	58826.7125
1369.84688	49311.7125
1373.32088	41075.5125
1376.79254	36238.0125
1380.26186	33605.4125
1383.72883	32045.8125
1387.19347	30864.0125
1390.65578	29761.7125
1394.11575	28911.5125
1397.57339	28716.1125
1401.0287	28913.6125
1404.48168	29415.2125
1407.93234	29977.7125
1411.38068	30610.0125
1414.82669	30936.8125
1418.27039	30730.9125
1421.71177	30100.8125
1425.15083	29492.5125
1428.58758	29400.8125
1432.02203	29735.6125
1435.45416	30121.7125
1438.88399	30149.9125
1442.31151	30032.3125
1445.73673	30057.3125
1449.15965	30111.4125
1452.58027	29931.2125
1455.9986	29523.0125
1459.41463	29365.7125
1462.82837	29680.5125
1466.23982	30214.2125
1469.64898	30947.7125
1473.05586	31436.3125
1476.46045	31893.0125
1479.86276	32446.3125
1483.26279	33158.8125
1486.66054	33940.1125
1490.05602	34974.1125
1493.44922	36536.9125
1496.84016	38799.0125
1500.22882	42102.8125
1503.61521	46807.1125
1506.99934	51916.9125
1510.38121	55625.9125
1513.76081	55609.0125
1517.13816	51409.6125
1520.51324	45099.8125
1523.88607	39802.0125
1527.25665	36432.3125
1530.62498	34507.9125
1533.99105	33409.4125
1537.35488	32674.7125
1540.71647	32351.1125
1544.07581	32208.3125
1547.4329	32101.4125
1550.78776	31980.1125
1554.14038	31884.0125
1557.49077	31914.6125
1560.83892	32125.0125
1564.18484	32639.4125
1567.52853	33304.1125
1570.86999	33680.4125
1574.20922	33880.7125
1577.54624	33496.1125
1580.88103	32097.3125
1584.2136	30683.4125
1587.54395	30364.9125
1590.87208	31571.7125
1594.19801	34346.8125
1597.52172	37589.4125
1600.84321	39204.0125
1604.16251	38145.7125
1607.47959	35324.0125
1610.79447	32096.0125
1614.10715	29188.5125
1617.41763	26957.5125
1620.7259	25633.4125
1624.03199	25113.3125
1627.33587	25365.8125
1630.63757	26271.3125
1633.93707	28035.3125
1637.23439	30342.6125
1640.52951	33366.3125
1643.82246	37035.5125
1647.11321	40500.1125
1650.40179	41873.8125
1653.68819	39280.0125
1656.97241	33857.5125
1660.25446	28581.4125
1663.53433	25010.4125
1666.81203	22865.6125
1670.08756	21567.4125
1673.36092	20740.5125
1676.63211	20200.4125
1679.90115	19800.9125
1683.16801	19464.5125
1686.43272	19273.5125
1689.69527	19087.1125
1692.95567	19004.3125
1696.2139	18922.2125
1699.46999	18871.9125
1702.72392	18821.6125
1705.97571	18823.8125
1709.22535	18772.1125
1712.47284	18798.9125
1715.71819	18794.6125
1718.96139	18730.5125
1722.20246	18686.2125
1725.44139	18585.1125
1728.67818	18491.3125
1731.91284	18368.3125
1735.14537	18268.7125
1738.37576	18216.5125
1741.60403	18144.5125
1744.83017	18074.1125
1748.05418	18027.7125
1751.27607	18009.9125
1754.49584	17964.6125
1757.71349	17909.6125
1760.92903	17910.2125
1764.14244	17870.8125
1767.35375	17830.0125
1770.56294	17853.0125
1773.77002	17831.0125
1776.97499	17795.8125
1780.17785	17773.4125
1783.37861	17755.9125
1786.57727	17765.1125
1789.77382	17727.5125
1792.96828	17714.7125
1796.16064	17679.9125
1799.3509	17705.3125
1802.53907	17705.1125
1805.72514	17665.0125
1808.90913	17579.3125
1812.09102	17556.9125
1815.27083	17506.4125
1818.44856	17473.4125
1821.6242	17430.5125
1824.79776	17441.1125
1827.96924	17404.4125
1831.13864	17365.1125
1834.30597	17402.7125
1837.47122	17366.2125
1840.6344	17378.2125
1843.7955	17365.3125
1846.95454	17386.9125
1850.11151	17360.6125
1853.26642	17319.0125
1856.41926	17333.8125
1859.57004	17354.9125
1862.71876	17344.8125
1865.86542	17328.0125
1869.01003	17388.6125
1872.15258	17364.0125
1875.29308	17406.8125
1878.43152	17365.0125
1881.56792	17351.8125
1884.70227	17358.4125
1887.83457	17367.0125
1890.96482	17339.8125
1894.09304	17293.6125
1897.21921	17305.2125
1900.34335	17284.0125
1903.46544	17294.1125
1906.58551	17323.1125
1909.70353	17337.6125
1912.81953	17293.0125
1915.93349	17321.8125
1919.04543	17269.1125
1922.15534	17239.0125
1925.26322	17210.9125
1928.36908	17213.5125
1931.47292	17180.7125
1934.57473	17156.2125
1937.67453	17128.2125
1940.77232	17091.2125
1943.86808	17049.2125
1946.96184	17020.0125
1950.05358	16985.2125
1953.14331	16934.3125
1956.23103	16900.6125
1959.31675	16836.2125
1962.40046	16799.4125
1965.48217	16748.7125
1968.56188	16709.5125
1971.63959	16696.0125
1974.7153	16666.4125
1977.78901	16607.9125
1980.86073	16568.8125
1983.93046	16497.4125
1986.99819	16444.2125
1990.06394	16413.1125
1993.1277	16359.1125
1996.18947	16299.1125
1999.24925	16288.6125
2002.30706	16222.5125
2005.36288	16188.7125
2008.41672	16170.0125
2011.46859	16110.8125
2014.51848	16074.3125
2017.56639	16021.3125
2020.61233	16006.1125
2023.6563	15977.2125
2026.6983	15950.6125
2029.73833	15972.8125
2032.7764	15909.0125
2035.8125	15899.2125
2038.84664	15892.9125
2041.87881	15899.7125
2044.90903	15856.1125
2047.93729	15823.3125
2050.96359	15812.3125
2053.98794	15810.7125
2057.01034	15813.3125
2060.03078	15817.5125
2063.04927	15768.7125
2066.06582	15775.8125
2069.08042	15763.6125
2072.09307	15713.5125
2075.10378	15694.7125
2078.11255	15697.4125
2081.11938	15668.3125
2084.12426	15689.4125
2087.12722	15658.4125
2090.12824	15643.9125
2093.12732	15645.0125
2096.12447	15634.0125
2099.11969	15611.6125
2102.11299	15636.8125
2105.10435	15678.9125
2108.09379	15668.6125
2111.08131	15666.0125
2114.0669	15658.5125
2117.05057	15691.4125
2120.03233	15745.6125
2123.01216	15756.5125
2125.99008	15759.6125
2128.96609	15776.6125
2131.94018	15776.0125
2134.91236	15788.1125
2137.88263	15792.2125
2140.851	15805.0125
2143.81746	15802.9125
2146.78201	15793.8125
2149.74466	15831.7125
2152.7054	15836.4125
2155.66425	15867.1125
2158.6212	15828.6125
2161.57625	15801.4125
2164.52941	15788.9125
2167.48067	15814.0125
2170.43004	15816.2125
2173.37752	15829.8125
2176.32311	15792.6125
2179.26681	15825.8125
2182.20863	15794.0125
2185.14856	15807.3125
2188.08661	15858.4125
2191.02278	15816.1125
2193.95707	15850.4125
2196.88948	15877.6125
2199.82001	15868.1125
2202.74867	15886.5125
2205.67545	15906.2125
2208.60037	15908.9125
2211.52341	15896.1125
2214.44458	15904.8125
2217.36388	15915.4125
2220.28132	15880.0125
2223.1969	15866.7125
2226.11061	15861.0125
2229.02246	15829.2125
2231.93245	15793.8125
2234.84058	15763.5125
2237.74686	15693.3125
2240.65128	15695.9125
2243.55385	15625.3125
2246.45456	15636.9125
2249.35343	15646.3125
2252.25044	15652.7125
2255.14561	15653.8125
2258.03893	15682.3125
2260.93041	15640.8125
2263.82004	15603.6125
2266.70783	15570.6125
2269.59378	15549.6125
2272.4779	15500.1125
2275.36017	15470.6125
2278.24061	15430.8125
2281.11922	15394.7125
2283.996	15406.2125
2286.87094	15368.8125
2289.74405	15308.8125
2292.61534	15343.0125
2295.4848	15327.2125
2298.35243	15334.5125
2301.21824	15326.7125
2304.08223	15348.6125
2306.94439	15424.8125
2309.80474	15457.1125
2312.66327	15443.7125
2315.51999	15480.0125
2318.37489	15503.8125
2321.22797	15486.5125
2324.07925	15469.6125
2326.92871	15427.4125
2329.77637	15445.5125
2332.62222	15438.0125
2335.46626	15490.7125
2338.3085	15487.7125
2341.14893	15545.8125
2343.98756	15579.1125
2346.8244	15629.4125
2349.65943	15691.6125
2352.49267	15663.6125
2355.32411	15661.5125
2358.15376	15636.7125
2360.98161	15632.7125
2363.80768	15602.2125
2366.63195	15591.0125
2369.45444	15552.4125
2372.27514	15498.0125
2375.09405	15503.6125
2377.91118	15435.0125
2380.72652	15387.6125
2383.54009	15336.4125
2386.35187	15290.3125
2389.16188	15240.8125
2391.97011	15229.6125
2394.77657	15207.4125
2397.58125	15207.2125
2400.38416	15190.9125
2403.18529	15159.1125
2405.98466	15097.2125
2408.78226	15061.8125
2411.57809	15048.2125
2414.37216	14958.7125
2417.16446	14968.6125
2419.955	14925.1125
2422.74378	14938.6125
2425.5308	14911.4125
2428.31606	14896.2125
2431.09956	14907.0125
2433.88131	14924.0125
2436.6613	14930.1125
2439.43954	14924.2125
2442.21603	14917.8125
2444.99077	14885.1125
2447.76377	14899.4125
2450.53501	14916.1125
2453.30451	14886.4125
2456.07226	14875.9125
2458.83827	14887.2125
2461.60254	14866.4125
2464.36507	14858.0125
2467.12586	14822.8125
2469.88492	14859.7125
2472.64224	14857.0125
2475.39782	14889.9125
2478.15167	14918.4125
2480.90379	14933.6125
2483.65417	14984.6125
2486.40283	15021.1125
2489.14976	15061.1125
2491.89497	15068.0125
2494.63845	15075.9125
2497.3802	15081.5125
2500.12024	15085.8125
2502.85855	15061.2125
2505.59514	15026.2125
2508.33002	15015.8125
2511.06318	14970.8125
2513.79462	14965.3125
2516.52435	14882.5125
2519.25237	14879.1125
2521.97867	14834.4125
2524.70327	14830.5125
2527.42616	14808.0125
2530.14734	14826.2125
2532.86681	14814.3125
2535.58458	14845.6125
2538.30065	14858.9125
2541.01501	14865.6125
2543.72768	14861.2125
2546.43864	14844.8125
2549.14791	14845.2125
2551.85548	14821.2125
2554.56136	14825.0125
2557.26554	14828.4125
2559.96803	14800.6125
2562.66883	14791.5125
2565.36794	14799.9125
2568.06536	14769.2125
2570.7611	14767.5125
2573.45514	14770.9125
2576.14751	14759.0125
2578.83819	14780.1125
2581.52719	14777.6125
2584.21451	14751.9125
2586.90015	14771.9125
2589.58411	14769.3125
2592.2664	14788.3125
2594.94701	14790.4125
2597.62594	14763.2125
2600.30321	14732.1125
2602.9788	14733.1125
2605.65273	14742.6125
2608.32498	14774.2125
2610.99557	14791.7125
2613.66449	14815.2125
2616.33175	14818.6125
2618.99734	14845.8125
2621.66128	14872.8125
2624.32355	14861.7125
2626.98416	14905.0125
2629.64311	14919.6125
2632.30041	14926.0125
2634.95605	14928.3125
2637.61004	14956.5125
2640.26238	14892.5125
2642.91306	14852.6125
2645.56209	14832.8125
2648.20948	14790.7125
2650.85521	14733.3125
2653.4993	14725.7125
2656.14175	14717.8125
2658.78255	14727.3125
2661.42171	14714.9125
2664.05923	14763.7125
2666.6951	14778.1125
2669.32934	14840.7125
2671.96194	14869.7125
2674.59291	14880.3125
2677.22224	14824.3125
2679.84993	14829.6125
2682.476	14800.0125
2685.10043	14797.6125
2687.72324	14797.4125
2690.34441	14777.0125
2692.96396	14756.6125
2695.58188	14720.2125
2698.19818	14723.5125
2700.81285	14704.9125
2703.4259	14680.8125
2706.03733	14702.0125
2708.64714	14693.2125
2711.25533	14706.0125
2713.86191	14683.2125
2716.46687	14732.2125
2719.07021	14703.1125
2721.67194	14727.1125
2724.27206	14714.6125
2726.87057	14735.7125
2729.46747	14746.9125
2732.06276	14725.0125
2734.65644	14724.8125
2737.24852	14701.8125
2739.83899	14702.3125
2742.42786	14737.4125
2745.01513	14706.3125
2747.60079	14676.6125
2750.18486	14646.0125
2752.76733	14666.7125
2755.3482	14652.4125
2757.92747	14676.1125
2760.50515	14655.0125
2763.08123	14634.9125
2765.65573	14647.1125
2768.22863	14663.9125
2770.79994	14668.5125
2773.36967	14683.8125
2775.9378	14648.8125
2778.50435	14635.8125
2781.06932	14651.5125
2783.6327	14676.6125
2786.1945	14663.3125
2788.75471	14648.0125
2791.31335	14623.2125
2793.87041	14582.0125
2796.42589	14577.2125
2798.97979	14599.3125
2801.53212	14517.5125
2804.08288	14514.6125
2806.63206	14489.6125
2809.17967	14480.7125
2811.72571	14459.5125
2814.27018	14453.5125
2816.81308	14483.3125
2819.35442	14472.2125
2821.89419	14480.1125
2824.43239	14464.7125
2826.96904	14487.3125
2829.50412	14486.4125
2832.03763	14442.7125
2834.56959	14451.5125
2837.1	14407.7125
2839.62884	14408.0125
2842.15613	14390.5125
2844.68186	14416.9125
2847.20604	14397.4125
2849.72867	14387.7125
2852.24974	14354.1125
2854.76927	14372.4125
2857.28724	14372.5125
2859.80367	14371.4125
2862.31855	14366.6125
2864.83189	14362.7125
2867.34368	14344.2125
2869.85393	14352.6125
2872.36264	14333.7125
2874.8698	14343.1125
2877.37543	14315.5125
2879.87952	14306.2125
2882.38207	14327.2125
2884.88308	14334.4125
2887.38256	14333.3125
2889.88051	14319.7125
2892.37692	14306.5125
2894.8718	14352.2125
2897.36515	14317.4125
2899.85698	14345.4125
2902.34727	14394.6125
2904.83604	14415.2125
2907.32328	14460.6125
2909.809	14448.0125
2912.29319	14426.4125
2914.77587	14407.1125
2917.25702	14412.4125
2919.73665	14387.2125
2922.21476	14355.7125
2924.69136	14361.2125
2927.16644	14365.8125
2929.64	14295.7125
2932.11205	14275.6125
2934.58258	14237.6125
2937.05161	14260.1125
2939.51912	14291.7125
2941.98513	14254.6125
2944.44962	14272.5125
2946.91261	14230.9125
2949.37409	14223.8125
2951.83407	14204.7125
2954.29254	14215.4125
2956.74951	14244.5125
2959.20498	14215.5125
2961.65895	14203.0125
2964.11142	14188.8125
2966.56239	14115.3125
2969.01186	14128.5125
2971.45984	14098.2125
2973.90632	14114.1125
2976.35131	14074.1125
2978.7948	14022.0125
2981.23681	14001.6125
2983.67732	13968.5125
2986.11635	13942.8125
2988.55388	13912.4125
2990.98993	13881.3125
2993.4245	13867.5125
2995.85758	13846.6125
2998.28917	13820.9125
3000.71928	13831.4125
3003.14791	13772.7125
3005.57506	13755.7125
3008.00073	13720.1125
3010.42493	13701.2125
3012.84764	13685.0125
3015.26888	13673.9125
3017.68865	13659.5125
3020.10694	13618.6125
3022.52376	13566.1125
3024.9391	13559.0125
3027.35298	13543.4125
