Data from AgNPs_UA_50uM_CRN_0uM_R6G_10uM_Q_RamanShift__15__12-28-41-771.txt Node

Date: Tue Jul 26 12:28:41 BST 2022
User: TCL
Spectrometer: QEP01345
Trigger mode: 4
Integration Time (sec): 7.000000E0
Scans to average: 10
Electric dark correction enabled: true
Nonlinearity correction enabled: false
Boxcar width: 0
XAxis mode: Raman Shifts
Number of Pixels in Spectrum: 1044
>>>>>Begin Spectral Data<<<<<
46.04893	-0.975
50.45542	0.025
54.85868	0.025
59.25871	-1.275
63.6555	78.225
68.04907	83.625
72.43941	89.825
76.82654	99.525
81.21044	99.025
85.59113	104.225
89.96862	110.725
94.34289	114.325
98.71396	118.925
103.08183	118.225
107.4465	119.325
111.80798	121.725
116.16626	126.525
120.52136	132.325
124.87327	133.425
129.222	133.025
133.56755	142.725
137.90993	148.225
142.24913	156.725
146.58517	176.125
150.91804	198.325
155.24774	221.625
159.57429	271.625
163.89768	332.925
168.21792	431.325
172.53501	579.025
176.84895	793.225
181.15975	1110.525
185.46741	1548.925
189.77193	2139.225
194.07331	2855.525
198.37157	3672.025
202.6667	4551.525
206.9587	5412.925
211.24758	6234.925
215.53334	7094.725
219.81599	7958.425
224.09553	8901.325
228.37195	9917.625
232.64527	11118.925
236.91549	12392.325
241.18261	13664.125
245.44663	14932.625
249.70755	16132.225
253.96539	17172.525
258.22014	17980.325
262.4718	18596.925
266.72039	18985.525
270.96589	19174.925
275.20832	19129.525
279.44768	18932.725
283.68397	18712.425
287.91719	18460.325
292.14735	18197.825
296.37445	18061.125
300.59849	17963.425
304.81948	17933.225
309.03742	17877.625
313.25231	17825.925
317.46415	17740.425
321.67296	17659.225
325.87872	17575.825
330.08145	17601.425
334.28114	17765.125
338.47781	17967.125
342.67145	18159.625
346.86207	18424.625
351.04966	18720.325
355.23424	19017.525
359.4158	19308.325
363.59435	19605.325
367.76989	19871.325
371.94243	20084.025
376.11196	20265.725
380.27849	20407.625
384.44203	20610.825
388.60257	20807.625
392.76012	20985.625
396.91468	21178.625
401.06626	21399.225
405.21485	21587.525
409.36047	21704.625
413.50311	21655.725
417.64277	21590.025
421.77947	21618.225
425.9132	21634.125
430.04396	21744.025
434.17176	21909.825
438.2966	22111.625
442.41849	22277.525
446.53742	22491.525
450.6534	22762.625
454.76644	22983.125
458.87653	23170.825
462.98368	23306.625
467.08789	23395.425
471.18916	23403.725
475.2875	23319.025
479.38291	23289.225
483.4754	23224.625
487.56496	23274.825
491.6516	23267.525
495.73531	23284.525
499.81612	23343.225
503.89401	23507.225
507.96899	23643.925
512.04106	23702.325
516.11023	23770.225
520.1765	23796.825
524.23987	23838.625
528.30034	23876.225
532.35792	23904.225
536.41261	23922.025
540.46441	23867.725
544.51333	23912.725
548.55936	24013.925
552.60252	24198.725
556.64279	24371.425
560.6802	24487.825
564.71473	24628.625
568.7464	24657.425
572.7752	24666.025
576.80114	24712.325
580.82422	24782.825
584.84444	24885.825
588.86181	24968.225
592.87633	24979.525
596.888	25073.025
600.89682	25344.925
604.9028	26026.125
608.90594	27256.325
612.90624	28504.025
616.90371	27872.025
620.89834	26223.425
624.89015	25507.625
628.87913	25459.125
632.86528	25633.925
636.84862	25811.225
640.82913	25788.825
644.80683	25653.325
648.78172	25515.225
652.75379	25547.625
656.72306	25779.025
660.68952	26023.825
664.65319	26057.125
668.61405	26063.625
672.57211	26177.625
676.52738	26307.525
680.47986	26218.925
684.42955	26252.725
688.37646	26257.425
692.32058	26384.125
696.26192	26493.425
700.20048	26716.825
704.13626	26876.825
708.06928	26905.525
711.99952	26869.725
715.927	26805.125
719.85171	26841.325
723.77365	26836.225
727.69284	26797.425
731.60928	26784.625
735.52295	26789.925
739.43388	26916.125
743.34206	26898.325
747.24749	26981.725
751.15017	27004.325
755.05012	27071.225
758.94733	27286.925
762.8418	27758.825
766.73354	28394.125
770.62254	29001.525
774.50882	29393.625
778.39237	29285.525
782.27321	28851.625
786.15132	28295.925
790.02671	27883.025
793.89938	27577.125
797.76935	27448.725
801.6366	27421.725
805.50115	27379.225
809.36299	27380.425
813.22213	27290.025
817.07857	27373.225
820.93231	27397.025
824.78336	27504.025
828.63172	27544.725
832.47738	27596.525
836.32036	27678.625
840.16066	27640.325
843.99827	27648.925
847.8332	27734.725
851.66546	27785.825
855.49504	27863.325
859.32195	27908.825
863.1462	27969.925
866.96777	27963.025
870.78668	28076.725
874.60293	28155.625
878.41652	28181.525
882.22745	28210.525
886.03573	28315.025
889.84136	28266.825
893.64433	28264.925
897.44466	28294.825
901.24235	28295.725
905.0374	28334.225
908.8298	28389.825
912.61957	28381.725
916.40671	28376.325
920.19121	28399.025
923.97308	28413.025
927.75233	28414.625
931.52895	28386.425
935.30295	28365.825
939.07433	28313.525
942.84309	28191.125
946.60924	28156.525
950.37278	28182.525
954.13371	28173.925
957.89203	28113.925
961.64774	28140.225
965.40086	28091.125
969.15137	28075.725
972.89929	28092.125
976.64461	28083.725
980.38733	28071.225
984.12747	28133.525
987.86502	28147.725
991.59999	28245.625
995.33237	28358.525
999.06217	28419.725
1002.78939	28580.925
1006.51404	28733.225
1010.23611	28916.925
1013.95561	29063.425
1017.67255	29086.325
1021.38692	29079.925
1025.09872	28994.925
1028.80796	28932.925
1032.51465	28877.825
1036.21877	28866.625
1039.92035	28927.925
1043.61937	29006.625
1047.31584	29027.425
1051.00976	29065.825
1054.70114	29148.125
1058.38998	29216.825
1062.07627	29320.925
1065.76003	29425.325
1069.44126	29573.625
1073.11995	29888.125
1076.79611	30180.425
1080.46974	30338.925
1084.14085	30349.725
1087.80943	30275.925
1091.47549	30301.625
1095.13903	30366.125
1098.80005	30467.925
1102.45857	30519.925
1106.11456	30424.925
1109.76805	30252.525
1113.41903	30120.425
1117.06751	30002.325
1120.71348	30057.925
1124.35696	30135.725
1127.99793	30189.125
1131.63641	30194.125
1135.2724	30050.025
1138.90589	29995.625
1142.5369	29930.625
1146.16542	29877.925
1149.79145	29820.225
1153.415	29693.625
1157.03607	29622.225
1160.65467	29655.225
1164.27079	29804.725
1167.88443	30046.025
1171.49561	30410.325
1175.10432	30949.025
1178.71056	31567.425
1182.31434	32154.625
1185.91565	32527.525
1189.51451	32832.625
1193.11091	32817.925
1196.70485	32730.225
1200.29634	32500.125
1203.88538	32208.225
1207.47197	31821.925
1211.05612	31440.325
1214.63782	31227.325
1218.21708	30946.025
1221.79391	30696.425
1225.36829	30607.225
1228.94024	30510.325
1232.50976	30507.025
1236.07685	30566.625
1239.6415	30653.325
1243.20374	30717.625
1246.76355	30851.925
1250.32093	30901.825
1253.8759	31029.225
1257.42845	31305.825
1260.97859	31585.825
1264.52631	31883.525
1268.07163	32038.025
1271.61453	32195.925
1275.15503	32201.225
1278.69312	32257.525
1282.22882	32273.825
1285.76211	32285.825
1289.29301	32358.425
1292.82151	32416.525
1296.34761	32626.925
1299.87133	32946.425
1303.39266	33303.825
1306.9116	33910.225
1310.42815	34520.925
1313.94233	34905.125
1317.45412	34899.025
1320.96354	34743.725
1324.47058	34464.625
1327.97525	34121.425
1331.47754	33766.925
1334.97747	33680.625
1338.47502	33796.125
1341.97022	34207.725
1345.46305	34781.725
1348.95352	35419.325
1352.44163	35912.725
1355.92738	36129.525
1359.41078	36250.225
1362.89183	36468.825
1366.37053	35856.925
1369.84688	34559.325
1373.32088	33220.225
1376.79254	32339.925
1380.26186	31746.825
1383.72883	31300.225
1387.19347	30997.125
1390.65578	30631.125
1394.11575	30354.825
1397.57339	30019.225
1401.0287	29904.125
1404.48168	29843.325
1407.93234	29872.025
1411.38068	29910.525
1414.82669	29918.625
1418.27039	29870.725
1421.71177	29785.925
1425.15083	29662.525
1428.58758	29531.225
1432.02203	29443.725
1435.45416	29399.125
1438.88399	29392.625
1442.31151	29365.625
1445.73673	29379.125
1449.15965	29431.225
1452.58027	29474.325
1455.9986	29468.925
1459.41463	29598.225
1462.82837	29712.725
1466.23982	29934.825
1469.64898	30180.225
1473.05586	30422.725
1476.46045	30540.625
1479.86276	30671.125
1483.26279	30724.425
1486.66054	30884.625
1490.05602	31071.725
1493.44922	31420.325
1496.84016	31952.325
1500.22882	32712.925
1503.61521	33655.425
1506.99934	34443.725
1510.38121	34911.825
1513.76081	34771.725
1517.13816	34195.625
1520.51324	33362.725
1523.88607	32617.025
1527.25665	32053.325
1530.62498	31775.025
1533.99105	31534.825
1537.35488	31370.525
1540.71647	31328.525
1544.07581	31269.925
1547.4329	31290.825
1550.78776	31221.925
1554.14038	31165.625
1557.49077	31138.425
1560.83892	31154.925
1564.18484	31291.825
1567.52853	31460.825
1570.86999	31534.625
1574.20922	31594.925
1577.54624	31572.125
1580.88103	31321.325
1584.2136	30992.725
1587.54395	30807.525
1590.87208	30873.725
1594.19801	31075.725
1597.52172	31483.325
1600.84321	31667.625
1604.16251	31646.025
1607.47959	31471.725
1610.79447	31131.625
1614.10715	30626.825
1617.41763	29959.025
1620.7259	29527.325
1624.03199	29192.325
1627.33587	29086.125
1630.63757	29058.925
1633.93707	29238.125
1637.23439	29538.325
1640.52951	30174.825
1643.82246	30916.325
1647.11321	31728.625
1650.40179	32134.325
1653.68819	31799.025
1656.97241	30919.925
1660.25446	29938.725
1663.53433	29163.525
1666.81203	28633.725
1670.08756	28276.525
1673.36092	28050.525
1676.63211	27849.925
1679.90115	27713.425
1683.16801	27552.125
1686.43272	27482.725
1689.69527	27369.225
1692.95567	27373.425
1696.2139	27322.125
1699.46999	27255.525
1702.72392	27263.225
1705.97571	27295.525
1709.22535	27284.725
1712.47284	27283.325
1715.71819	27261.525
1718.96139	27227.125
1722.20246	27181.925
1725.44139	27178.125
1728.67818	27128.425
1731.91284	27046.125
1735.14537	27003.425
1738.37576	26991.225
1741.60403	26901.525
1744.83017	26845.425
1748.05418	26764.925
1751.27607	26742.425
1754.49584	26706.525
1757.71349	26658.925
1760.92903	26664.525
1764.14244	26667.425
1767.35375	26657.425
1770.56294	26610.525
1773.77002	26622.825
1776.97499	26642.525
1780.17785	26625.625
1783.37861	26584.525
1786.57727	26605.625
1789.77382	26562.925
1792.96828	26517.825
1796.16064	26461.025
1799.3509	26489.325
1802.53907	26415.925
1805.72514	26359.925
1808.90913	26302.025
1812.09102	26211.425
1815.27083	26157.025
1818.44856	26142.425
1821.6242	26118.425
1824.79776	26083.425
1827.96924	26050.725
1831.13864	26033.125
1834.30597	25982.925
1837.47122	26009.425
1840.6344	26012.125
1843.7955	25952.625
1846.95454	25945.525
1850.11151	25932.925
1853.26642	25889.025
1856.41926	25908.625
1859.57004	25852.625
1862.71876	25815.425
1865.86542	25835.025
1869.01003	25765.025
1872.15258	25748.925
1875.29308	25732.425
1878.43152	25704.625
1881.56792	25653.925
1884.70227	25616.525
1887.83457	25618.525
1890.96482	25556.525
1894.09304	25468.325
1897.21921	25459.625
1900.34335	25473.625
1903.46544	25454.725
1906.58551	25422.525
1909.70353	25384.525
1912.81953	25392.425
1915.93349	25384.425
1919.04543	25277.225
1922.15534	25232.625
1925.26322	25180.625
1928.36908	25144.625
1931.47292	25115.725
1934.57473	25077.625
1937.67453	25009.825
1940.77232	24979.425
1943.86808	24887.125
1946.96184	24861.125
1950.05358	24757.025
1953.14331	24703.925
1956.23103	24674.325
1959.31675	24576.525
1962.40046	24480.325
1965.48217	24424.725
1968.56188	24355.725
1971.63959	24283.425
1974.7153	24234.225
1977.78901	24171.325
1980.86073	24091.925
1983.93046	24024.725
1986.99819	23975.825
1990.06394	23924.525
1993.1277	23864.625
1996.18947	23732.225
1999.24925	23714.125
2002.30706	23634.725
2005.36288	23578.825
2008.41672	23532.525
2011.46859	23475.325
2014.51848	23373.125
2017.56639	23316.225
2020.61233	23235.625
2023.6563	23184.225
2026.6983	23108.625
2029.73833	23062.225
2032.7764	23036.225
2035.8125	22941.425
2038.84664	22899.925
2041.87881	22910.625
2044.90903	22833.425
2047.93729	22743.325
2050.96359	22766.625
2053.98794	22706.325
2057.01034	22708.925
2060.03078	22716.925
2063.04927	22689.325
2066.06582	22676.725
2069.08042	22621.725
2072.09307	22623.125
2075.10378	22618.425
2078.11255	22530.325
2081.11938	22536.825
2084.12426	22520.525
2087.12722	22563.125
2090.12824	22565.325
2093.12732	22559.225
2096.12447	22512.925
2099.11969	22507.425
2102.11299	22520.725
2105.10435	22517.025
2108.09379	22560.925
2111.08131	22562.125
2114.0669	22527.225
2117.05057	22532.225
2120.03233	22620.525
2123.01216	22630.125
2125.99008	22658.625
2128.96609	22634.725
2131.94018	22659.325
2134.91236	22692.125
2137.88263	22693.325
2140.851	22705.225
2143.81746	22697.225
2146.78201	22688.825
2149.74466	22750.625
2152.7054	22804.325
2155.66425	22755.025
2158.6212	22757.525
2161.57625	22705.425
2164.52941	22696.725
2167.48067	22714.425
2170.43004	22662.625
2173.37752	22668.525
2176.32311	22682.025
2179.26681	22642.625
2182.20863	22628.325
2185.14856	22639.125
2188.08661	22658.225
2191.02278	22585.025
2193.95707	22613.525
2196.88948	22610.025
2199.82001	22593.725
2202.74867	22569.425
2205.67545	22533.825
2208.60037	22486.625
2211.52341	22456.325
2214.44458	22428.525
2217.36388	22420.525
2220.28132	22344.725
2223.1969	22271.225
2226.11061	22233.725
2229.02246	22235.025
2231.93245	22196.525
2234.84058	22145.425
2237.74686	22098.325
2240.65128	22056.025
2243.55385	22048.125
2246.45456	22031.125
2249.35343	22010.825
2252.25044	21969.525
2255.14561	21940.025
2258.03893	21942.425
2260.93041	21882.625
2263.82004	21833.325
2266.70783	21785.325
2269.59378	21696.125
2272.4779	21717.825
2275.36017	21607.725
2278.24061	21554.025
2281.11922	21521.625
2283.996	21502.225
2286.87094	21464.825
2289.74405	21406.125
2292.61534	21388.525
2295.4848	21309.425
2298.35243	21305.825
2301.21824	21284.225
2304.08223	21306.025
2306.94439	21266.025
2309.80474	21282.225
2312.66327	21216.125
2315.51999	21195.425
2318.37489	21210.525
2321.22797	21158.825
2324.07925	21107.525
2326.92871	21012.125
2329.77637	20991.525
2332.62222	20983.525
2335.46626	20957.325
2338.3085	20909.825
2341.14893	20874.725
2343.98756	20834.825
2346.8244	20857.525
2349.65943	20868.825
2352.49267	20790.725
2355.32411	20768.825
2358.15376	20711.125
2360.98161	20716.725
2363.80768	20709.825
2366.63195	20697.125
2369.45444	20714.925
2372.27514	20606.525
2375.09405	20626.125
2377.91118	20618.425
2380.72652	20555.325
2383.54009	20522.725
2386.35187	20504.025
2389.16188	20433.925
2391.97011	20354.925
2394.77657	20328.225
2397.58125	20268.625
2400.38416	20276.525
2403.18529	20218.225
2405.98466	20149.225
2408.78226	20133.025
2411.57809	20083.325
2414.37216	20104.325
2417.16446	20112.125
2419.955	20061.125
2422.74378	20076.225
2425.5308	20031.725
2428.31606	19992.025
2431.09956	20007.825
2433.88131	19969.225
2436.6613	19966.625
2439.43954	19939.425
2442.21603	19872.125
2444.99077	19821.225
2447.76377	19831.025
2450.53501	19813.625
2453.30451	19793.925
2456.07226	19738.025
2458.83827	19711.225
2461.60254	19648.625
2464.36507	19619.925
2467.12586	19578.025
2469.88492	19591.125
2472.64224	19584.325
2475.39782	19579.425
2478.15167	19576.625
2480.90379	19505.125
2483.65417	19481.725
2486.40283	19491.125
2489.14976	19490.125
2491.89497	19438.025
2494.63845	19464.125
2497.3802	19401.725
2500.12024	19367.825
2502.85855	19371.625
2505.59514	19301.625
2508.33002	19287.325
2511.06318	19298.925
2513.79462	19272.025
2516.52435	19257.225
2519.25237	19217.025
2521.97867	19170.025
2524.70327	19142.125
2527.42616	19105.725
2530.14734	19087.425
2532.86681	19051.225
2535.58458	19028.025
2538.30065	18981.425
2541.01501	18985.625
2543.72768	18930.525
2546.43864	18891.225
2549.14791	18851.425
2551.85548	18799.825
2554.56136	18793.325
2557.26554	18772.925
2559.96803	18737.625
2562.66883	18696.625
2565.36794	18648.125
2568.06536	18597.625
2570.7611	18576.525
2573.45514	18567.225
2576.14751	18502.325
2578.83819	18475.225
2581.52719	18415.725
2584.21451	18389.525
2586.90015	18354.625
2589.58411	18324.525
2592.2664	18304.425
2594.94701	18262.725
2597.62594	18217.225
2600.30321	18124.625
2602.9788	18118.925
2605.65273	18106.025
2608.32498	18115.625
2610.99557	18075.825
2613.66449	18045.925
2616.33175	18015.625
2618.99734	18048.325
2621.66128	18001.425
2624.32355	17911.825
2626.98416	17869.025
2629.64311	17859.925
2632.30041	17823.925
2634.95605	17806.125
2637.61004	17809.725
2640.26238	17787.125
2642.91306	17777.425
2645.56209	17748.825
2648.20948	17745.425
2650.85521	17653.225
2653.4993	17652.825
2656.14175	17575.925
2658.78255	17622.425
2661.42171	17558.725
2664.05923	17588.725
2666.6951	17613.725
2669.32934	17631.225
2671.96194	17609.425
2674.59291	17624.225
2677.22224	17576.025
2679.84993	17576.725
2682.476	17559.825
2685.10043	17539.325
2687.72324	17518.125
2690.34441	17511.925
2692.96396	17500.025
2695.58188	17487.325
2698.19818	17468.925
2700.81285	17475.825
2703.4259	17458.725
2706.03733	17445.425
2708.64714	17425.525
2711.25533	17418.925
2713.86191	17432.925
2716.46687	17435.025
2719.07021	17412.425
2721.67194	17444.425
2724.27206	17401.925
2726.87057	17372.825
2729.46747	17382.725
2732.06276	17354.725
2734.65644	17370.625
2737.24852	17348.625
2739.83899	17289.225
2742.42786	17356.525
2745.01513	17272.425
2747.60079	17314.425
2750.18486	17195.025
2752.76733	17162.525
2755.3482	17159.125
2757.92747	17161.225
2760.50515	17119.025
2763.08123	17093.225
2765.65573	17099.325
2768.22863	17095.925
2770.79994	17062.225
2773.36967	17036.325
2775.9378	16978.525
2778.50435	16954.925
2781.06932	16924.825
2783.6327	16924.525
2786.1945	16896.725
2788.75471	16884.525
2791.31335	16819.625
2793.87041	16754.225
2796.42589	16707.325
2798.97979	16684.725
2801.53212	16632.525
2804.08288	16630.625
2806.63206	16564.925
2809.17967	16518.425
2811.72571	16454.825
2814.27018	16448.525
2816.81308	16385.025
2819.35442	16368.125
2821.89419	16351.725
2824.43239	16321.225
2826.96904	16310.025
2829.50412	16241.525
2832.03763	16195.525
2834.56959	16189.125
2837.1	16140.825
2839.62884	16144.625
2842.15613	16138.825
2844.68186	16121.125
2847.20604	16079.725
2849.72867	16074.525
2852.24974	16040.925
2854.76927	15974.225
2857.28724	15987.425
2859.80367	16005.525
2862.31855	15973.725
2864.83189	15914.525
2867.34368	15874.425
2869.85393	15854.425
2872.36264	15837.225
2874.8698	15849.525
2877.37543	15780.225
2879.87952	15795.925
2882.38207	15789.925
2884.88308	15743.625
2887.38256	15770.425
2889.88051	15752.725
2892.37692	15749.225
2894.8718	15725.925
2897.36515	15705.325
2899.85698	15698.225
2902.34727	15750.025
2904.83604	15760.925
2907.32328	15782.825
2909.809	15757.525
2912.29319	15744.525
2914.77587	15724.025
2917.25702	15731.525
2919.73665	15703.325
2922.21476	15708.925
2924.69136	15665.325
2927.16644	15648.325
2929.64	15601.525
2932.11205	15612.225
2934.58258	15542.625
2937.05161	15605.125
2939.51912	15570.725
2941.98513	15560.425
2944.44962	15579.025
2946.91261	15503.225
2949.37409	15504.625
2951.83407	15497.225
2954.29254	15528.425
2956.74951	15527.325
2959.20498	15525.525
2961.65895	15495.725
2964.11142	15499.625
2966.56239	15424.925
2969.01186	15430.325
2971.45984	15438.725
2973.90632	15453.825
2976.35131	15397.725
2978.7948	15391.825
2981.23681	15382.025
2983.67732	15325.625
2986.11635	15302.925
2988.55388	15274.525
2990.98993	15272.525
2993.4245	15226.525
2995.85758	15206.725
2998.28917	15160.125
3000.71928	15146.325
3003.14791	15104.825
3005.57506	15091.625
3008.00073	15032.225
3010.42493	15047.025
3012.84764	15033.425
3015.26888	15001.025
3017.68865	14978.025
3020.10694	14966.325
3022.52376	14898.525
3024.9391	14859.425
3027.35298	14830.525
3029.76539	14840.425
3032.17632	14862.225
3034.5858	14803.825
3036.9938	14801.525
3039.40034	14753.925
3041.80542	14774.525
3044.20903	14714.425
3046.61118	14720.025
3049.01187	14670.625
3051.4111	14693.325
3053.80888	14647.625
3056.20519	14596.225
3058.60005	14547.325
3060.99345	14560.125
3063.3854	14523.025
3065.7759	14456.425
3068.16494	14464.325
3070.55254	14459.125
3072.93868	14377.425
3075.32338	14334.725
3077.70662	14323.225
3080.08842	14318.825
3082.46878	14301.625
3084.84769	14275.125
3087.22515	14289.125
3089.60118	14262.625
3091.97576	14280.125
3094.3489	14255.425
3096.72061	14250.625
3099.09087	14242.725
3101.4597	14215.825
3103.82709	14237.425
3106.19305	14236.525
3108.55757	14238.325
3110.92066	14196.725
3113.28232	14191.225
3115.64255	14129.125
3118.00134	14145.025
3120.35871	14129.825
3122.71466	14070.325
3125.06917	14039.725
3127.42226	13974.725
3129.77393	14021.025
