Data from AgNPs_UA_50uM_CRN_0uM_R6G_10uM_Q_RamanShift__1__12-12-21-751.txt Node

Date: Tue Jul 26 12:12:21 BST 2022
User: TCL
Spectrometer: QEP01345
Trigger mode: 4
Integration Time (sec): 7.000000E0
Scans to average: 10
Electric dark correction enabled: true
Nonlinearity correction enabled: false
Boxcar width: 0
XAxis mode: Raman Shifts
Number of Pixels in Spectrum: 1044
>>>>>Begin Spectral Data<<<<<
46.04893	-1.725
50.45542	-0.625
54.85868	-1.125
59.25871	-1.825
63.6555	129.675
68.04907	140.175
72.43941	139.475
76.82654	148.875
81.21044	152.575
85.59113	159.375
89.96862	169.875
94.34289	171.775
98.71396	178.675
103.08183	185.475
107.4465	187.875
111.80798	194.275
116.16626	199.575
120.52136	208.675
124.87327	213.875
129.222	225.675
133.56755	246.975
137.90993	256.475
142.24913	283.275
146.58517	313.775
150.91804	357.775
155.24774	421.875
159.57429	527.675
163.89768	666.075
168.21792	882.875
172.53501	1199.475
176.84895	1672.875
181.15975	2349.575
185.46741	3314.275
189.77193	4578.475
194.07331	6132.075
198.37157	7935.475
202.6667	9831.275
206.9587	11705.175
211.24758	13591.375
215.53334	15429.575
219.81599	17361.375
224.09553	19505.575
228.37195	21827.475
232.64527	24400.575
236.91549	27154.575
241.18261	29905.575
245.44663	32488.275
249.70755	34942.375
253.96539	37039.575
258.22014	38819.175
262.4718	40102.175
266.72039	41067.775
270.96589	41544.775
275.20832	41564.775
279.44768	41233.575
283.68397	40739.475
287.91719	40228.775
292.14735	39818.475
296.37445	39555.075
300.59849	39543.975
304.81948	39655.075
309.03742	39693.075
313.25231	39592.575
317.46415	39311.975
321.67296	38703.875
325.87872	38314.475
330.08145	38235.675
334.28114	38429.575
338.47781	38805.175
342.67145	39357.275
346.86207	39953.275
351.04966	40800.175
355.23424	41575.775
359.4158	42316.675
363.59435	43010.875
367.76989	43559.375
371.94243	43926.375
376.11196	44319.775
380.27849	44575.075
384.44203	44948.175
388.60257	45377.475
392.76012	45705.775
396.91468	46207.075
401.06626	46723.375
405.21485	47185.375
409.36047	47214.375
413.50311	46889.575
417.64277	46552.575
421.77947	46367.275
425.9132	46195.275
430.04396	46193.575
434.17176	46324.475
438.2966	46667.775
442.41849	47091.475
446.53742	47574.475
450.6534	48240.375
454.76644	48841.775
458.87653	49296.175
462.98368	49625.975
467.08789	49814.175
471.18916	49651.175
475.2875	49273.875
479.38291	48918.875
483.4754	48692.375
487.56496	48650.675
491.6516	48600.875
495.73531	48504.475
499.81612	48556.575
503.89401	48906.075
507.96899	49255.275
512.04106	49291.375
516.11023	49349.075
520.1765	49294.575
524.23987	49274.875
528.30034	49108.675
532.35792	49096.575
536.41261	49061.075
540.46441	48920.375
544.51333	48910.475
548.55936	49119.975
552.60252	49452.775
556.64279	49922.675
560.6802	50439.475
564.71473	50735.875
568.7464	50806.175
572.7752	50887.975
576.80114	50759.175
580.82422	50864.675
584.84444	51117.775
588.86181	51313.075
592.87633	51353.875
596.888	51600.175
600.89682	52521.975
604.9028	54704.575
608.90594	59112.475
612.90624	63354.775
616.90371	61201.375
620.89834	54878.775
624.89015	52011.575
628.87913	51752.075
632.86528	52252.175
636.84862	52809.575
640.82913	52563.475
644.80683	51735.175
648.78172	51131.275
652.75379	51229.375
656.72306	51815.075
660.68952	52614.775
664.65319	52797.075
668.61405	52704.075
672.57211	53162.975
676.52738	53379.775
680.47986	52963.175
684.42955	52411.975
688.37646	52288.375
692.32058	52569.175
696.26192	53075.375
700.20048	53724.775
704.13626	54043.375
708.06928	53903.675
711.99952	53625.975
715.927	53463.475
719.85171	53452.875
723.77365	53491.875
727.69284	53299.975
731.60928	53101.075
735.52295	52996.275
739.43388	52942.075
743.34206	53133.375
747.24749	53236.975
751.15017	53365.775
755.05012	53575.675
758.94733	54239.675
762.8418	55687.175
766.73354	57936.175
770.62254	60126.375
774.50882	61203.075
778.39237	60975.475
782.27321	59735.375
786.15132	57770.775
790.02671	56022.275
793.89938	54887.875
797.76935	54316.275
801.6366	53845.975
805.50115	53801.175
809.36299	53651.675
813.22213	53563.475
817.07857	53548.975
820.93231	53697.175
824.78336	53802.675
828.63172	53846.575
832.47738	53951.475
836.32036	53991.475
840.16066	53958.675
843.99827	54001.875
847.8332	54075.075
851.66546	54108.875
855.49504	54226.775
859.32195	54363.775
863.1462	54390.275
866.96777	54446.975
870.78668	54508.075
874.60293	54649.375
878.41652	54773.275
882.22745	54868.175
886.03573	54975.475
889.84136	54987.575
893.64433	54903.675
897.44466	54853.075
901.24235	54832.075
905.0374	54826.075
908.8298	54888.875
912.61957	54847.175
916.40671	54779.075
920.19121	54820.075
923.97308	54919.575
927.75233	54965.675
931.52895	55003.575
935.30295	54940.375
939.07433	54673.275
942.84309	54392.475
946.60924	54160.575
950.37278	54015.475
954.13371	53985.775
957.89203	54033.575
961.64774	54007.775
965.40086	53987.975
969.15137	53917.975
972.89929	53911.775
976.64461	53864.775
980.38733	53832.575
984.12747	53928.275
987.86502	53994.075
991.59999	54166.775
995.33237	54275.575
999.06217	54543.175
1002.78939	54786.175
1006.51404	55155.975
1010.23611	55731.175
1013.95561	56035.075
1017.67255	56181.575
1021.38692	56087.275
1025.09872	55960.575
1028.80796	55651.575
1032.51465	55515.675
1036.21877	55547.275
1039.92035	55599.375
1043.61937	55796.975
1047.31584	55925.475
1051.00976	56100.675
1054.70114	56300.575
1058.38998	56486.575
1062.07627	56793.175
1065.76003	57051.775
1069.44126	57508.075
1073.11995	58203.675
1076.79611	59094.075
1080.46974	59588.275
1084.14085	59690.775
1087.80943	59666.975
1091.47549	59764.075
1095.13903	60036.075
1098.80005	60453.975
1102.45857	61018.375
1106.11456	61007.875
1109.76805	60292.975
1113.41903	59593.275
1117.06751	59309.275
1120.71348	59421.075
1124.35696	59384.475
1127.99793	59510.375
1131.63641	59294.975
1135.2724	58838.275
1138.90589	58461.975
1142.5369	58216.775
1146.16542	57984.475
1149.79145	57743.775
1153.415	57436.475
1157.03607	57298.775
1160.65467	57457.275
1164.27079	58031.775
1167.88443	58820.675
1171.49561	60045.075
1175.10432	61737.775
1178.71056	63986.075
1182.31434	65978.375
1185.91565	67141.775
1189.51451	67626.775
1193.11091	67499.975
1196.70485	67002.175
1200.29634	65996.475
1203.88538	64883.075
1207.47197	63544.675
1211.05612	62419.075
1214.63782	61414.575
1218.21708	60510.475
1221.79391	59734.075
1225.36829	59247.875
1228.94024	59150.675
1232.50976	59165.275
1236.07685	59385.975
1239.6415	59481.575
1243.20374	59713.275
1246.76355	59988.775
1250.32093	60127.175
1253.8759	60431.975
1257.42845	61163.575
1260.97859	62078.475
1264.52631	63082.075
1268.07163	63767.475
1271.61453	64259.875
1275.15503	64508.475
1278.69312	64472.975
1282.22882	64393.175
1285.76211	64526.475
1289.29301	64783.875
1292.82151	65203.875
1296.34761	65824.975
1299.87133	66849.975
1303.39266	68141.275
1306.9116	70194.975
1310.42815	72429.575
1313.94233	73652.375
1317.45412	73481.175
1320.96354	72716.875
1324.47058	71787.875
1327.97525	70559.175
1331.47754	69443.275
1334.97747	68939.775
1338.47502	69225.875
1341.97022	70341.475
1345.46305	72168.275
1348.95352	74278.175
1352.44163	76172.575
1355.92738	77395.775
1359.41078	78412.775
1362.89183	79165.475
1366.37053	77463.575
1369.84688	73266.775
1373.32088	68811.275
1376.79254	65671.875
1380.26186	63768.675
1383.72883	62511.575
1387.19347	61574.975
1390.65578	60616.075
1394.11575	59711.475
1397.57339	58843.575
1401.0287	58410.775
1404.48168	58313.675
1407.93234	58522.175
1411.38068	58810.775
1414.82669	59018.675
1418.27039	59020.175
1421.71177	58742.375
1425.15083	58508.475
1428.58758	58026.375
1432.02203	57711.975
1435.45416	57566.275
1438.88399	57420.375
1442.31151	57323.575
1445.73673	57301.075
1449.15965	57377.775
1452.58027	57512.175
1455.9986	57484.275
1459.41463	57623.675
1462.82837	58018.775
1466.23982	58650.875
1469.64898	59314.975
1473.05586	59874.375
1476.46045	60247.975
1479.86276	60689.975
1483.26279	61112.775
1486.66054	61794.275
1490.05602	62653.475
1493.44922	63968.775
1496.84016	65921.975
1500.22882	68657.875
1503.61521	71727.975
1506.99934	74421.375
1510.38121	75568.875
1513.76081	75011.775
1517.13816	72826.275
1520.51324	69706.275
1523.88607	66932.075
1527.25665	64864.375
1530.62498	63489.675
1533.99105	62618.275
1537.35488	61939.875
1540.71647	61369.975
1544.07581	61065.575
1547.4329	60721.175
1550.78776	60527.075
1554.14038	60346.275
1557.49077	60420.175
1560.83892	60779.775
1564.18484	61457.675
1567.52853	62117.475
1570.86999	62579.775
1574.20922	62774.075
1577.54624	62678.275
1580.88103	61863.775
1584.2136	60773.175
1587.54395	59994.775
1590.87208	59913.675
1594.19801	60537.375
1597.52172	61662.875
1600.84321	62085.275
1604.16251	61718.175
1607.47959	61007.975
1610.79447	60021.175
1614.10715	58514.475
1617.41763	56953.475
1620.7259	55755.875
1624.03199	54988.475
1627.33587	54771.775
1630.63757	54865.975
1633.93707	55499.975
1637.23439	56699.575
1640.52951	58719.975
1643.82246	61525.375
1647.11321	64589.875
1650.40179	66151.575
1653.68819	65256.575
1656.97241	62052.575
1660.25446	58534.175
1663.53433	55789.975
1666.81203	54033.975
1670.08756	52848.175
1673.36092	52073.675
1676.63211	51630.275
1679.90115	51250.275
1683.16801	50890.475
1686.43272	50590.575
1689.69527	50486.575
1692.95567	50373.375
1696.2139	50263.775
1699.46999	50135.975
1702.72392	50066.475
1705.97571	50060.375
1709.22535	50068.875
1712.47284	50058.175
1715.71819	50063.375
1718.96139	49895.775
1722.20246	49853.275
1725.44139	49796.575
1728.67818	49740.875
1731.91284	49552.875
1735.14537	49292.575
1738.37576	49280.575
1741.60403	49153.775
1744.83017	48918.175
1748.05418	48807.675
1751.27607	48702.075
1754.49584	48627.175
1757.71349	48602.075
1760.92903	48488.275
1764.14244	48444.375
1767.35375	48495.975
1770.56294	48389.375
1773.77002	48422.375
1776.97499	48376.575
1780.17785	48280.575
1783.37861	48259.275
1786.57727	48201.275
1789.77382	48178.075
1792.96828	48173.575
1796.16064	48031.475
1799.3509	48033.775
1802.53907	47964.475
1805.72514	47837.075
1808.90913	47708.475
1812.09102	47504.475
1815.27083	47386.775
1818.44856	47364.975
1821.6242	47292.875
1824.79776	47177.475
1827.96924	47113.175
1831.13864	46961.875
1834.30597	46972.575
1837.47122	46925.275
1840.6344	46921.975
1843.7955	46881.375
1846.95454	46891.975
1850.11151	46762.275
1853.26642	46718.475
1856.41926	46699.075
1859.57004	46617.175
1862.71876	46552.175
1865.86542	46518.575
1869.01003	46534.175
1872.15258	46461.075
1875.29308	46424.875
1878.43152	46309.175
1881.56792	46202.875
1884.70227	46134.175
1887.83457	46063.675
1890.96482	46083.275
1894.09304	45861.975
1897.21921	45874.175
1900.34335	45770.975
1903.46544	45693.975
1906.58551	45688.775
1909.70353	45663.575
1912.81953	45642.775
1915.93349	45554.775
1919.04543	45401.375
1922.15534	45328.875
1925.26322	45237.175
1928.36908	45165.775
1931.47292	45060.075
1934.57473	44927.775
1937.67453	44892.675
1940.77232	44763.175
1943.86808	44745.375
1946.96184	44560.175
1950.05358	44373.475
1953.14331	44274.275
1956.23103	44156.375
1959.31675	43985.175
1962.40046	43901.075
1965.48217	43724.975
1968.56188	43528.475
1971.63959	43406.375
1974.7153	43299.875
1977.78901	43237.175
1980.86073	43091.275
1983.93046	42984.775
1986.99819	42758.275
1990.06394	42658.475
1993.1277	42589.475
1996.18947	42438.475
1999.24925	42368.275
2002.30706	42171.175
2005.36288	42018.275
2008.41672	41912.975
2011.46859	41854.975
2014.51848	41625.675
2017.56639	41549.275
2020.61233	41386.975
2023.6563	41252.575
2026.6983	41178.375
2029.73833	41074.975
2032.7764	40978.575
2035.8125	40869.875
2038.84664	40775.475
2041.87881	40749.875
2044.90903	40631.075
2047.93729	40531.375
2050.96359	40512.975
2053.98794	40453.575
2057.01034	40413.475
2060.03078	40370.075
2063.04927	40329.275
2066.06582	40314.675
2069.08042	40254.175
2072.09307	40230.375
2075.10378	40175.275
2078.11255	40090.675
2081.11938	40018.275
2084.12426	40014.175
2087.12722	40031.775
2090.12824	40039.975
2093.12732	40067.375
2096.12447	40003.875
2099.11969	39978.475
2102.11299	39958.875
2105.10435	39987.575
2108.09379	39959.975
2111.08131	39965.275
2114.0669	39954.475
2117.05057	39995.775
2120.03233	40098.875
2123.01216	40083.975
2125.99008	40088.275
2128.96609	40121.075
2131.94018	40149.775
2134.91236	40131.275
2137.88263	40201.275
2140.851	40166.175
2143.81746	40158.475
2146.78201	40144.375
2149.74466	40244.475
2152.7054	40229.875
2155.66425	40241.075
2158.6212	40146.375
2161.57625	40173.075
2164.52941	40097.175
2167.48067	40101.975
2170.43004	40018.075
2173.37752	39940.775
2176.32311	39973.375
2179.26681	39950.175
2182.20863	39959.775
2185.14856	39983.075
2188.08661	39900.975
2191.02278	39848.575
2193.95707	39849.375
2196.88948	39828.275
2199.82001	39776.875
2202.74867	39734.375
2205.67545	39701.375
2208.60037	39636.075
2211.52341	39559.575
2214.44458	39444.575
2217.36388	39384.375
2220.28132	39310.575
2223.1969	39156.775
2226.11061	39152.375
2229.02246	39107.375
2231.93245	38995.475
2234.84058	38951.375
2237.74686	38892.375
2240.65128	38806.375
2243.55385	38746.275
2246.45456	38697.675
2249.35343	38585.875
2252.25044	38602.075
2255.14561	38573.075
2258.03893	38498.175
2260.93041	38433.875
2263.82004	38301.975
2266.70783	38219.075
2269.59378	38098.775
2272.4779	38080.875
2275.36017	37980.875
2278.24061	37890.275
2281.11922	37794.175
2283.996	37687.575
2286.87094	37600.675
2289.74405	37497.075
2292.61534	37473.075
2295.4848	37360.075
2298.35243	37349.875
2301.21824	37324.875
2304.08223	37300.175
2306.94439	37282.675
2309.80474	37266.275
2312.66327	37185.875
2315.51999	37180.175
2318.37489	37161.475
2321.22797	37067.975
2324.07925	36964.975
2326.92871	36817.475
2329.77637	36772.575
2332.62222	36671.875
2335.46626	36664.475
2338.3085	36582.775
2341.14893	36504.775
2343.98756	36501.375
2346.8244	36506.675
2349.65943	36520.175
2352.49267	36374.375
2355.32411	36336.075
2358.15376	36261.575
2360.98161	36279.075
2363.80768	36266.575
2366.63195	36262.375
2369.45444	36181.975
2372.27514	36084.275
2375.09405	36066.275
2377.91118	36042.075
2380.72652	36007.475
2383.54009	35884.975
2386.35187	35832.975
2389.16188	35724.375
2391.97011	35639.675
2394.77657	35539.975
2397.58125	35409.675
2400.38416	35422.675
2403.18529	35327.075
2405.98466	35207.775
2408.78226	35139.875
2411.57809	35064.775
2414.37216	35087.575
2417.16446	35119.775
2419.955	35040.675
2422.74378	35069.775
2425.5308	34996.575
2428.31606	34948.175
2431.09956	34923.275
2433.88131	34859.075
2436.6613	34861.575
2439.43954	34856.675
2442.21603	34768.275
2444.99077	34664.775
2447.76377	34640.575
2450.53501	34554.775
2453.30451	34476.875
2456.07226	34416.875
2458.83827	34377.875
2461.60254	34318.375
2464.36507	34279.875
2467.12586	34128.275
2469.88492	34166.275
2472.64224	34163.675
2475.39782	34231.075
2478.15167	34127.475
2480.90379	34011.375
2483.65417	34011.275
2486.40283	34039.475
2489.14976	34006.475
2491.89497	33955.275
2494.63845	33899.875
2497.3802	33846.175
2500.12024	33844.175
2502.85855	33766.975
2505.59514	33667.475
2508.33002	33651.775
2511.06318	33633.775
2513.79462	33597.875
2516.52435	33563.475
2519.25237	33503.275
2521.97867	33377.975
2524.70327	33321.375
2527.42616	33231.575
2530.14734	33283.075
2532.86681	33192.675
2535.58458	33155.175
2538.30065	33076.375
2541.01501	33002.775
2543.72768	32953.275
2546.43864	32876.475
2549.14791	32799.775
2551.85548	32775.375
2554.56136	32680.675
2557.26554	32622.575
2559.96803	32582.775
2562.66883	32482.275
2565.36794	32406.175
2568.06536	32320.275
2570.7611	32270.975
2573.45514	32230.475
2576.14751	32098.475
2578.83819	32100.375
2581.52719	32034.175
2584.21451	31914.675
2586.90015	31938.175
2589.58411	31873.875
2592.2664	31842.675
2594.94701	31732.375
2597.62594	31624.775
2600.30321	31588.275
2602.9788	31488.475
2605.65273	31358.275
2608.32498	31406.275
2610.99557	31402.875
2613.66449	31325.975
2616.33175	31276.175
2618.99734	31248.575
2621.66128	31211.775
2624.32355	31153.075
2626.98416	31057.675
2629.64311	30968.375
2632.30041	30900.975
2634.95605	30905.975
2637.61004	30885.275
2640.26238	30848.375
2642.91306	30838.275
2645.56209	30814.975
2648.20948	30716.275
2650.85521	30622.275
2653.4993	30633.575
2656.14175	30508.975
2658.78255	30513.975
2661.42171	30487.575
2664.05923	30508.975
2666.6951	30545.175
2669.32934	30625.675
2671.96194	30558.875
2674.59291	30517.375
2677.22224	30476.175
2679.84993	30473.275
2682.476	30437.975
2685.10043	30416.875
2687.72324	30372.875
2690.34441	30372.875
2692.96396	30313.275
2695.58188	30317.275
2698.19818	30249.575
2700.81285	30310.175
2703.4259	30284.575
2706.03733	30301.075
2708.64714	30248.175
2711.25533	30267.575
2713.86191	30172.075
2716.46687	30205.975
2719.07021	30139.975
2721.67194	30246.675
2724.27206	30149.775
2726.87057	30134.575
2729.46747	30081.675
2732.06276	30107.775
2734.65644	30064.675
2737.24852	30048.475
2739.83899	29971.975
2742.42786	30109.375
2745.01513	30011.675
2747.60079	29955.475
2750.18486	29766.175
2752.76733	29731.675
2755.3482	29721.875
2757.92747	29685.775
2760.50515	29637.475
2763.08123	29559.475
2765.65573	29495.875
2768.22863	29495.375
2770.79994	29454.675
2773.36967	29379.475
2775.9378	29306.275
2778.50435	29273.075
2781.06932	29252.975
2783.6327	29259.875
2786.1945	29197.375
2788.75471	29183.775
2791.31335	29050.275
2793.87041	28951.275
2796.42589	28869.375
2798.97979	28841.875
2801.53212	28762.375
2804.08288	28711.475
2806.63206	28603.775
2809.17967	28517.475
2811.72571	28451.475
2814.27018	28396.975
2816.81308	28371.775
2819.35442	28319.475
2821.89419	28219.175
2824.43239	28201.975
2826.96904	28122.875
2829.50412	28107.975
2832.03763	28001.975
2834.56959	27958.275
2837.1	27884.775
2839.62884	27854.275
2842.15613	27838.675
2844.68186	27812.375
2847.20604	27747.675
2849.72867	27718.675
2852.24974	27647.475
2854.76927	27594.775
2857.28724	27638.275
2859.80367	27610.875
2862.31855	27527.875
2864.83189	27463.975
2867.34368	27377.275
2869.85393	27377.375
2872.36264	27295.175
2874.8698	27284.775
2877.37543	27246.275
2879.87952	27188.475
2882.38207	27177.575
2884.88308	27114.175
2887.38256	27137.375
2889.88051	27176.675
2892.37692	27160.475
2894.8718	27094.475
2897.36515	27111.275
2899.85698	27036.975
2902.34727	27132.875
2904.83604	27183.575
2907.32328	27164.075
2909.809	27179.475
2912.29319	27145.675
2914.77587	27087.975
2917.25702	27083.275
2919.73665	27048.575
2922.21476	27019.775
2924.69136	26974.475
2927.16644	26943.575
2929.64	26940.475
2932.11205	26917.775
2934.58258	26768.675
2937.05161	26834.775
2939.51912	26861.475
2941.98513	26810.575
2944.44962	26740.975
2946.91261	26700.275
2949.37409	26706.675
2951.83407	26682.575
2954.29254	26689.975
2956.74951	26670.775
2959.20498	26687.775
2961.65895	26624.075
2964.11142	26629.375
2966.56239	26557.375
2969.01186	26545.675
2971.45984	26537.975
2973.90632	26540.975
2976.35131	26478.675
2978.7948	26434.275
2981.23681	26358.375
2983.67732	26321.675
2986.11635	26292.975
2988.55388	26208.275
2990.98993	26139.575
2993.4245	26099.375
2995.85758	26117.475
2998.28917	26074.875
3000.71928	26032.775
3003.14791	25948.075
3005.57506	25906.175
3008.00073	25817.475
3010.42493	25791.375
3012.84764	25694.175
3015.26888	25683.775
3017.68865	25631.975
3020.10694	25562.375
3022.52376	25505.375
3024.9391	25459.575
3027.35298	25404.675
3029.76539	25360.375
3032.17632	25338.275
3034.5858	25289.575
3036.9938	25238.375
3039.40034	25265.675
3041.80542	25240.175
3044.20903	25135.775
3046.61118	25087.875
3049.01187	25060.875
3051.4111	25039.375
3053.80888	24976.575
3056.20519	24916.675
3058.60005	24845.375
3060.99345	24824.675
3063.3854	24770.975
3065.7759	24686.075
3068.16494	24625.575
3070.55254	24559.175
3072.93868	24536.175
3075.32338	24417.975
3077.70662	24382.175
3080.08842	24340.975
3082.46878	24322.575
3084.84769	24271.675
3087.22515	24266.975
3089.60118	24257.375
3091.97576	24270.575
3094.3489	24231.875
3096.72061	24234.475
3099.09087	24184.175
3101.4597	24112.175
3103.82709	24186.175
3106.19305	24107.075
3108.55757	24122.875
3110.92066	24027.475
3113.28232	24020.175
3115.64255	23940.375
3118.00134	23946.475
3120.35871	23954.475
3122.71466	23811.875
3125.06917	23747.075
3127.42226	23702.475
3129.77393	23666.475
