Data from AgNPs_UA_5uM_CRN_0uM_R6G_10uM_Q_RamanShift__23__11-16-05-318.txt Node

Date: Mon Jul 18 11:16:05 BST 2022
User: TCL
Spectrometer: QEP01345
Trigger mode: 4
Integration Time (sec): 7.000000E0
Scans to average: 10
Electric dark correction enabled: true
Nonlinearity correction enabled: false
Boxcar width: 0
XAxis mode: Raman Shifts
Number of Pixels in Spectrum: 1044
>>>>>Begin Spectral Data<<<<<
46.04893	-2.625
50.45542	-2.625
54.85868	-3.025
59.25871	-2.425
63.6555	163.675
68.04907	168.275
72.43941	174.875
76.82654	178.775
81.21044	186.875
85.59113	192.875
89.96862	198.675
94.34289	201.875
98.71396	213.375
103.08183	214.975
107.4465	218.975
111.80798	228.875
116.16626	238.775
120.52136	250.575
124.87327	255.875
129.222	269.275
133.56755	293.375
137.90993	322.375
142.24913	352.575
146.58517	400.675
150.91804	468.775
155.24774	559.075
159.57429	703.075
163.89768	912.075
168.21792	1213.175
172.53501	1666.075
176.84895	2333.875
181.15975	3272.475
185.46741	4586.475
189.77193	6301.375
194.07331	8433.375
198.37157	10823.875
202.6667	13354.375
206.9587	15814.175
211.24758	18235.175
215.53334	20684.875
219.81599	23382.575
224.09553	26364.075
228.37195	29678.275
232.64527	33375.275
236.91549	37162.275
241.18261	40880.975
245.44663	44242.475
249.70755	47138.875
253.96539	49648.075
258.22014	51860.675
262.4718	53679.875
266.72039	54867.975
270.96589	55498.475
275.20832	55464.775
279.44768	55060.775
283.68397	54369.075
287.91719	53845.575
292.14735	53581.175
296.37445	53728.675
300.59849	54258.675
304.81948	54937.875
309.03742	55358.875
313.25231	55179.375
317.46415	54145.175
321.67296	52559.675
325.87872	51387.375
330.08145	50988.775
334.28114	51220.475
338.47781	51850.075
342.67145	52733.875
346.86207	53940.675
351.04966	55394.275
355.23424	57037.175
359.4158	58587.775
363.59435	59785.975
367.76989	60596.175
371.94243	61101.275
376.11196	61466.775
380.27849	61908.775
384.44203	62268.775
388.60257	62481.175
392.76012	62822.775
396.91468	63621.275
401.06626	64792.975
405.21485	65641.775
409.36047	65392.975
413.50311	64307.875
417.64277	63444.775
421.77947	63179.475
425.9132	63300.375
430.04396	63684.575
434.17176	64438.275
438.2966	65623.775
442.41849	67462.175
446.53742	69827.575
450.6534	72492.275
454.76644	74511.975
458.87653	75188.975
462.98368	74437.175
467.08789	73025.975
471.18916	71151.375
475.2875	69205.075
479.38291	67445.875
483.4754	66347.575
487.56496	65319.275
491.6516	64350.375
495.73531	63716.675
499.81612	63587.375
503.89401	63828.375
507.96899	64020.975
512.04106	64066.375
516.11023	64302.775
520.1765	64519.075
524.23987	64636.875
528.30034	64473.375
532.35792	64076.675
536.41261	63421.075
540.46441	62703.175
544.51333	62550.775
548.55936	63155.275
552.60252	64219.375
556.64279	65227.675
560.6802	65800.075
564.71473	66202.675
568.7464	67241.575
572.7752	68246.875
576.80114	68513.575
580.82422	68912.075
584.84444	70141.775
588.86181	72124.975
592.87633	74300.275
596.888	75814.075
600.89682	76869.475
604.9028	81419.375
608.90594	92155.875
612.90624	100859.475
616.90371	92716.175
620.89834	77094.975
624.89015	71648.175
628.87913	71277.075
632.86528	70062.775
636.84862	68197.275
640.82913	66294.875
644.80683	64255.975
648.78172	62912.675
652.75379	63017.075
656.72306	64549.175
660.68952	66147.175
664.65319	65927.875
668.61405	64820.775
672.57211	64545.475
676.52738	64434.875
680.47986	64082.975
684.42955	63732.375
688.37646	63977.875
692.32058	64487.075
696.26192	65121.375
700.20048	65864.175
704.13626	65979.875
708.06928	65131.275
711.99952	64518.375
715.927	64505.475
719.85171	64656.375
723.77365	64404.175
727.69284	63720.575
731.60928	63464.975
735.52295	63601.375
739.43388	64084.575
743.34206	64573.175
747.24749	65006.975
751.15017	65546.675
755.05012	66687.375
758.94733	68710.175
762.8418	72680.675
766.73354	78745.075
770.62254	84415.675
774.50882	85937.675
778.39237	82249.075
782.27321	75861.375
786.15132	70332.975
790.02671	67111.075
793.89938	65715.575
797.76935	65322.075
801.6366	65161.175
805.50115	64831.875
809.36299	64362.275
813.22213	64003.775
817.07857	63688.975
820.93231	63668.575
824.78336	63761.575
828.63172	63964.575
832.47738	64173.275
836.32036	64506.775
840.16066	65135.175
843.99827	65599.375
847.8332	65200.675
851.66546	64650.475
855.49504	64465.975
859.32195	64384.775
863.1462	64007.975
866.96777	63558.375
870.78668	63393.775
874.60293	63510.575
878.41652	63630.975
882.22745	64005.975
886.03573	64318.375
889.84136	64178.875
893.64433	63990.475
897.44466	63572.775
901.24235	63387.575
905.0374	63236.075
908.8298	63148.575
912.61957	63328.875
916.40671	64017.475
920.19121	65102.175
923.97308	66422.175
927.75233	67443.975
931.52895	67724.675
935.30295	66862.575
939.07433	65428.275
942.84309	64475.775
946.60924	64240.575
950.37278	63805.275
954.13371	63180.275
957.89203	62597.275
961.64774	62358.075
965.40086	62107.875
969.15137	61923.275
972.89929	61805.375
976.64461	61846.075
980.38733	62205.375
984.12747	62788.875
987.86502	63672.375
991.59999	65045.575
995.33237	67526.775
999.06217	71584.675
1002.78939	75647.375
1006.51404	77108.675
1010.23611	77096.375
1013.95561	77733.875
1017.67255	78372.775
1021.38692	78234.975
1025.09872	78404.575
1028.80796	81052.975
1032.51465	85791.875
1036.21877	89304.375
1039.92035	88969.075
1043.61937	85675.175
1047.31584	80809.875
1051.00976	76065.575
1054.70114	73547.275
1058.38998	72886.875
1062.07627	72774.275
1065.76003	72598.275
1069.44126	72526.475
1073.11995	72986.975
1076.79611	73653.775
1080.46974	74284.975
1084.14085	75222.875
1087.80943	76173.075
1091.47549	76115.475
1095.13903	75019.775
1098.80005	73623.175
1102.45857	72552.475
1106.11456	72361.275
1109.76805	72820.875
1113.41903	73717.875
1117.06751	74742.675
1120.71348	75664.975
1124.35696	76457.375
1127.99793	77260.175
1131.63641	77116.575
1135.2724	76205.275
1138.90589	75173.875
1142.5369	74388.575
1146.16542	73935.275
1149.79145	73830.675
1153.415	74387.675
1157.03607	75161.575
1160.65467	76587.675
1164.27079	79209.575
1167.88443	83253.175
1171.49561	89027.675
1175.10432	96975.775
1178.71056	107100.775
1182.31434	116410.375
1185.91565	121637.675
1189.51451	121173.075
1193.11091	115370.375
1196.70485	107989.575
1200.29634	101846.875
1203.88538	97394.475
1207.47197	93839.175
1211.05612	91382.775
1214.63782	90487.975
1218.21708	91474.975
1221.79391	93187.975
1225.36829	94238.475
1228.94024	93214.475
1232.50976	90746.175
1236.07685	88794.475
1239.6415	88098.775
1243.20374	88256.275
1246.76355	89083.975
1250.32093	90780.875
1253.8759	93459.075
1257.42845	96812.075
1260.97859	99482.475
1264.52631	101712.175
1268.07163	104227.075
1271.61453	107511.975
1275.15503	111559.575
1278.69312	115878.675
1282.22882	119138.175
1285.76211	121231.375
1289.29301	122667.875
1292.82151	124640.175
1296.34761	128128.175
1299.87133	134038.675
1303.39266	143049.275
1306.9116	154914.375
1310.42815	167300.675
1313.94233	175216.375
1317.45412	174857.175
1320.96354	168757.075
1324.47058	161029.275
1327.97525	154193.375
1331.47754	150032.175
1334.97747	148783.775
1338.47502	149548.975
1341.97022	151226.175
1345.46305	152099.275
1348.95352	152178.775
1352.44163	153265.975
1355.92738	157896.275
1359.41078	167169.275
1362.89183	174865.475
1366.37053	170049.675
1369.84688	153134.375
1373.32088	135221.275
1376.79254	123310.375
1380.26186	117398.475
1383.72883	115309.075
1387.19347	113908.175
1390.65578	111769.375
1394.11575	110684.075
1397.57339	111645.175
1401.0287	114184.475
1404.48168	116799.675
1407.93234	119141.675
1411.38068	120975.275
1414.82669	120961.975
1418.27039	118024.775
1421.71177	114008.175
1425.15083	110786.675
1428.58758	109404.775
1432.02203	110481.375
1435.45416	112459.875
1438.88399	114058.375
1442.31151	114899.275
1445.73673	115326.975
1449.15965	115600.575
1452.58027	115191.075
1455.9986	113916.675
1459.41463	113603.175
1462.82837	114815.575
1466.23982	117170.675
1469.64898	119871.275
1473.05586	121743.975
1476.46045	123198.375
1479.86276	124314.275
1483.26279	124819.975
1486.66054	125404.175
1490.05602	126279.975
1493.44922	127395.975
1496.84016	128533.675
1500.22882	130324.375
1503.61521	133652.675
1506.99934	138033.675
1510.38121	142171.475
1513.76081	143226.375
1517.13816	139801.875
1520.51324	133633.275
1523.88607	127781.175
1527.25665	123822.575
1530.62498	121434.175
1533.99105	119888.775
1537.35488	119000.375
1540.71647	118331.975
1544.07581	117403.675
1547.4329	115789.575
1550.78776	113731.175
1554.14038	111913.875
1557.49077	110772.775
1560.83892	109993.975
1564.18484	109712.275
1567.52853	109526.075
1570.86999	109426.575
1574.20922	109689.575
1577.54624	109899.775
1580.88103	109170.075
1584.2136	109087.375
1587.54395	111847.075
1590.87208	118878.175
1594.19801	129954.275
1597.52172	142177.175
1600.84321	148233.575
1604.16251	143865.275
1607.47959	132310.275
1610.79447	118788.675
1614.10715	106916.275
1617.41763	98299.875
1620.7259	92900.175
1624.03199	90452.675
1627.33587	91149.175
1630.63757	94715.575
1633.93707	101123.475
1637.23439	109595.975
1640.52951	119517.575
1643.82246	129228.075
1647.11321	135186.375
1650.40179	133982.075
1653.68819	123956.675
1656.97241	108949.675
1660.25446	94785.575
1663.53433	84786.975
1666.81203	78419.275
1670.08756	74406.775
1673.36092	71751.975
1676.63211	69873.675
1679.90115	68582.975
1683.16801	67558.375
1686.43272	66787.175
1689.69527	66216.475
1692.95567	65829.875
1696.2139	65503.975
1699.46999	65255.975
1702.72392	65247.475
1705.97571	65194.075
1709.22535	65023.875
1712.47284	65088.775
1715.71819	65098.175
1718.96139	65031.475
1722.20246	64720.375
1725.44139	64306.875
1728.67818	64076.475
1731.91284	63768.375
1735.14537	63499.775
1738.37576	63348.575
1741.60403	63115.775
1744.83017	62858.575
1748.05418	62754.975
1751.27607	62673.875
1754.49584	62586.175
1757.71349	62547.675
1760.92903	62486.375
1764.14244	62402.375
1767.35375	62384.375
1770.56294	62243.275
1773.77002	62246.375
1776.97499	62297.775
1780.17785	62203.275
1783.37861	62058.075
1786.57727	61982.475
1789.77382	62007.575
1792.96828	61961.975
1796.16064	61956.375
1799.3509	62010.075
1802.53907	61806.075
1805.72514	61698.375
1808.90913	61661.775
1812.09102	61631.075
1815.27083	61396.975
1818.44856	61328.275
1821.6242	61327.775
1824.79776	61245.275
1827.96924	61112.375
1831.13864	61005.475
1834.30597	61069.075
1837.47122	60978.175
1840.6344	60957.075
1843.7955	61056.775
1846.95454	61136.575
1850.11151	60995.575
1853.26642	60951.075
1856.41926	60962.975
1859.57004	61001.975
1862.71876	61009.675
1865.86542	61055.675
1869.01003	61173.275
1872.15258	61190.575
1875.29308	61171.275
1878.43152	61116.475
1881.56792	61135.675
1884.70227	61047.775
1887.83457	61018.275
1890.96482	61044.975
1894.09304	60998.775
1897.21921	61035.675
1900.34335	61078.975
1903.46544	61035.375
1906.58551	61057.775
1909.70353	61042.175
1912.81953	61010.375
1915.93349	60900.375
1919.04543	60840.775
1922.15534	60832.275
1925.26322	60726.875
1928.36908	60655.175
1931.47292	60635.275
1934.57473	60508.075
1937.67453	60435.675
1940.77232	60337.875
1943.86808	60136.475
1946.96184	59945.775
1950.05358	59739.875
1953.14331	59559.375
1956.23103	59422.475
1959.31675	59190.275
1962.40046	59140.775
1965.48217	58936.775
1968.56188	58819.775
1971.63959	58626.075
1974.7153	58474.975
1977.78901	58376.575
1980.86073	58229.975
1983.93046	57996.175
1986.99819	57795.375
1990.06394	57746.375
1993.1277	57571.775
1996.18947	57347.475
1999.24925	57283.175
2002.30706	57183.575
2005.36288	57110.875
2008.41672	57030.375
2011.46859	56881.675
2014.51848	56684.875
2017.56639	56726.675
2020.61233	56646.875
2023.6563	56528.275
2026.6983	56416.375
2029.73833	56260.275
2032.7764	56180.775
2035.8125	56142.175
2038.84664	56098.475
2041.87881	56041.175
2044.90903	55963.875
2047.93729	55879.475
2050.96359	55977.675
2053.98794	55895.475
2057.01034	55862.775
2060.03078	55761.275
2063.04927	55736.975
2066.06582	55677.175
2069.08042	55635.475
2072.09307	55630.675
2075.10378	55560.675
2078.11255	55488.975
2081.11938	55424.375
2084.12426	55304.575
2087.12722	55292.675
2090.12824	55148.575
2093.12732	55257.875
2096.12447	55310.175
2099.11969	55350.475
2102.11299	55419.275
2105.10435	55374.375
2108.09379	55444.375
2111.08131	55485.275
2114.0669	55433.475
2117.05057	55458.175
2120.03233	55540.075
2123.01216	55644.775
2125.99008	55606.675
2128.96609	55720.275
2131.94018	55757.175
2134.91236	55782.075
2137.88263	55847.175
2140.851	55859.375
2143.81746	55928.375
2146.78201	56016.575
2149.74466	56095.175
2152.7054	56064.775
2155.66425	56068.075
2158.6212	56124.675
2161.57625	56041.175
2164.52941	55978.575
2167.48067	56066.675
2170.43004	56088.175
2173.37752	56098.875
2176.32311	55998.175
2179.26681	56024.575
2182.20863	56169.975
2185.14856	56265.375
2188.08661	56337.275
2191.02278	56369.075
2193.95707	56312.675
2196.88948	56474.475
2199.82001	56503.275
2202.74867	56451.975
2205.67545	56525.975
2208.60037	56457.875
2211.52341	56491.075
2214.44458	56462.675
2217.36388	56399.775
2220.28132	56437.075
2223.1969	56382.975
2226.11061	56295.975
2229.02246	56202.575
2231.93245	56149.675
2234.84058	56042.575
2237.74686	55836.375
2240.65128	55785.775
2243.55385	55628.375
2246.45456	55692.475
2249.35343	55577.575
2252.25044	55508.275
2255.14561	55439.875
2258.03893	55444.575
2260.93041	55334.975
2263.82004	55204.575
2266.70783	55118.575
2269.59378	54979.075
2272.4779	54993.075
2275.36017	54807.775
2278.24061	54667.175
2281.11922	54590.275
2283.996	54544.475
2286.87094	54511.275
2289.74405	54458.375
2292.61534	54449.275
2295.4848	54441.375
2298.35243	54594.575
2301.21824	54577.575
2304.08223	54625.575
2306.94439	54754.775
2309.80474	54883.775
2312.66327	55037.275
2315.51999	55108.275
2318.37489	55162.375
2321.22797	55202.875
2324.07925	55093.175
2326.92871	55047.575
2329.77637	55116.975
2332.62222	55178.875
2335.46626	55183.575
2338.3085	55298.375
2341.14893	55455.275
2343.98756	55564.675
2346.8244	55624.575
2349.65943	55811.775
2352.49267	55823.675
2355.32411	55787.975
2358.15376	55710.875
2360.98161	55594.575
2363.80768	55577.975
2366.63195	55411.675
2369.45444	55181.775
2372.27514	55099.475
2375.09405	55003.275
2377.91118	54837.475
2380.72652	54577.075
2383.54009	54513.375
2386.35187	54459.975
2389.16188	54419.875
2391.97011	54418.975
2394.77657	54358.675
2397.58125	54346.075
2400.38416	54216.475
2403.18529	54040.475
2405.98466	53990.675
2408.78226	53853.575
2411.57809	53798.375
2414.37216	53620.075
2417.16446	53513.275
2419.955	53338.075
2422.74378	53383.875
2425.5308	53328.175
2428.31606	53289.475
2431.09956	53295.875
2433.88131	53240.475
2436.6613	53339.775
2439.43954	53367.675
2442.21603	53330.975
2444.99077	53318.375
2447.76377	53285.875
2450.53501	53233.675
2453.30451	53302.175
2456.07226	53257.075
2458.83827	53127.475
2461.60254	53131.675
2464.36507	53220.475
2467.12586	53281.075
2469.88492	53248.275
2472.64224	53248.075
2475.39782	53186.175
2478.15167	53353.275
2480.90379	53498.975
2483.65417	53689.975
2486.40283	53773.575
2489.14976	53911.875
2491.89497	53889.775
2494.63845	53938.675
2497.3802	53924.975
2500.12024	53953.775
2502.85855	53945.275
2505.59514	53936.575
2508.33002	53912.675
2511.06318	53803.275
2513.79462	53815.275
2516.52435	53761.275
2519.25237	53664.875
2521.97867	53700.675
2524.70327	53686.275
2527.42616	53640.075
2530.14734	53707.775
2532.86681	53589.975
2535.58458	53632.575
2538.30065	53731.775
2541.01501	53817.775
2543.72768	53841.475
2546.43864	53775.575
2549.14791	53724.875
2551.85548	53835.575
2554.56136	53690.675
2557.26554	53641.775
2559.96803	53546.175
2562.66883	53494.575
2565.36794	53535.575
2568.06536	53479.775
2570.7611	53392.475
2573.45514	53408.875
2576.14751	53405.775
2578.83819	53420.575
2581.52719	53504.575
2584.21451	53521.075
2586.90015	53570.775
2589.58411	53570.875
2592.2664	53625.075
2594.94701	53622.775
2597.62594	53682.975
2600.30321	53691.975
2602.9788	53652.575
2605.65273	53628.175
2608.32498	53628.575
2610.99557	53651.775
2613.66449	53747.975
2616.33175	53827.475
2618.99734	53879.675
2621.66128	53896.775
2624.32355	54013.675
2626.98416	54198.275
2629.64311	54303.775
2632.30041	54352.075
2634.95605	54325.175
2637.61004	54207.675
2640.26238	54200.075
2642.91306	54061.075
2645.56209	53895.475
2648.20948	53868.675
2650.85521	53693.875
2653.4993	53670.475
2656.14175	53634.875
2658.78255	53723.375
2661.42171	53814.775
2664.05923	53982.475
2666.6951	54027.975
2669.32934	54144.775
2671.96194	54149.675
2674.59291	54210.075
2677.22224	54038.275
2679.84993	54031.075
2682.476	53944.575
2685.10043	53929.875
2687.72324	53830.175
2690.34441	53790.075
2692.96396	53661.375
2695.58188	53659.875
2698.19818	53608.075
2700.81285	53613.175
2703.4259	53619.275
2706.03733	53682.575
2708.64714	53621.175
2711.25533	53670.975
2713.86191	53644.975
2716.46687	53897.975
2719.07021	53858.375
2721.67194	53810.775
2724.27206	53833.675
2726.87057	53913.475
2729.46747	53835.075
2732.06276	53907.475
2734.65644	53881.975
2737.24852	53951.075
2739.83899	53874.475
2742.42786	53935.775
2745.01513	53744.375
2747.60079	53721.875
2750.18486	53714.575
2752.76733	53838.075
2755.3482	53887.975
2757.92747	54010.175
2760.50515	53928.875
2763.08123	53902.675
2765.65573	53759.875
2768.22863	53833.375
2770.79994	53875.175
2773.36967	53966.175
2775.9378	53953.575
2778.50435	53966.975
2781.06932	53970.475
2783.6327	54086.875
2786.1945	53987.375
2788.75471	54010.775
2791.31335	53803.075
2793.87041	53723.375
2796.42589	53552.775
2798.97979	53614.275
2801.53212	53487.075
2804.08288	53492.675
2806.63206	53418.875
2809.17967	53309.575
2811.72571	53292.375
2814.27018	53205.275
2816.81308	53107.275
2819.35442	52987.475
2821.89419	52927.875
2824.43239	53031.075
2826.96904	52949.875
2829.50412	52973.975
2832.03763	53014.275
2834.56959	53072.475
2837.1	52925.675
2839.62884	52984.275
2842.15613	52900.775
2844.68186	52828.075
2847.20604	52668.875
2849.72867	52730.075
2852.24974	52612.775
2854.76927	52577.375
2857.28724	52492.675
2859.80367	52537.675
2862.31855	52497.975
2864.83189	52627.675
2867.34368	52548.675
2869.85393	52567.975
2872.36264	52406.675
2874.8698	52362.575
2877.37543	52437.875
2879.87952	52408.375
2882.38207	52380.575
2884.88308	52375.475
2887.38256	52409.175
2889.88051	52324.975
2892.37692	52398.875
2894.8718	52488.375
2897.36515	52608.375
2899.85698	52647.575
2902.34727	52762.475
2904.83604	52849.075
2907.32328	53074.075
2909.809	53131.775
2912.29319	53230.875
2914.77587	53238.975
2917.25702	53191.475
2919.73665	53078.675
2922.21476	53129.175
2924.69136	52955.475
2927.16644	52921.875
2929.64	52855.075
2932.11205	52793.475
2934.58258	52566.675
2937.05161	52567.875
2939.51912	52576.875
2941.98513	52531.975
2944.44962	52508.875
2946.91261	52458.575
2949.37409	52542.675
2951.83407	52421.275
2954.29254	52517.775
2956.74951	52509.275
2959.20498	52481.875
2961.65895	52400.075
2964.11142	52440.675
2966.56239	52341.375
2969.01186	52351.275
2971.45984	52202.575
2973.90632	52128.575
2976.35131	52025.875
2978.7948	51898.275
2981.23681	51671.275
2983.67732	51632.275
2986.11635	51553.775
2988.55388	51497.275
2990.98993	51399.475
2993.4245	51147.775
2995.85758	51093.175
2998.28917	50984.875
3000.71928	50942.775
3003.14791	50825.275
3005.57506	50728.275
3008.00073	50442.475
3010.42493	50414.275
3012.84764	50269.875
3015.26888	50312.675
3017.68865	50172.275
3020.10694	50114.975
3022.52376	49940.975
3024.9391	49885.775
3027.35298	49875.375
3029.76539	49886.375
3032.17632	49822.675
3034.5858	49808.575
3036.9938	49801.275
3039.40034	49804.975
3041.80542	49780.075
3044.20903	49597.275
3046.61118	49666.175
3049.01187	49532.675
3051.4111	49535.075
3053.80888	49361.675
3056.20519	49277.875
3058.60005	49107.775
3060.99345	48988.775
3063.3854	48822.275
3065.7759	48701.875
3068.16494	48611.575
3070.55254	48381.275
3072.93868	48264.975
3075.32338	48113.875
3077.70662	48073.075
3080.08842	47973.475
3082.46878	47920.975
3084.84769	47904.975
3087.22515	47928.975
3089.60118	47847.875
3091.97576	47894.275
3094.3489	47788.775
3096.72061	47785.475
3099.09087	47774.675
3101.4597	47730.175
3103.82709	47636.575
3106.19305	47508.675
3108.55757	47587.475
3110.92066	47467.975
3113.28232	47471.875
3115.64255	47419.075
