Data from AgNPs_UA_5uM_CRN_0uM_R6G_10uM_Q_RamanShift__21__11-13-45-315.txt Node

Date: Mon Jul 18 11:13:45 BST 2022
User: TCL
Spectrometer: QEP01345
Trigger mode: 4
Integration Time (sec): 7.000000E0
Scans to average: 10
Electric dark correction enabled: true
Nonlinearity correction enabled: false
Boxcar width: 0
XAxis mode: Raman Shifts
Number of Pixels in Spectrum: 1044
>>>>>Begin Spectral Data<<<<<
46.04893	-1.1875
50.45542	-1.8875
54.85868	-3.3875
59.25871	-3.4875
63.6555	167.1125
68.04907	172.8125
72.43941	177.2125
76.82654	179.6125
81.21044	189.6125
85.59113	189.4125
89.96862	198.6125
94.34289	201.3125
98.71396	214.6125
103.08183	220.2125
107.4465	224.3125
111.80798	230.8125
116.16626	241.1125
120.52136	254.7125
124.87327	265.2125
129.222	276.6125
133.56755	301.3125
137.90993	327.8125
142.24913	359.5125
146.58517	412.5125
150.91804	481.1125
155.24774	578.3125
159.57429	727.5125
163.89768	936.4125
168.21792	1252.5125
172.53501	1716.7125
176.84895	2402.1125
181.15975	3384.7125
185.46741	4742.2125
189.77193	6542.7125
194.07331	8727.1125
198.37157	11196.2125
202.6667	13781.7125
206.9587	16332.4125
211.24758	18844.8125
215.53334	21397.3125
219.81599	24123.4125
224.09553	27184.9125
228.37195	30580.4125
232.64527	34391.0125
236.91549	38300.9125
241.18261	42137.5125
245.44663	45599.5125
249.70755	48674.2125
253.96539	51302.7125
258.22014	53611.7125
262.4718	55450.2125
266.72039	56758.5125
270.96589	57315.4125
275.20832	57368.3125
279.44768	56937.9125
283.68397	56252.6125
287.91719	55665.9125
292.14735	55405.6125
296.37445	55507.2125
300.59849	55900.6125
304.81948	56474.7125
309.03742	56763.5125
313.25231	56549.1125
317.46415	55502.0125
321.67296	54041.4125
325.87872	53037.4125
330.08145	52663.1125
334.28114	52884.7125
338.47781	53561.7125
342.67145	54422.9125
346.86207	55531.6125
351.04966	56927.4125
355.23424	58581.8125
359.4158	60079.7125
363.59435	61246.8125
367.76989	62076.9125
371.94243	62601.3125
376.11196	62983.1125
380.27849	63438.0125
384.44203	63791.3125
388.60257	64111.2125
392.76012	64532.9125
396.91468	65348.0125
401.06626	66446.0125
405.21485	67285.6125
409.36047	67008.8125
413.50311	66046.4125
417.64277	65150.1125
421.77947	64944.3125
425.9132	65130.7125
430.04396	65546.6125
434.17176	66265.2125
438.2966	67318.0125
442.41849	69081.8125
446.53742	71375.0125
450.6534	73891.3125
454.76644	75735.5125
458.87653	76278.9125
462.98368	75618.2125
467.08789	74304.5125
471.18916	72538.4125
475.2875	70672.0125
479.38291	69083.2125
483.4754	67957.5125
487.56496	67023.5125
491.6516	66156.5125
495.73531	65603.4125
499.81612	65543.8125
503.89401	65850.3125
507.96899	65956.3125
512.04106	65984.0125
516.11023	66141.7125
520.1765	66349.2125
524.23987	66383.2125
528.30034	66176.9125
532.35792	65893.0125
536.41261	65221.9125
540.46441	64558.4125
544.51333	64416.1125
548.55936	64937.3125
552.60252	66073.4125
556.64279	67139.5125
560.6802	67789.7125
564.71473	68261.8125
568.7464	69059.7125
572.7752	70061.7125
576.80114	70437.5125
580.82422	70987.7125
584.84444	72218.0125
588.86181	74084.0125
592.87633	76274.2125
596.888	77597.1125
600.89682	78302.8125
604.9028	82596.4125
608.90594	92744.8125
612.90624	100946.5125
616.90371	92931.9125
620.89834	77912.2125
624.89015	72531.3125
628.87913	72148.2125
632.86528	71217.7125
636.84862	69711.4125
640.82913	68024.1125
644.80683	66103.6125
648.78172	64729.9125
652.75379	64862.4125
656.72306	66175.1125
660.68952	67794.1125
664.65319	67484.6125
668.61405	66474.3125
672.57211	66241.6125
676.52738	66301.4125
680.47986	65901.2125
684.42955	65505.3125
688.37646	65659.6125
692.32058	66143.0125
696.26192	66895.4125
700.20048	67661.9125
704.13626	67806.8125
708.06928	67084.9125
711.99952	66460.2125
715.927	66309.5125
719.85171	66594.0125
723.77365	66291.8125
727.69284	65661.3125
731.60928	65326.6125
735.52295	65455.3125
739.43388	65853.3125
743.34206	66285.0125
747.24749	66703.2125
751.15017	67270.2125
755.05012	68275.9125
758.94733	70122.4125
762.8418	73992.8125
766.73354	79826.5125
770.62254	85369.0125
774.50882	86921.3125
778.39237	83255.5125
782.27321	77204.2125
786.15132	71933.3125
790.02671	68814.8125
793.89938	67347.3125
797.76935	66946.9125
801.6366	66707.5125
805.50115	66389.8125
809.36299	66055.6125
813.22213	65669.7125
817.07857	65342.1125
820.93231	65292.1125
824.78336	65294.5125
828.63172	65458.1125
832.47738	65572.0125
836.32036	65869.3125
840.16066	66360.2125
843.99827	66734.0125
847.8332	66395.3125
851.66546	65954.5125
855.49504	65922.3125
859.32195	65806.3125
863.1462	65422.0125
866.96777	65140.1125
870.78668	65003.4125
874.60293	65072.1125
878.41652	65191.9125
882.22745	65613.9125
886.03573	65886.3125
889.84136	65869.0125
893.64433	65487.0125
897.44466	65131.6125
901.24235	64985.4125
905.0374	64750.2125
908.8298	64714.3125
912.61957	64769.3125
916.40671	65370.6125
920.19121	66315.0125
923.97308	67561.3125
927.75233	68525.7125
931.52895	68639.7125
935.30295	67929.6125
939.07433	66557.8125
942.84309	65696.9125
946.60924	65364.2125
950.37278	65077.0125
954.13371	64567.3125
957.89203	64075.2125
961.64774	63864.6125
965.40086	63651.0125
969.15137	63470.8125
972.89929	63378.8125
976.64461	63436.3125
980.38733	63739.2125
984.12747	64283.7125
987.86502	65092.3125
991.59999	66349.2125
995.33237	68545.9125
999.06217	72098.1125
1002.78939	75655.8125
1006.51404	77037.7125
1010.23611	77254.4125
1013.95561	77886.5125
1017.67255	78459.4125
1021.38692	78256.7125
1025.09872	78246.1125
1028.80796	80171.3125
1032.51465	83991.2125
1036.21877	86998.6125
1039.92035	86621.0125
1043.61937	83963.1125
1047.31584	79887.1125
1051.00976	75997.3125
1054.70114	73922.7125
1058.38998	73547.2125
1062.07627	73595.5125
1065.76003	73484.9125
1069.44126	73601.3125
1073.11995	74248.6125
1076.79611	75015.2125
1080.46974	75671.4125
1084.14085	76610.2125
1087.80943	77433.1125
1091.47549	77525.3125
1095.13903	76549.8125
1098.80005	75155.4125
1102.45857	74134.3125
1106.11456	73878.0125
1109.76805	74306.2125
1113.41903	75008.7125
1117.06751	75880.7125
1120.71348	76831.4125
1124.35696	77620.1125
1127.99793	78329.5125
1131.63641	78192.5125
1135.2724	77326.0125
1138.90589	76400.7125
1142.5369	75793.8125
1146.16542	75319.5125
1149.79145	75400.1125
1153.415	75776.3125
1157.03607	76516.0125
1160.65467	77971.8125
1164.27079	80520.0125
1167.88443	84377.6125
1171.49561	89942.0125
1175.10432	97445.5125
1178.71056	106970.3125
1182.31434	115714.5125
1185.91565	120641.1125
1189.51451	120199.6125
1193.11091	115061.3125
1196.70485	108416.2125
1200.29634	102663.2125
1203.88538	98387.4125
1207.47197	94994.5125
1211.05612	92460.9125
1214.63782	91421.7125
1218.21708	92055.7125
1221.79391	93443.2125
1225.36829	94263.1125
1228.94024	93457.8125
1232.50976	91136.3125
1236.07685	89301.9125
1239.6415	88726.5125
1243.20374	88926.2125
1246.76355	89679.0125
1250.32093	91315.2125
1253.8759	93842.1125
1257.42845	96819.1125
1260.97859	99598.6125
1264.52631	101845.3125
1268.07163	104420.7125
1271.61453	107479.2125
1275.15503	111188.2125
1278.69312	115052.5125
1282.22882	117988.7125
1285.76211	119916.2125
1289.29301	121412.5125
1292.82151	123404.7125
1296.34761	126832.9125
1299.87133	132490.3125
1303.39266	140912.6125
1306.9116	152008.2125
1310.42815	163621.8125
1313.94233	171151.5125
1317.45412	171020.0125
1320.96354	165634.8125
1324.47058	158596.2125
1327.97525	152349.9125
1331.47754	148541.0125
1334.97747	147278.6125
1338.47502	147811.6125
1341.97022	149311.0125
1345.46305	150054.5125
1348.95352	150006.1125
1352.44163	150969.1125
1355.92738	155244.9125
1359.41078	163627.0125
1362.89183	170448.2125
1366.37053	165604.8125
1369.84688	149975.1125
1373.32088	133270.3125
1376.79254	121997.8125
1380.26186	116589.9125
1383.72883	114595.0125
1387.19347	113323.0125
1390.65578	111205.8125
1394.11575	110117.2125
1397.57339	110896.2125
1401.0287	113204.3125
1404.48168	115634.1125
1407.93234	117774.6125
1411.38068	119159.9125
1414.82669	119031.7125
1418.27039	116274.6125
1421.71177	112509.4125
1425.15083	109568.0125
1428.58758	108513.9125
1432.02203	109348.4125
1435.45416	111211.1125
1438.88399	112805.2125
1442.31151	113640.2125
1445.73673	114106.1125
1449.15965	114459.9125
1452.58027	114157.9125
1455.9986	113207.2125
1459.41463	113069.0125
1462.82837	114401.6125
1466.23982	116962.1125
1469.64898	119447.1125
1473.05586	121217.0125
1476.46045	122485.9125
1479.86276	123223.0125
1483.26279	123507.2125
1486.66054	123926.0125
1490.05602	124791.1125
1493.44922	125829.8125
1496.84016	126824.2125
1500.22882	128698.0125
1503.61521	131901.8125
1506.99934	136255.0125
1510.38121	140193.1125
1513.76081	140834.3125
1517.13816	137251.7125
1520.51324	131414.8125
1523.88607	125708.1125
1527.25665	121932.4125
1530.62498	119842.8125
1533.99105	118509.2125
1537.35488	117721.2125
1540.71647	117121.7125
1544.07581	116143.1125
1547.4329	114700.4125
1550.78776	112835.3125
1554.14038	111102.0125
1557.49077	110051.1125
1560.83892	109375.6125
1564.18484	109203.7125
1567.52853	109222.4125
1570.86999	109202.5125
1574.20922	109731.3125
1577.54624	109820.7125
1580.88103	109037.0125
1584.2136	108885.2125
1587.54395	111413.4125
1590.87208	117792.2125
1594.19801	127984.6125
1597.52172	139104.4125
1600.84321	144452.3125
1604.16251	140128.0125
1607.47959	129415.5125
1610.79447	117129.0125
1614.10715	106061.8125
1617.41763	97762.8125
1620.7259	92451.3125
1624.03199	90003.0125
1627.33587	90532.3125
1630.63757	93789.6125
1633.93707	99967.0125
1637.23439	108159.1125
1640.52951	118260.1125
1643.82246	128151.3125
1647.11321	134427.5125
1650.40179	133300.0125
1653.68819	123524.9125
1656.97241	108585.8125
1660.25446	94779.5125
1663.53433	85067.1125
1666.81203	78689.2125
1670.08756	74771.7125
1673.36092	72212.5125
1676.63211	70471.8125
1679.90115	69115.7125
1683.16801	68053.3125
1686.43272	67305.9125
1689.69527	66669.7125
1692.95567	66291.4125
1696.2139	66056.5125
1699.46999	65818.4125
1702.72392	65736.2125
1705.97571	65623.1125
1709.22535	65577.7125
1712.47284	65577.3125
1715.71819	65610.7125
1718.96139	65485.9125
1722.20246	65249.3125
1725.44139	64865.4125
1728.67818	64567.4125
1731.91284	64186.2125
1735.14537	63895.1125
1738.37576	63739.7125
1741.60403	63598.5125
1744.83017	63414.5125
1748.05418	63305.3125
1751.27607	63146.8125
1754.49584	62989.3125
1757.71349	63047.5125
1760.92903	62893.2125
1764.14244	62927.0125
1767.35375	62844.0125
1770.56294	62697.0125
1773.77002	62604.6125
1776.97499	62653.1125
1780.17785	62601.7125
1783.37861	62445.5125
1786.57727	62398.3125
1789.77382	62434.5125
1792.96828	62304.2125
1796.16064	62284.9125
1799.3509	62334.8125
1802.53907	62183.8125
1805.72514	62064.8125
1808.90913	61999.8125
1812.09102	61928.9125
1815.27083	61757.5125
1818.44856	61675.6125
1821.6242	61657.0125
1824.79776	61528.8125
1827.96924	61456.0125
1831.13864	61316.2125
1834.30597	61294.3125
1837.47122	61289.6125
1840.6344	61275.0125
1843.7955	61371.6125
1846.95454	61410.3125
1850.11151	61264.2125
1853.26642	61235.1125
1856.41926	61249.1125
1859.57004	61224.8125
1862.71876	61335.6125
1865.86542	61359.4125
1869.01003	61343.1125
1872.15258	61448.1125
1875.29308	61409.3125
1878.43152	61325.0125
1881.56792	61328.5125
1884.70227	61284.8125
1887.83457	61219.5125
1890.96482	61253.5125
1894.09304	61286.0125
1897.21921	61281.6125
1900.34335	61218.6125
1903.46544	61203.3125
1906.58551	61209.3125
1909.70353	61198.3125
1912.81953	61048.7125
1915.93349	61009.5125
1919.04543	60885.7125
1922.15534	60989.5125
1925.26322	60854.6125
1928.36908	60784.1125
1931.47292	60712.3125
1934.57473	60562.0125
1937.67453	60474.3125
1940.77232	60353.8125
1943.86808	60150.4125
1946.96184	59957.4125
1950.05358	59809.5125
1953.14331	59628.7125
1956.23103	59526.9125
1959.31675	59258.6125
1962.40046	59157.8125
1965.48217	59000.6125
1968.56188	58862.9125
1971.63959	58741.3125
1974.7153	58571.9125
1977.78901	58450.4125
1980.86073	58266.6125
1983.93046	58042.3125
1986.99819	57881.5125
1990.06394	57747.7125
1993.1277	57643.8125
1996.18947	57398.4125
1999.24925	57379.4125
2002.30706	57246.3125
2005.36288	57227.2125
2008.41672	57077.6125
2011.46859	56946.2125
2014.51848	56837.7125
2017.56639	56750.7125
2020.61233	56690.5125
2023.6563	56561.2125
2026.6983	56416.2125
2029.73833	56219.9125
2032.7764	56111.6125
2035.8125	56140.2125
2038.84664	56058.6125
2041.87881	55997.0125
2044.90903	55939.9125
2047.93729	55821.7125
2050.96359	55888.5125
2053.98794	55825.2125
2057.01034	55811.9125
2060.03078	55822.0125
2063.04927	55721.4125
2066.06582	55672.2125
2069.08042	55560.1125
2072.09307	55606.7125
2075.10378	55545.7125
2078.11255	55506.3125
2081.11938	55421.6125
2084.12426	55360.4125
2087.12722	55232.7125
2090.12824	55210.6125
2093.12732	55207.9125
2096.12447	55257.7125
2099.11969	55336.4125
2102.11299	55401.1125
2105.10435	55423.3125
2108.09379	55430.7125
2111.08131	55534.8125
2114.0669	55447.6125
2117.05057	55503.3125
2120.03233	55546.3125
2123.01216	55627.1125
2125.99008	55656.7125
2128.96609	55714.6125
2131.94018	55743.8125
2134.91236	55812.8125
2137.88263	55844.7125
2140.851	55921.7125
2143.81746	55969.7125
2146.78201	55977.3125
2149.74466	56109.2125
2152.7054	56079.2125
2155.66425	56112.0125
2158.6212	56136.1125
2161.57625	56086.0125
2164.52941	56046.3125
2167.48067	56038.5125
2170.43004	56154.4125
2173.37752	56063.5125
2176.32311	56041.2125
2179.26681	56076.2125
2182.20863	56161.1125
2185.14856	56278.4125
2188.08661	56319.3125
2191.02278	56327.1125
2193.95707	56383.7125
2196.88948	56424.5125
2199.82001	56418.7125
2202.74867	56461.3125
2205.67545	56443.6125
2208.60037	56425.5125
2211.52341	56370.1125
2214.44458	56316.4125
2217.36388	56205.8125
2220.28132	56316.8125
2223.1969	56150.9125
2226.11061	56137.2125
2229.02246	55991.1125
2231.93245	56016.7125
2234.84058	55894.8125
2237.74686	55680.5125
2240.65128	55612.7125
2243.55385	55543.1125
2246.45456	55469.0125
2249.35343	55467.3125
2252.25044	55430.4125
2255.14561	55385.3125
2258.03893	55280.0125
2260.93041	55210.6125
2263.82004	55143.8125
2266.70783	54983.9125
2269.59378	54882.3125
2272.4779	54889.3125
2275.36017	54653.7125
2278.24061	54546.1125
2281.11922	54504.7125
2283.996	54451.7125
2286.87094	54378.3125
2289.74405	54262.8125
2292.61534	54353.1125
2295.4848	54281.4125
2298.35243	54414.7125
2301.21824	54370.8125
2304.08223	54438.4125
2306.94439	54580.8125
2309.80474	54628.3125
2312.66327	54851.7125
2315.51999	54849.8125
2318.37489	54986.0125
2321.22797	54969.5125
2324.07925	54863.5125
2326.92871	54794.5125
2329.77637	54856.9125
2332.62222	54778.0125
2335.46626	54874.7125
2338.3085	54931.3125
2341.14893	55118.3125
2343.98756	55133.5125
2346.8244	55178.7125
2349.65943	55337.8125
2352.49267	55371.7125
2355.32411	55344.0125
2358.15376	55293.2125
2360.98161	55176.9125
2363.80768	55134.7125
2366.63195	55004.5125
2369.45444	54827.0125
2372.27514	54739.8125
2375.09405	54656.8125
2377.91118	54464.4125
2380.72652	54295.7125
2383.54009	54096.7125
2386.35187	54181.6125
2389.16188	54137.1125
2391.97011	54101.2125
2394.77657	54033.2125
2397.58125	53964.2125
2400.38416	53851.0125
2403.18529	53706.9125
2405.98466	53710.3125
2408.78226	53581.2125
2411.57809	53411.9125
2414.37216	53379.9125
2417.16446	53270.6125
2419.955	53166.9125
2422.74378	53144.5125
2425.5308	53126.2125
2428.31606	53026.8125
2431.09956	53071.8125
2433.88131	53010.7125
2436.6613	53125.2125
2439.43954	53129.7125
2442.21603	53184.2125
2444.99077	53103.6125
2447.76377	53142.2125
2450.53501	52984.3125
2453.30451	52996.6125
2456.07226	53017.6125
2458.83827	52889.6125
2461.60254	52981.0125
2464.36507	53008.6125
2467.12586	53074.9125
2469.88492	53057.2125
2472.64224	52976.1125
2475.39782	52966.3125
2478.15167	53118.4125
2480.90379	53290.3125
2483.65417	53442.7125
2486.40283	53496.2125
2489.14976	53575.2125
2491.89497	53602.2125
2494.63845	53669.8125
2497.3802	53612.9125
2500.12024	53569.3125
2502.85855	53678.5125
2505.59514	53587.4125
2508.33002	53488.5125
2511.06318	53495.9125
2513.79462	53457.4125
2516.52435	53408.3125
2519.25237	53397.3125
2521.97867	53372.4125
2524.70327	53385.7125
2527.42616	53271.7125
2530.14734	53366.2125
2532.86681	53319.2125
2535.58458	53344.4125
2538.30065	53342.6125
2541.01501	53466.8125
2543.72768	53422.7125
2546.43864	53476.4125
2549.14791	53351.9125
2551.85548	53370.4125
2554.56136	53278.7125
2557.26554	53227.4125
2559.96803	53194.4125
2562.66883	53144.9125
2565.36794	53096.1125
2568.06536	53107.4125
2570.7611	53026.8125
2573.45514	52994.4125
2576.14751	52970.9125
2578.83819	52933.7125
2581.52719	53073.8125
2584.21451	53053.2125
2586.90015	53135.1125
2589.58411	53134.8125
2592.2664	53155.1125
2594.94701	53108.5125
2597.62594	53231.0125
2600.30321	53226.8125
2602.9788	53230.6125
2605.65273	53126.2125
2608.32498	53116.2125
2610.99557	53112.9125
2613.66449	53274.3125
2616.33175	53296.7125
2618.99734	53293.7125
2621.66128	53350.9125
2624.32355	53393.7125
2626.98416	53583.3125
2629.64311	53668.3125
2632.30041	53716.0125
2634.95605	53658.8125
2637.61004	53563.4125
2640.26238	53491.5125
2642.91306	53428.2125
2645.56209	53341.6125
2648.20948	53212.6125
2650.85521	53107.6125
2653.4993	53131.4125
2656.14175	53080.9125
2658.78255	53135.7125
2661.42171	53215.0125
2664.05923	53425.4125
2666.6951	53503.6125
2669.32934	53553.2125
2671.96194	53516.8125
2674.59291	53571.4125
2677.22224	53494.6125
2679.84993	53455.5125
2682.476	53302.8125
2685.10043	53345.4125
2687.72324	53243.4125
2690.34441	53247.7125
2692.96396	53134.1125
2695.58188	53119.0125
2698.19818	53104.3125
2700.81285	53165.3125
2703.4259	53114.5125
2706.03733	53209.0125
2708.64714	53165.7125
2711.25533	53154.2125
2713.86191	53169.4125
2716.46687	53391.3125
2719.07021	53360.8125
2721.67194	53374.1125
2724.27206	53359.6125
2726.87057	53429.5125
2729.46747	53347.2125
2732.06276	53436.9125
2734.65644	53387.7125
2737.24852	53480.5125
2739.83899	53446.4125
2742.42786	53445.6125
2745.01513	53238.0125
2747.60079	53251.2125
2750.18486	53292.4125
2752.76733	53394.0125
2755.3482	53427.8125
2757.92747	53464.0125
2760.50515	53460.5125
2763.08123	53406.4125
2765.65573	53222.2125
2768.22863	53327.6125
2770.79994	53353.3125
2773.36967	53486.6125
2775.9378	53380.5125
2778.50435	53403.9125
2781.06932	53428.0125
2783.6327	53535.2125
2786.1945	53405.8125
2788.75471	53414.7125
2791.31335	53205.9125
2793.87041	53124.5125
2796.42589	53008.2125
2798.97979	53061.0125
2801.53212	52931.8125
2804.08288	52941.2125
2806.63206	52867.8125
2809.17967	52849.6125
2811.72571	52697.9125
2814.27018	52727.8125
2816.81308	52523.8125
2819.35442	52442.7125
2821.89419	52342.5125
2824.43239	52415.5125
2826.96904	52332.6125
2829.50412	52363.8125
2832.03763	52409.6125
2834.56959	52395.3125
2837.1	52333.9125
2839.62884	52411.5125
2842.15613	52300.6125
2844.68186	52169.1125
2847.20604	52095.2125
2849.72867	52081.6125
2852.24974	52000.7125
2854.76927	51897.2125
2857.28724	51890.8125
2859.80367	51937.2125
2862.31855	51951.9125
2864.83189	52066.5125
2867.34368	51962.1125
2869.85393	51894.6125
2872.36264	51832.1125
2874.8698	51759.1125
2877.37543	51826.5125
2879.87952	51787.9125
2882.38207	51723.7125
2884.88308	51809.0125
2887.38256	51840.0125
2889.88051	51780.9125
2892.37692	51800.3125
2894.8718	51892.4125
2897.36515	52047.8125
2899.85698	52031.4125
2902.34727	52175.5125
2904.83604	52200.8125
2907.32328	52443.3125
2909.809	52520.9125
2912.29319	52604.3125
2914.77587	52509.7125
2917.25702	52503.4125
2919.73665	52441.8125
2922.21476	52504.7125
2924.69136	52406.0125
2927.16644	52306.2125
2929.64	52212.8125
2932.11205	52139.9125
2934.58258	51968.6125
2937.05161	52001.0125
2939.51912	51951.5125
2941.98513	51965.4125
2944.44962	51970.6125
2946.91261	51928.8125
2949.37409	51959.9125
2951.83407	51937.6125
2954.29254	51960.1125
2956.74951	51966.7125
2959.20498	51917.5125
2961.65895	51805.8125
2964.11142	51898.0125
2966.56239	51816.0125
2969.01186	51846.1125
2971.45984	51712.0125
2973.90632	51590.9125
2976.35131	51535.9125
2978.7948	51424.8125
2981.23681	51284.2125
2983.67732	51154.2125
2986.11635	51059.0125
2988.55388	51017.3125
2990.98993	50909.3125
2993.4245	50731.5125
2995.85758	50628.3125
2998.28917	50495.3125
3000.71928	50507.8125
3003.14791	50337.2125
3005.57506	50288.3125
3008.00073	50044.6125
3010.42493	49956.4125
