Data from AgNPs_UA_50uM_CRN_0uM_R6G_10uM_Q_RamanShift__16__12-29-51-772.txt Node

Date: Tue Jul 26 12:29:51 BST 2022
User: TCL
Spectrometer: QEP01345
Trigger mode: 4
Integration Time (sec): 7.000000E0
Scans to average: 10
Electric dark correction enabled: true
Nonlinearity correction enabled: false
Boxcar width: 0
XAxis mode: Raman Shifts
Number of Pixels in Spectrum: 1044
>>>>>Begin Spectral Data<<<<<
46.04893	0.35
50.45542	-0.25
54.85868	-0.05
59.25871	-1.05
63.6555	79.45
68.04907	83.75
72.43941	84.45
76.82654	91.95
81.21044	95.65
85.59113	99.15
89.96862	104.45
94.34289	109.25
98.71396	106.05
103.08183	111.45
107.4465	113.85
111.80798	118.65
116.16626	119.65
120.52136	125.15
124.87327	124.85
129.222	128.05
133.56755	137.25
137.90993	144.45
142.24913	150.55
146.58517	168.05
150.91804	187.55
155.24774	214.55
159.57429	260.75
163.89768	324.25
168.21792	417.15
172.53501	560.65
176.84895	770.65
181.15975	1076.55
185.46741	1504.35
189.77193	2072.65
194.07331	2756.85
198.37157	3557.75
202.6667	4409.85
206.9587	5241.85
211.24758	6056.85
215.53334	6865.05
219.81599	7705.75
224.09553	8616.15
228.37195	9632.25
232.64527	10756.15
236.91549	11972.75
241.18261	13197.85
245.44663	14410.75
249.70755	15577.25
253.96539	16565.95
258.22014	17361.65
262.4718	17964.15
266.72039	18375.05
270.96589	18546.85
275.20832	18531.05
279.44768	18378.95
283.68397	18156.55
287.91719	17884.15
292.14735	17671.25
296.37445	17494.45
300.59849	17429.45
304.81948	17425.55
309.03742	17383.75
313.25231	17331.05
317.46415	17237.05
321.67296	17132.45
325.87872	17060.95
330.08145	17071.25
334.28114	17213.85
338.47781	17420.95
342.67145	17609.15
346.86207	17852.35
351.04966	18188.15
355.23424	18496.25
359.4158	18773.05
363.59435	19067.45
367.76989	19300.65
371.94243	19516.75
376.11196	19703.95
380.27849	19867.95
384.44203	20031.65
388.60257	20230.95
392.76012	20391.65
396.91468	20591.45
401.06626	20812.15
405.21485	20975.85
409.36047	21076.85
413.50311	21066.75
417.64277	21067.45
421.77947	21118.95
425.9132	21061.25
430.04396	21090.65
434.17176	21232.45
438.2966	21399.05
442.41849	21611.65
446.53742	21819.55
450.6534	22045.25
454.76644	22318.05
458.87653	22504.95
462.98368	22631.25
467.08789	22687.45
471.18916	22728.45
475.2875	22654.65
479.38291	22576.25
483.4754	22554.05
487.56496	22553.55
491.6516	22530.65
495.73531	22542.35
499.81612	22606.05
503.89401	22760.35
507.96899	22865.25
512.04106	22915.35
516.11023	22998.65
520.1765	23014.55
524.23987	23066.35
528.30034	23096.15
532.35792	23141.15
536.41261	23170.65
540.46441	23129.25
544.51333	23146.45
548.55936	23229.35
552.60252	23394.75
556.64279	23568.15
560.6802	23747.65
564.71473	23893.45
568.7464	23878.05
572.7752	23875.65
576.80114	23922.35
580.82422	23955.45
584.84444	24061.95
588.86181	24155.25
592.87633	24208.05
596.888	24266.95
600.89682	24584.95
604.9028	25223.95
608.90594	26471.05
612.90624	27703.05
616.90371	27108.65
620.89834	25409.05
624.89015	24679.45
628.87913	24623.35
632.86528	24793.45
636.84862	25000.65
640.82913	24935.95
644.80683	24788.35
648.78172	24658.85
652.75379	24703.85
656.72306	24907.35
660.68952	25167.25
664.65319	25208.05
668.61405	25213.45
672.57211	25322.75
676.52738	25401.95
680.47986	25378.75
684.42955	25351.65
688.37646	25344.45
692.32058	25483.95
696.26192	25652.45
700.20048	25867.85
704.13626	26005.15
708.06928	26013.45
711.99952	25944.05
715.927	25876.05
719.85171	25925.25
723.77365	25920.65
727.69284	25859.65
731.60928	25811.55
735.52295	25851.25
739.43388	25857.95
743.34206	25941.35
747.24749	25978.45
751.15017	25999.95
755.05012	26102.65
758.94733	26310.35
762.8418	26807.95
766.73354	27456.75
770.62254	28113.35
774.50882	28450.85
778.39237	28327.35
782.27321	27945.95
786.15132	27335.55
790.02671	26897.25
793.89938	26699.85
797.76935	26545.25
801.6366	26445.55
805.50115	26354.65
809.36299	26360.45
813.22213	26358.25
817.07857	26394.15
820.93231	26428.85
824.78336	26554.15
828.63172	26575.65
832.47738	26624.55
836.32036	26616.85
840.16066	26642.85
843.99827	26714.85
847.8332	26721.25
851.66546	26777.25
855.49504	26836.05
859.32195	26921.55
863.1462	26923.35
866.96777	26980.75
870.78668	27004.35
874.60293	27140.85
878.41652	27109.15
882.22745	27222.15
886.03573	27303.45
889.84136	27298.15
893.64433	27228.45
897.44466	27228.25
901.24235	27239.95
905.0374	27325.05
908.8298	27290.55
912.61957	27321.25
916.40671	27311.95
920.19121	27365.45
923.97308	27368.25
927.75233	27391.35
931.52895	27336.75
935.30295	27369.65
939.07433	27282.45
942.84309	27211.65
946.60924	27146.65
950.37278	27126.95
954.13371	27157.75
957.89203	27124.75
961.64774	27118.35
965.40086	27095.65
969.15137	27028.35
972.89929	27065.75
976.64461	27075.35
980.38733	27038.95
984.12747	27083.95
987.86502	27149.45
991.59999	27223.35
995.33237	27309.95
999.06217	27430.65
1002.78939	27566.65
1006.51404	27725.05
1010.23611	27953.45
1013.95561	28062.05
1017.67255	28081.35
1021.38692	28052.65
1025.09872	27997.25
1028.80796	27884.55
1032.51465	27854.45
1036.21877	27864.35
1039.92035	27945.75
1043.61937	27967.15
1047.31584	28045.35
1051.00976	28087.65
1054.70114	28142.45
1058.38998	28203.95
1062.07627	28313.65
1065.76003	28397.95
1069.44126	28574.25
1073.11995	28881.65
1076.79611	29186.35
1080.46974	29354.55
1084.14085	29358.45
1087.80943	29312.65
1091.47549	29338.05
1095.13903	29362.05
1098.80005	29494.95
1102.45857	29560.25
1106.11456	29457.05
1109.76805	29270.35
1113.41903	29067.75
1117.06751	29013.25
1120.71348	29057.35
1124.35696	29142.95
1127.99793	29178.75
1131.63641	29169.15
1135.2724	29084.05
1138.90589	29019.45
1142.5369	28946.55
1146.16542	28860.35
1149.79145	28822.35
1153.415	28673.85
1157.03607	28605.85
1160.65467	28624.75
1164.27079	28784.95
1167.88443	28986.65
1171.49561	29419.15
1175.10432	29949.45
1178.71056	30590.65
1182.31434	31193.95
1185.91565	31587.35
1189.51451	31825.05
1193.11091	31902.55
1196.70485	31733.45
1200.29634	31559.55
1203.88538	31239.25
1207.47197	30896.65
1211.05612	30542.95
1214.63782	30264.05
1218.21708	30034.55
1221.79391	29769.55
1225.36829	29619.75
1228.94024	29505.35
1232.50976	29484.75
1236.07685	29542.95
1239.6415	29578.15
1243.20374	29687.35
1246.76355	29790.75
1250.32093	29915.35
1253.8759	30055.95
1257.42845	30328.35
1260.97859	30646.25
1264.52631	30897.95
1268.07163	31144.75
1271.61453	31243.75
1275.15503	31318.95
1278.69312	31380.05
1282.22882	31353.55
1285.76211	31362.35
1289.29301	31400.75
1292.82151	31477.95
1296.34761	31702.65
1299.87133	32018.85
1303.39266	32421.65
1306.9116	33003.15
1310.42815	33651.25
1313.94233	34123.25
1317.45412	34131.25
1320.96354	33940.45
1324.47058	33676.15
1327.97525	33255.05
1331.47754	32898.75
1334.97747	32789.35
1338.47502	32894.95
1341.97022	33327.45
1345.46305	33903.75
1348.95352	34569.55
1352.44163	35061.65
1355.92738	35286.05
1359.41078	35448.95
1362.89183	35563.45
1366.37053	34972.15
1369.84688	33657.55
1373.32088	32313.95
1376.79254	31376.15
1380.26186	30778.35
1383.72883	30400.95
1387.19347	30047.55
1390.65578	29736.25
1394.11575	29445.55
1397.57339	29160.25
1401.0287	28992.35
1404.48168	28912.35
1407.93234	28991.55
1411.38068	29014.35
1414.82669	29054.25
1418.27039	28959.85
1421.71177	28871.25
1425.15083	28786.75
1428.58758	28678.35
1432.02203	28596.05
1435.45416	28559.75
1438.88399	28596.55
1442.31151	28607.05
1445.73673	28553.05
1449.15965	28638.85
1452.58027	28706.05
1455.9986	28685.35
1459.41463	28751.55
1462.82837	28945.85
1466.23982	29112.85
1469.64898	29371.75
1473.05586	29600.15
1476.46045	29711.75
1479.86276	29832.15
1483.26279	29908.25
1486.66054	30045.65
1490.05602	30222.25
1493.44922	30520.65
1496.84016	31068.75
1500.22882	31803.55
1503.61521	32707.45
1506.99934	33567.95
1510.38121	33974.35
1513.76081	33889.15
1517.13816	33270.35
1520.51324	32455.15
1523.88607	31665.35
1527.25665	31122.95
1530.62498	30796.65
1533.99105	30565.05
1537.35488	30424.05
1540.71647	30366.45
1544.07581	30346.05
1547.4329	30380.35
1550.78776	30336.55
1554.14038	30245.65
1557.49077	30206.25
1560.83892	30216.25
1564.18484	30338.55
1567.52853	30475.75
1570.86999	30580.65
1574.20922	30635.65
1577.54624	30610.55
1580.88103	30353.95
1584.2136	30028.55
1587.54395	29880.85
1590.87208	29933.25
1594.19801	30197.95
1597.52172	30609.45
1600.84321	30925.95
1604.16251	30849.25
1607.47959	30634.75
1610.79447	30258.65
1614.10715	29704.65
1617.41763	29069.95
1620.7259	28585.95
1624.03199	28251.95
1627.33587	28115.95
1630.63757	28107.35
1633.93707	28311.75
1637.23439	28656.05
1640.52951	29267.95
1643.82246	30060.65
1647.11321	30894.65
1650.40179	31260.35
1653.68819	30946.25
1656.97241	29991.05
1660.25446	28970.75
1663.53433	28210.85
1666.81203	27700.15
1670.08756	27322.15
1673.36092	27043.85
1676.63211	26921.65
1679.90115	26746.15
1683.16801	26589.35
1686.43272	26483.25
1689.69527	26450.45
1692.95567	26410.95
1696.2139	26352.85
1699.46999	26323.45
1702.72392	26333.25
1705.97571	26316.85
1709.22535	26325.95
1712.47284	26339.25
1715.71819	26283.35
1718.96139	26281.05
1722.20246	26222.55
1725.44139	26233.25
1728.67818	26180.85
1731.91284	26121.15
1735.14537	26068.35
1738.37576	26016.25
1741.60403	25945.15
1744.83017	25904.25
1748.05418	25819.95
1751.27607	25813.05
1754.49584	25760.65
1757.71349	25714.75
1760.92903	25700.25
1764.14244	25690.05
1767.35375	25700.45
1770.56294	25670.85
1773.77002	25634.65
1776.97499	25665.55
1780.17785	25633.65
1783.37861	25654.25
1786.57727	25587.05
1789.77382	25609.35
1792.96828	25548.85
1796.16064	25558.55
1799.3509	25548.15
1802.53907	25491.85
1805.72514	25421.45
1808.90913	25404.05
1812.09102	25297.45
1815.27083	25221.25
1818.44856	25218.35
1821.6242	25181.25
1824.79776	25189.35
1827.96924	25116.05
1831.13864	25062.05
1834.30597	25060.25
1837.47122	25032.45
1840.6344	25029.75
1843.7955	25065.05
1846.95454	25044.05
1850.11151	25007.25
1853.26642	24958.05
1856.41926	24974.95
1859.57004	24942.75
1862.71876	24895.15
1865.86542	24907.95
1869.01003	24849.95
1872.15258	24831.05
1875.29308	24820.65
1878.43152	24781.85
1881.56792	24710.25
1884.70227	24735.45
1887.83457	24696.15
1890.96482	24667.65
1894.09304	24590.75
1897.21921	24567.85
1900.34335	24547.75
1903.46544	24514.95
1906.58551	24498.95
1909.70353	24510.55
1912.81953	24496.15
1915.93349	24459.05
1919.04543	24368.65
1922.15534	24342.05
1925.26322	24276.25
1928.36908	24267.15
1931.47292	24245.65
1934.57473	24177.25
1937.67453	24077.65
1940.77232	24110.65
1943.86808	24020.35
1946.96184	23982.35
1950.05358	23880.55
1953.14331	23848.15
1956.23103	23791.95
1959.31675	23705.75
1962.40046	23644.25
1965.48217	23570.65
1968.56188	23486.05
1971.63959	23421.35
1974.7153	23367.85
1977.78901	23322.05
1980.86073	23243.75
1983.93046	23210.95
1986.99819	23112.15
1990.06394	23045.95
1993.1277	22998.75
1996.18947	22923.95
1999.24925	22872.15
2002.30706	22819.95
2005.36288	22774.15
2008.41672	22730.25
2011.46859	22632.75
2014.51848	22564.75
2017.56639	22479.35
2020.61233	22415.35
2023.6563	22334.85
2026.6983	22307.15
2029.73833	22247.65
2032.7764	22233.05
2035.8125	22123.65
2038.84664	22130.55
2041.87881	22102.25
2044.90903	22089.35
2047.93729	21952.95
2050.96359	21978.95
2053.98794	21910.95
2057.01034	21925.85
2060.03078	21891.25
2063.04927	21908.55
2066.06582	21896.15
2069.08042	21854.55
2072.09307	21820.95
2075.10378	21818.05
2078.11255	21757.65
2081.11938	21755.15
2084.12426	21739.55
2087.12722	21789.45
2090.12824	21791.05
2093.12732	21768.25
2096.12447	21749.15
2099.11969	21696.05
2102.11299	21704.95
2105.10435	21742.75
2108.09379	21761.75
2111.08131	21728.75
2114.0669	21731.35
2117.05057	21772.45
2120.03233	21810.85
2123.01216	21842.15
2125.99008	21808.55
2128.96609	21822.95
2131.94018	21837.15
2134.91236	21863.25
2137.88263	21906.95
2140.851	21883.05
2143.81746	21894.15
2146.78201	21901.25
2149.74466	21976.35
2152.7054	21996.15
2155.66425	21956.25
2158.6212	21953.95
2161.57625	21934.55
2164.52941	21936.85
2167.48067	21874.75
2170.43004	21887.85
2173.37752	21876.75
2176.32311	21904.15
2179.26681	21854.45
2182.20863	21852.25
2185.14856	21846.35
2188.08661	21845.35
2191.02278	21810.55
2193.95707	21808.65
2196.88948	21820.85
2199.82001	21815.45
2202.74867	21765.55
2205.67545	21778.05
2208.60037	21734.75
2211.52341	21673.15
2214.44458	21653.95
2217.36388	21608.25
2220.28132	21563.35
2223.1969	21528.75
2226.11061	21466.65
2229.02246	21444.25
2231.93245	21419.25
2234.84058	21376.45
2237.74686	21334.55
2240.65128	21305.35
2243.55385	21289.35
2246.45456	21245.35
2249.35343	21219.55
2252.25044	21250.75
2255.14561	21201.35
2258.03893	21165.45
2260.93041	21116.55
2263.82004	21022.25
2266.70783	21029.15
2269.59378	20999.55
2272.4779	20919.75
2275.36017	20864.85
2278.24061	20783.05
2281.11922	20760.75
2283.996	20735.05
2286.87094	20699.65
2289.74405	20652.45
2292.61534	20626.55
2295.4848	20622.45
2298.35243	20625.65
2301.21824	20607.05
2304.08223	20580.45
2306.94439	20556.75
2309.80474	20567.15
2312.66327	20524.15
2315.51999	20472.65
2318.37489	20504.95
2321.22797	20468.45
2324.07925	20373.95
2326.92871	20305.15
2329.77637	20261.55
2332.62222	20260.15
2335.46626	20231.05
2338.3085	20179.85
2341.14893	20133.85
2343.98756	20141.75
2346.8244	20161.95
2349.65943	20164.45
2352.49267	20096.65
2355.32411	20053.55
2358.15376	20012.35
2360.98161	20035.65
2363.80768	20037.25
2366.63195	19992.75
2369.45444	19967.55
2372.27514	19956.55
2375.09405	19965.45
2377.91118	19947.65
2380.72652	19858.75
2383.54009	19829.65
2386.35187	19808.75
2389.16188	19749.15
2391.97011	19692.65
2394.77657	19673.05
2397.58125	19597.65
2400.38416	19607.05
2403.18529	19559.45
2405.98466	19500.65
2408.78226	19456.65
2411.57809	19429.45
2414.37216	19440.15
2417.16446	19446.05
2419.955	19408.75
2422.74378	19432.85
2425.5308	19377.45
2428.31606	19364.15
2431.09956	19331.25
2433.88131	19303.25
2436.6613	19311.85
2439.43954	19276.05
2442.21603	19214.85
2444.99077	19172.65
2447.76377	19186.85
2450.53501	19138.05
2453.30451	19137.75
2456.07226	19070.25
2458.83827	19069.35
2461.60254	19032.05
2464.36507	18987.85
2467.12586	18965.75
2469.88492	18969.45
2472.64224	18964.75
2475.39782	18965.05
2478.15167	18901.55
2480.90379	18882.65
2483.65417	18871.65
2486.40283	18854.05
2489.14976	18831.05
2491.89497	18842.15
2494.63845	18840.25
2497.3802	18809.75
2500.12024	18764.25
2502.85855	18727.05
2505.59514	18735.55
2508.33002	18688.25
2511.06318	18632.75
2513.79462	18673.85
2516.52435	18653.75
2519.25237	18585.35
2521.97867	18521.15
2524.70327	18532.85
2527.42616	18459.05
2530.14734	18496.15
2532.86681	18450.25
2535.58458	18434.15
2538.30065	18331.55
2541.01501	18368.45
2543.72768	18349.75
2546.43864	18313.65
2549.14791	18274.85
2551.85548	18231.55
2554.56136	18223.15
2557.26554	18166.65
2559.96803	18123.45
2562.66883	18100.75
2565.36794	18047.65
2568.06536	18040.25
2570.7611	18013.75
2573.45514	17927.85
2576.14751	17930.75
2578.83819	17873.75
2581.52719	17851.55
2584.21451	17830.15
2586.90015	17787.75
2589.58411	17750.55
2592.2664	17732.65
2594.94701	17699.95
2597.62594	17650.15
2600.30321	17599.75
2602.9788	17553.45
2605.65273	17560.75
2608.32498	17557.55
2610.99557	17503.35
2613.66449	17493.75
2616.33175	17446.25
2618.99734	17459.85
2621.66128	17443.65
2624.32355	17416.35
2626.98416	17366.25
2629.64311	17301.65
2632.30041	17312.15
2634.95605	17280.65
2637.61004	17288.25
2640.26238	17250.75
2642.91306	17218.15
2645.56209	17234.55
2648.20948	17216.45
2650.85521	17151.85
2653.4993	17116.05
2656.14175	17099.75
2658.78255	17107.85
2661.42171	17060.85
2664.05923	17042.75
2666.6951	17088.35
2669.32934	17105.35
2671.96194	17092.75
2674.59291	17106.25
2677.22224	17061.85
2679.84993	17063.55
2682.476	17043.15
2685.10043	17047.75
2687.72324	16997.55
2690.34441	16977.45
2692.96396	16984.15
2695.58188	16978.05
2698.19818	16967.05
2700.81285	16960.45
2703.4259	16946.15
2706.03733	16975.75
2708.64714	16928.05
2711.25533	16944.85
2713.86191	16912.95
2716.46687	16903.35
2719.07021	16919.35
2721.67194	16936.05
2724.27206	16932.15
2726.87057	16920.75
2729.46747	16867.95
2732.06276	16878.35
2734.65644	16835.75
2737.24852	16852.35
2739.83899	16826.55
2742.42786	16871.65
2745.01513	16831.15
2747.60079	16764.35
2750.18486	16687.65
2752.76733	16681.25
2755.3482	16690.95
2757.92747	16665.75
2760.50515	16656.55
2763.08123	16583.75
2765.65573	16568.85
2768.22863	16583.15
2770.79994	16555.55
2773.36967	16514.85
2775.9378	16519.15
2778.50435	16495.05
2781.06932	16483.05
2783.6327	16467.25
2786.1945	16427.25
2788.75471	16400.95
2791.31335	16302.35
2793.87041	16290.25
2796.42589	16242.55
2798.97979	16227.95
2801.53212	16164.25
2804.08288	16175.25
2806.63206	16109.85
2809.17967	16059.95
2811.72571	15994.85
2814.27018	15984.45
2816.81308	15938.45
2819.35442	15946.35
2821.89419	15901.45
2824.43239	15877.55
2826.96904	15837.05
2829.50412	15827.45
2832.03763	15756.45
2834.56959	15746.35
2837.1	15687.35
2839.62884	15711.15
2842.15613	15685.75
2844.68186	15681.45
2847.20604	15666.25
2849.72867	15604.95
2852.24974	15597.95
2854.76927	15585.25
2857.28724	15531.55
2859.80367	15540.05
2862.31855	15509.15
2864.83189	15486.35
2867.34368	15415.25
2869.85393	15446.15
2872.36264	15423.55
2874.8698	15372.85
2877.37543	15364.45
2879.87952	15305.95
2882.38207	15351.35
2884.88308	15321.75
2887.38256	15332.55
2889.88051	15318.35
2892.37692	15293.55
2894.8718	15295.55
2897.36515	15261.75
2899.85698	15270.65
2902.34727	15297.85
2904.83604	15320.15
2907.32328	15350.55
2909.809	15346.05
2912.29319	15315.25
2914.77587	15300.05
2917.25702	15286.45
2919.73665	15250.25
2922.21476	15274.05
2924.69136	15274.05
2927.16644	15237.75
2929.64	15222.25
2932.11205	15191.75
2934.58258	15151.35
2937.05161	15188.75
2939.51912	15177.25
2941.98513	15177.95
2944.44962	15138.85
2946.91261	15086.55
2949.37409	15091.35
2951.83407	15110.65
2954.29254	15094.35
2956.74951	15099.35
2959.20498	15096.75
2961.65895	15080.85
2964.11142	15051.95
2966.56239	15035.65
2969.01186	15041.05
2971.45984	15043.15
2973.90632	15051.35
2976.35131	15005.25
2978.7948	14998.25
2981.23681	14981.05
2983.67732	14950.05
2986.11635	14908.05
2988.55388	14909.35
2990.98993	14857.75
2993.4245	14833.35
2995.85758	14810.25
2998.28917	14777.75
3000.71928	14754.75
3003.14791	14722.95
3005.57506	14712.85
3008.00073	14655.45
3010.42493	14650.35
3012.84764	14634.85
3015.26888	14639.05
3017.68865	14596.85
3020.10694	14579.55
3022.52376	14552.05
3024.9391	14505.75
3027.35298	14479.15
3029.76539	14464.25
3032.17632	14462.65
3034.5858	14433.55
3036.9938	14410.65
3039.40034	14384.35
3041.80542	14409.65
3044.20903	14346.95
3046.61118	14337.15
3049.01187	14331.25
3051.4111	14318.85
3053.80888	14291.85
3056.20519	14261.85
3058.60005	14194.25
3060.99345	14191.35
3063.3854	14157.05
3065.7759	14101.85
3068.16494	14118.45
3070.55254	14073.25
3072.93868	14018.85
3075.32338	13979.35
3077.70662	13988.55
3080.08842	13959.85
3082.46878	13953.15
3084.84769	13938.75
3087.22515	13917.15
3089.60118	13930.15
3091.97576	13931.25
3094.3489	13878.55
3096.72061	13883.95
3099.09087	13885.85
3101.4597	13875.05
3103.82709	13897.45
3106.19305	13859.45
3108.55757	13857.55
3110.92066	13833.75
3113.28232	13834.75
3115.64255	13797.05
3118.00134	13772.75
3120.35871	13765.95
3122.71466	13710.35
3125.06917	13698.15
3127.42226	13664.55
3129.77393	13655.65
3132.12417	13617.95
3134.47299	13612.25
3136.82039	13622.45
3139.16636	13613.35
3141.51092	13587.05
3143.85406	13583.15
3146.19579	13588.35
3148.53609	13569.35
3150.87499	13639.05
3153.21246	13623.65
3155.54853	13650.55
3157.88318	13622.35
3160.21642	13644.25
3162.54826	13618.85
3164.87868	13635.95
3167.2077	13617.25
3169.5353	13622.45
3171.86151	13627.55
3174.18631	13629.35
3176.5097	13618.65
3178.83169	13563.75
3181.15228	13563.95
3183.47147	13523.95
3185.78926	13491.05
3188.10565	13459.35
3190.42065	13464.75
3192.73424	13463.25
3195.04645	13427.55
3197.35725	13448.45
3199.66667	13414.35
3201.97469	13430.55
3204.28132	13369.95
3206.58656	13420.55
3208.8904	13401.85
3211.19287	13454.55
3213.49394	13413.15
3215.79363	13399.45
3218.09193	13417.15
3220.38884	13406.85
3222.68438	13421.05
3224.97853	13428.85
3227.2713	13412.55
3229.56269	13409.35
3231.8527	13416.55
3234.14133	13351.15
3236.42858	13332.15
3238.71446	13314.15
3240.99896	13259.35
