Data from AgNPs_UA_50uM_CRN_0uM_R6G_10uM_Q_RamanShift__37__12-54-21-802.txt Node

Date: Tue Jul 26 12:54:21 BST 2022
User: TCL
Spectrometer: QEP01345
Trigger mode: 4
Integration Time (sec): 7.000000E0
Scans to average: 10
Electric dark correction enabled: true
Nonlinearity correction enabled: false
Boxcar width: 0
XAxis mode: Raman Shifts
Number of Pixels in Spectrum: 1044
>>>>>Begin Spectral Data<<<<<
46.04893	-0.3625
50.45542	-1.3625
54.85868	0.4375
59.25871	-0.4625
63.6555	101.2375
68.04907	105.3375
72.43941	109.9375
76.82654	117.7375
81.21044	117.9375
85.59113	124.3375
89.96862	127.3375
94.34289	136.2375
98.71396	137.3375
103.08183	144.3375
107.4465	144.1375
111.80798	153.8375
116.16626	150.1375
120.52136	160.1375
124.87327	160.1375
129.222	171.0375
133.56755	182.7375
137.90993	192.4375
142.24913	210.9375
146.58517	231.2375
150.91804	263.9375
155.24774	303.7375
159.57429	373.7375
163.89768	475.9375
168.21792	620.4375
172.53501	846.7375
176.84895	1168.7375
181.15975	1646.3375
185.46741	2307.8375
189.77193	3162.5375
194.07331	4209.2375
198.37157	5386.2375
202.6667	6629.0375
206.9587	7862.7375
211.24758	9107.0375
215.53334	10360.6375
219.81599	11699.0375
224.09553	13221.3375
228.37195	14902.8375
232.64527	16774.2375
236.91549	18690.2375
241.18261	20462.5375
245.44663	22049.9375
249.70755	23378.8375
253.96539	24532.6375
258.22014	25443.6375
262.4718	26188.0375
266.72039	26742.0375
270.96589	26932.8375
275.20832	26839.5375
279.44768	26491.5375
283.68397	26068.0375
287.91719	25739.3375
292.14735	25597.9375
296.37445	25755.4375
300.59849	26168.8375
304.81948	26678.4375
309.03742	27148.5375
313.25231	27380.5375
317.46415	27220.1375
321.67296	26752.1375
325.87872	26351.2375
330.08145	26200.0375
334.28114	26256.8375
338.47781	26505.1375
342.67145	26963.3375
346.86207	27542.2375
351.04966	28279.2375
355.23424	29001.0375
359.4158	29412.9375
363.59435	29714.2375
367.76989	29870.7375
371.94243	29924.6375
376.11196	29997.3375
380.27849	30107.6375
384.44203	30322.0375
388.60257	30501.2375
392.76012	30649.0375
396.91468	30859.7375
401.06626	31249.5375
405.21485	31560.0375
409.36047	31231.7375
413.50311	30556.0375
417.64277	29982.4375
421.77947	29789.4375
425.9132	29840.1375
430.04396	30068.7375
434.17176	30496.6375
438.2966	31136.7375
442.41849	32103.4375
446.53742	33497.0375
450.6534	34729.3375
454.76644	35331.1375
458.87653	35057.2375
462.98368	34388.1375
467.08789	33601.0375
471.18916	32762.7375
475.2875	31816.6375
479.38291	30971.7375
483.4754	30365.6375
487.56496	30013.3375
491.6516	29901.1375
495.73531	29896.0375
499.81612	30052.3375
503.89401	30321.4375
507.96899	30471.3375
512.04106	30493.7375
516.11023	30603.2375
520.1765	30811.9375
524.23987	31114.8375
528.30034	31321.0375
532.35792	31387.5375
536.41261	31120.7375
540.46441	30569.5375
544.51333	30348.5375
548.55936	30553.2375
552.60252	31107.9375
556.64279	31885.7375
560.6802	32355.3375
564.71473	32397.3375
568.7464	32418.1375
572.7752	32664.1375
576.80114	32831.5375
580.82422	33173.1375
584.84444	34337.1375
588.86181	36727.2375
592.87633	39915.3375
596.888	41703.2375
600.89682	40672.1375
604.9028	40143.8375
608.90594	43436.6375
612.90624	47680.2375
616.90371	44446.2375
620.89834	36522.3375
624.89015	33099.1375
628.87913	32577.1375
632.86528	32704.1375
636.84862	32697.7375
640.82913	32085.6375
644.80683	31288.4375
648.78172	30748.8375
652.75379	30867.9375
656.72306	31557.1375
660.68952	32242.2375
664.65319	31919.4375
668.61405	31245.6375
672.57211	31135.5375
676.52738	31267.5375
680.47986	31077.0375
684.42955	30713.3375
688.37646	30630.6375
692.32058	30861.0375
696.26192	31289.1375
700.20048	31811.1375
704.13626	32015.7375
708.06928	31843.5375
711.99952	31603.3375
715.927	31647.7375
719.85171	31876.8375
723.77365	31896.6375
727.69284	31589.4375
731.60928	31392.4375
735.52295	31546.6375
739.43388	31697.5375
743.34206	31877.1375
747.24749	31991.0375
751.15017	32050.7375
755.05012	32439.7375
758.94733	33441.2375
762.8418	35532.8375
766.73354	38861.2375
770.62254	41896.5375
774.50882	42676.6375
778.39237	40973.6375
782.27321	37853.2375
786.15132	35092.5375
790.02671	33381.5375
793.89938	32446.0375
797.76935	32065.4375
801.6366	31867.7375
805.50115	31670.5375
809.36299	31522.9375
813.22213	31378.4375
817.07857	31304.3375
820.93231	31250.6375
824.78336	31270.6375
828.63172	31363.5375
832.47738	31462.8375
836.32036	31527.9375
840.16066	31634.0375
843.99827	31589.8375
847.8332	31659.0375
851.66546	31603.2375
855.49504	31665.4375
859.32195	31645.7375
863.1462	31578.3375
866.96777	31556.7375
870.78668	31531.8375
874.60293	31621.3375
878.41652	31769.1375
882.22745	31925.9375
886.03573	32099.9375
889.84136	32016.6375
893.64433	31884.7375
897.44466	31764.3375
901.24235	31660.0375
905.0374	31601.5375
908.8298	31522.1375
912.61957	31488.8375
916.40671	31620.7375
920.19121	31871.7375
923.97308	32263.5375
927.75233	32504.2375
931.52895	32441.8375
935.30295	32156.4375
939.07433	31659.5375
942.84309	31315.3375
946.60924	31150.0375
950.37278	31147.4375
954.13371	31016.0375
957.89203	30950.9375
961.64774	30869.2375
965.40086	30875.4375
969.15137	30892.3375
972.89929	30915.7375
976.64461	30975.9375
980.38733	31090.8375
984.12747	31289.7375
987.86502	31519.6375
991.59999	31886.5375
995.33237	32416.5375
999.06217	33162.3375
1002.78939	34120.7375
1006.51404	34784.3375
1010.23611	35261.9375
1013.95561	35718.3375
1017.67255	35825.8375
1021.38692	35357.1375
1025.09872	34683.1375
1028.80796	34472.7375
1032.51465	34866.6375
1036.21877	35317.9375
1039.92035	35351.8375
1043.61937	35195.6375
1047.31584	34622.3375
1051.00976	34071.6375
1054.70114	33792.7375
1058.38998	33751.8375
1062.07627	33807.5375
1065.76003	33908.0375
1069.44126	34136.6375
1073.11995	34667.8375
1076.79611	35187.0375
1080.46974	35707.2375
1084.14085	36219.3375
1087.80943	36651.1375
1091.47549	36698.1375
1095.13903	36409.6375
1098.80005	35760.2375
1102.45857	35258.5375
1106.11456	35085.2375
1109.76805	35276.7375
1113.41903	35578.8375
1117.06751	36104.1375
1120.71348	36680.2375
1124.35696	37295.9375
1127.99793	37787.0375
1131.63641	37606.4375
1135.2724	37005.8375
1138.90589	36445.3375
1142.5369	36202.3375
1146.16542	36084.0375
1149.79145	36082.4375
1153.415	36085.0375
1157.03607	36197.1375
1160.65467	36699.2375
1164.27079	37785.5375
1167.88443	39440.0375
1171.49561	42003.1375
1175.10432	45651.9375
1178.71056	50247.9375
1182.31434	54251.2375
1185.91565	55390.9375
1189.51451	53987.8375
1193.11091	51196.1375
1196.70485	48647.9375
1200.29634	46457.1375
1203.88538	44603.3375
1207.47197	43010.9375
1211.05612	41711.1375
1214.63782	41011.8375
1218.21708	40978.7375
1221.79391	41432.4375
1225.36829	42128.9375
1228.94024	42193.9375
1232.50976	41524.0375
1236.07685	40528.7375
1239.6415	39853.5375
1243.20374	39746.9375
1246.76355	39986.3375
1250.32093	40371.7375
1253.8759	41035.9375
1257.42845	42013.4375
1260.97859	43169.6375
1264.52631	44502.2375
1268.07163	45806.5375
1271.61453	46971.2375
1275.15503	47879.2375
1278.69312	48654.2375
1282.22882	49531.5375
1285.76211	50825.2375
1289.29301	52629.9375
1292.82151	54656.1375
1296.34761	57055.2375
1299.87133	60313.0375
1303.39266	64342.2375
1306.9116	69529.8375
1310.42815	74661.9375
1313.94233	77380.9375
1317.45412	75830.5375
1320.96354	71520.7375
1324.47058	66555.8375
1327.97525	62198.7375
1331.47754	59279.9375
1334.97747	57893.2375
1338.47502	57497.7375
1341.97022	57561.1375
1345.46305	58044.4375
1348.95352	59737.5375
1352.44163	62758.6375
1355.92738	67708.8375
1359.41078	74264.9375
1362.89183	79325.1375
1366.37053	77766.0375
1369.84688	69195.7375
1373.32088	59547.5375
1376.79254	53731.5375
1380.26186	51482.7375
1383.72883	50756.3375
1387.19347	49925.4375
1390.65578	48650.5375
1394.11575	47872.9375
1397.57339	47666.6375
1401.0287	47740.3375
1404.48168	47903.6375
1407.93234	47908.3375
1411.38068	47751.2375
1414.82669	47601.8375
1418.27039	47247.4375
1421.71177	46456.8375
1425.15083	45601.4375
1428.58758	45405.1375
1432.02203	46093.0375
1435.45416	47143.0375
1438.88399	47930.1375
1442.31151	48051.2375
1445.73673	47938.6375
1449.15965	47640.6375
1452.58027	47139.6375
1455.9986	46432.8375
1459.41463	46133.9375
1462.82837	46607.0375
1466.23982	47660.9375
1469.64898	48853.3375
1473.05586	49915.9375
1476.46045	50680.1375
1479.86276	51245.0375
1483.26279	51629.1375
1486.66054	52086.3375
1490.05602	52875.3375
1493.44922	54053.6375
1496.84016	55401.7375
1500.22882	57216.0375
1503.61521	59748.7375
1506.99934	62805.7375
1510.38121	64774.4375
1513.76081	64428.1375
1517.13816	61315.9375
1520.51324	56899.8375
1523.88607	53503.9375
1527.25665	51822.8375
1530.62498	51268.9375
1533.99105	50912.9375
1537.35488	50294.1375
1540.71647	49470.8375
1544.07581	48609.3375
1547.4329	47762.9375
1550.78776	46917.9375
1554.14038	46268.6375
1557.49077	45880.3375
1560.83892	45867.3375
1564.18484	46380.0375
1567.52853	47163.7375
1570.86999	47860.0375
1574.20922	48433.6375
1577.54624	48454.9375
1580.88103	47349.1375
1584.2136	46303.0375
1587.54395	46532.5375
1590.87208	48498.4375
1594.19801	51969.7375
1597.52172	56090.5375
1600.84321	58426.3375
1604.16251	57132.6375
1607.47959	53084.9375
1610.79447	48301.6375
1614.10715	44053.9375
1617.41763	41098.0375
1620.7259	39359.5375
1624.03199	38638.1375
1627.33587	38878.0375
1630.63757	39906.2375
1633.93707	42153.5375
1637.23439	45865.4375
1640.52951	51591.0375
1643.82246	58708.4375
1647.11321	64571.5375
1650.40179	65327.8375
1653.68819	60066.7375
1656.97241	51786.4375
1660.25446	44517.0375
1663.53433	39733.9375
1666.81203	36968.9375
1670.08756	35305.0375
1673.36092	34298.9375
1676.63211	33675.5375
1679.90115	33152.2375
1683.16801	32725.6375
1686.43272	32332.3375
1689.69527	32185.7375
1692.95567	31979.1375
1696.2139	31839.0375
1699.46999	31765.6375
1702.72392	31696.5375
1705.97571	31686.6375
1709.22535	31645.4375
1712.47284	31636.9375
1715.71819	31624.0375
1718.96139	31558.6375
1722.20246	31468.4375
1725.44139	31381.4375
1728.67818	31262.4375
1731.91284	31168.4375
1735.14537	31021.5375
1738.37576	30934.2375
1741.60403	30785.5375
1744.83017	30727.0375
1748.05418	30629.4375
1751.27607	30599.5375
1754.49584	30539.0375
1757.71349	30503.7375
1760.92903	30483.2375
1764.14244	30453.1375
1767.35375	30479.7375
1770.56294	30431.0375
1773.77002	30368.4375
1776.97499	30374.3375
1780.17785	30328.2375
1783.37861	30323.8375
1786.57727	30325.4375
1789.77382	30252.8375
1792.96828	30189.7375
1796.16064	30186.6375
1799.3509	30122.6375
1802.53907	30131.0375
1805.72514	30081.0375
1808.90913	29976.0375
1812.09102	29908.8375
1815.27083	29809.5375
1818.44856	29772.2375
1821.6242	29748.2375
1824.79776	29728.3375
1827.96924	29691.4375
1831.13864	29631.0375
1834.30597	29647.1375
1837.47122	29657.5375
1840.6344	29669.3375
1843.7955	29608.0375
1846.95454	29613.4375
1850.11151	29634.9375
1853.26642	29627.3375
1856.41926	29570.6375
1859.57004	29539.5375
1862.71876	29534.6375
1865.86542	29562.4375
1869.01003	29520.5375
1872.15258	29512.4375
1875.29308	29491.8375
1878.43152	29492.5375
1881.56792	29458.1375
1884.70227	29461.5375
1887.83457	29449.9375
1890.96482	29424.2375
1894.09304	29360.3375
1897.21921	29367.0375
1900.34335	29355.0375
1903.46544	29334.5375
1906.58551	29363.4375
1909.70353	29339.6375
1912.81953	29358.3375
1915.93349	29327.1375
1919.04543	29266.2375
1922.15534	29158.3375
1925.26322	29160.5375
1928.36908	29066.6375
1931.47292	29051.9375
1934.57473	28917.1375
1937.67453	28876.3375
1940.77232	28811.2375
1943.86808	28807.0375
1946.96184	28740.0375
1950.05358	28653.4375
1953.14331	28617.0375
1956.23103	28558.7375
1959.31675	28469.6375
1962.40046	28349.7375
1965.48217	28291.0375
1968.56188	28228.6375
1971.63959	28187.0375
1974.7153	28124.6375
1977.78901	28043.2375
1980.86073	27957.3375
1983.93046	27867.0375
1986.99819	27777.6375
1990.06394	27746.7375
1993.1277	27705.4375
1996.18947	27566.4375
1999.24925	27547.5375
2002.30706	27446.9375
2005.36288	27385.7375
2008.41672	27359.9375
2011.46859	27278.2375
2014.51848	27205.4375
2017.56639	27081.0375
2020.61233	27031.3375
2023.6563	26997.8375
2026.6983	26946.5375
2029.73833	26921.5375
2032.7764	26901.5375
2035.8125	26856.8375
2038.84664	26823.6375
2041.87881	26811.9375
2044.90903	26807.9375
2047.93729	26729.2375
2050.96359	26693.1375
2053.98794	26694.2375
2057.01034	26660.3375
2060.03078	26665.7375
2063.04927	26648.6375
2066.06582	26628.9375
2069.08042	26658.2375
2072.09307	26558.9375
2075.10378	26568.2375
2078.11255	26522.5375
2081.11938	26533.8375
2084.12426	26543.3375
2087.12722	26556.8375
2090.12824	26596.0375
2093.12732	26562.2375
2096.12447	26536.7375
2099.11969	26527.5375
2102.11299	26550.9375
2105.10435	26554.3375
2108.09379	26597.7375
2111.08131	26584.1375
2114.0669	26563.7375
2117.05057	26604.8375
2120.03233	26645.0375
2123.01216	26697.8375
2125.99008	26717.9375
2128.96609	26759.8375
2131.94018	26782.9375
2134.91236	26779.2375
2137.88263	26770.6375
2140.851	26806.4375
2143.81746	26819.4375
2146.78201	26798.3375
2149.74466	26824.2375
2152.7054	26882.3375
2155.66425	26849.1375
2158.6212	26851.6375
2161.57625	26807.0375
2164.52941	26859.2375
2167.48067	26808.6375
2170.43004	26837.5375
2173.37752	26787.6375
2176.32311	26818.1375
2179.26681	26864.7375
2182.20863	26842.3375
2185.14856	26908.0375
2188.08661	26847.6375
2191.02278	26831.6375
2193.95707	26906.0375
2196.88948	26928.8375
2199.82001	26880.7375
2202.74867	26885.7375
2205.67545	26913.1375
2208.60037	26857.6375
2211.52341	26830.1375
2214.44458	26827.9375
2217.36388	26775.2375
2220.28132	26734.3375
2223.1969	26614.6375
2226.11061	26644.1375
2229.02246	26645.1375
2231.93245	26575.7375
2234.84058	26541.4375
2237.74686	26534.4375
2240.65128	26475.1375
2243.55385	26448.2375
2246.45456	26437.0375
2249.35343	26417.0375
2252.25044	26422.3375
2255.14561	26384.3375
2258.03893	26355.2375
2260.93041	26324.6375
2263.82004	26246.3375
2266.70783	26232.5375
2269.59378	26140.7375
2272.4779	26073.1375
2275.36017	26097.2375
2278.24061	26002.9375
2281.11922	25904.1375
2283.996	25909.0375
2286.87094	25877.2375
2289.74405	25829.5375
2292.61534	25809.0375
2295.4848	25822.9375
2298.35243	25826.8375
2301.21824	25841.7375
2304.08223	25831.1375
2306.94439	25849.9375
2309.80474	25916.3375
2312.66327	25864.7375
2315.51999	25825.7375
2318.37489	25869.3375
2321.22797	25830.2375
2324.07925	25777.9375
2326.92871	25686.2375
2329.77637	25690.5375
2332.62222	25691.4375
2335.46626	25672.1375
2338.3085	25644.3375
2341.14893	25634.2375
2343.98756	25626.9375
2346.8244	25688.6375
2349.65943	25716.1375
2352.49267	25724.1375
2355.32411	25662.0375
2358.15376	25592.5375
2360.98161	25595.7375
2363.80768	25578.0375
2366.63195	25588.1375
2369.45444	25519.1375
2372.27514	25539.5375
2375.09405	25521.2375
2377.91118	25510.9375
2380.72652	25419.7375
2383.54009	25386.4375
2386.35187	25345.3375
2389.16188	25283.9375
2391.97011	25243.0375
2394.77657	25195.4375
2397.58125	25166.2375
2400.38416	25147.1375
2403.18529	25118.6375
2405.98466	25068.1375
2408.78226	25000.0375
2411.57809	24954.9375
2414.37216	24911.0375
2417.16446	24995.3375
2419.955	24959.0375
2422.74378	24942.7375
2425.5308	24920.4375
2428.31606	24929.0375
2431.09956	24934.7375
2433.88131	24891.3375
2436.6613	24944.2375
2439.43954	24898.7375
2442.21603	24836.0375
2444.99077	24811.7375
2447.76377	24867.3375
2450.53501	24804.4375
2453.30451	24813.5375
2456.07226	24831.7375
2458.83827	24835.4375
2461.60254	24793.1375
2464.36507	24740.3375
2467.12586	24754.8375
2469.88492	24714.3375
2472.64224	24763.5375
2475.39782	24782.4375
2478.15167	24820.5375
2480.90379	24778.4375
2483.65417	24845.4375
2486.40283	24816.3375
2489.14976	24862.0375
2491.89497	24848.2375
2494.63845	24875.6375
2497.3802	24848.4375
2500.12024	24824.7375
2502.85855	24787.4375
2505.59514	24771.2375
2508.33002	24714.5375
2511.06318	24706.8375
2513.79462	24663.7375
2516.52435	24680.1375
2519.25237	24661.4375
2521.97867	24610.4375
2524.70327	24551.2375
2527.42616	24537.5375
2530.14734	24533.9375
2532.86681	24512.3375
2535.58458	24522.9375
2538.30065	24496.6375
2541.01501	24477.2375
2543.72768	24457.4375
2546.43864	24440.4375
2549.14791	24436.0375
2551.85548	24422.9375
2554.56136	24400.4375
2557.26554	24343.7375
2559.96803	24333.6375
2562.66883	24310.2375
2565.36794	24281.5375
2568.06536	24288.7375
2570.7611	24271.1375
2573.45514	24217.6375
2576.14751	24214.3375
2578.83819	24185.2375
2581.52719	24219.8375
2584.21451	24157.0375
2586.90015	24117.2375
2589.58411	24062.8375
2592.2664	24131.0375
2594.94701	24051.6375
2597.62594	24058.9375
2600.30321	24003.1375
2602.9788	24024.0375
2605.65273	23991.2375
2608.32498	24013.4375
2610.99557	23995.3375
2613.66449	24013.6375
2616.33175	23987.9375
2618.99734	24013.3375
2621.66128	23968.9375
2624.32355	23957.5375
2626.98416	23912.7375
2629.64311	23927.0375
2632.30041	23920.2375
2634.95605	23910.0375
2637.61004	23869.6375
2640.26238	23872.3375
2642.91306	23844.1375
2645.56209	23806.8375
2648.20948	23799.8375
2650.85521	23754.7375
2653.4993	23792.3375
2656.14175	23786.1375
2658.78255	23777.8375
2661.42171	23729.2375
2664.05923	23805.3375
2666.6951	23840.8375
2669.32934	23915.8375
2671.96194	23914.7375
2674.59291	23904.7375
2677.22224	23871.9375
2679.84993	23866.7375
2682.476	23862.3375
2685.10043	23866.0375
2687.72324	23789.8375
2690.34441	23795.2375
2692.96396	23777.4375
2695.58188	23783.9375
2698.19818	23731.7375
2700.81285	23750.2375
2703.4259	23763.3375
2706.03733	23780.6375
2708.64714	23754.9375
2711.25533	23764.0375
2713.86191	23780.1375
2716.46687	23848.7375
2719.07021	23846.6375
2721.67194	23864.3375
2724.27206	23851.1375
2726.87057	23865.4375
2729.46747	23847.6375
2732.06276	23891.5375
2734.65644	23886.2375
2737.24852	23882.0375
2739.83899	23830.5375
2742.42786	23907.8375
2745.01513	23893.9375
2747.60079	23826.0375
2750.18486	23775.9375
2752.76733	23725.4375
2755.3482	23741.9375
2757.92747	23765.6375
2760.50515	23714.0375
2763.08123	23695.9375
2765.65573	23707.1375
2768.22863	23728.5375
2770.79994	23730.4375
2773.36967	23733.1375
2775.9378	23671.0375
2778.50435	23699.0375
2781.06932	23655.9375
2783.6327	23690.6375
2786.1945	23652.4375
2788.75471	23598.5375
2791.31335	23582.5375
2793.87041	23524.4375
2796.42589	23510.2375
2798.97979	23461.9375
2801.53212	23393.5375
2804.08288	23408.6375
2806.63206	23338.6375
2809.17967	23270.1375
2811.72571	23229.6375
2814.27018	23212.8375
2816.81308	23187.2375
2819.35442	23194.4375
2821.89419	23173.5375
2824.43239	23167.3375
2826.96904	23153.4375
2829.50412	23133.8375
2832.03763	23047.8375
2834.56959	23045.0375
2837.1	23002.8375
2839.62884	22986.9375
2842.15613	22964.3375
2844.68186	23009.6375
2847.20604	22952.0375
2849.72867	22951.3375
2852.24974	22911.4375
2854.76927	22906.9375
2857.28724	22873.5375
2859.80367	22870.1375
2862.31855	22865.7375
2864.83189	22830.7375
2867.34368	22808.2375
2869.85393	22791.5375
2872.36264	22807.6375
2874.8698	22768.8375
2877.37543	22730.4375
2879.87952	22736.7375
2882.38207	22758.8375
2884.88308	22757.1375
2887.38256	22764.0375
2889.88051	22780.9375
2892.37692	22775.1375
2894.8718	22752.5375
2897.36515	22769.7375
2899.85698	22784.3375
2902.34727	22859.5375
2904.83604	22896.0375
2907.32328	22995.0375
2909.809	22944.5375
2912.29319	22918.7375
2914.77587	22916.4375
2917.25702	22888.9375
2919.73665	22880.1375
2922.21476	22901.8375
2924.69136	22860.7375
2927.16644	22837.6375
2929.64	22821.0375
2932.11205	22787.5375
2934.58258	22716.9375
2937.05161	22773.0375
2939.51912	22797.1375
2941.98513	22742.5375
2944.44962	22722.8375
2946.91261	22643.8375
2949.37409	22708.9375
2951.83407	22719.0375
2954.29254	22726.3375
2956.74951	22735.8375
2959.20498	22741.3375
2961.65895	22707.7375
2964.11142	22669.3375
2966.56239	22663.4375
2969.01186	22614.8375
2971.45984	22633.0375
2973.90632	22626.6375
2976.35131	22563.9375
2978.7948	22536.0375
2981.23681	22498.4375
2983.67732	22460.5375
2986.11635	22452.6375
2988.55388	22421.7375
2990.98993	22376.9375
2993.4245	22316.7375
2995.85758	22296.4375
2998.28917	22247.1375
3000.71928	22299.5375
3003.14791	22201.0375
3005.57506	22160.9375
3008.00073	22092.6375
3010.42493	22088.7375
3012.84764	22060.0375
3015.26888	22078.5375
3017.68865	22017.0375
3020.10694	21989.1375
3022.52376	21887.5375
3024.9391	21867.9375
