Data from AgNPs_UA_1uM_CRN_0uM_R6G_10uM_Q_RamanShift__3__12-14-15-867.txt Node

Date: Wed Jul 13 12:14:15 BST 2022
User: TCL
Spectrometer: QEP01345
Trigger mode: 4
Integration Time (sec): 7.000000E0
Scans to average: 10
Electric dark correction enabled: true
Nonlinearity correction enabled: false
Boxcar width: 0
XAxis mode: Raman Shifts
Number of Pixels in Spectrum: 1044
>>>>>Begin Spectral Data<<<<<
46.04893	-0.85
50.45542	-1.05
54.85868	-1.75
59.25871	-1.05
63.6555	96.85
68.04907	102.55
72.43941	104.55
76.82654	110.15
81.21044	117.25
85.59113	117.25
89.96862	122.25
94.34289	126.15
98.71396	130.05
103.08183	132.15
107.4465	139.95
111.80798	139.95
116.16626	143.75
120.52136	154.35
124.87327	153.45
129.222	163.05
133.56755	172.85
137.90993	189.65
142.24913	201.75
146.58517	226.45
150.91804	260.45
155.24774	304.55
159.57429	380.55
163.89768	479.75
168.21792	626.95
172.53501	857.55
176.84895	1191.85
181.15975	1669.85
185.46741	2342.85
189.77193	3237.75
194.07331	4331.65
198.37157	5595.55
202.6667	6896.15
206.9587	8196.25
211.24758	9518.75
215.53334	10850.55
219.81599	12249.55
224.09553	13811.35
228.37195	15522.35
232.64527	17358.25
236.91549	19218.25
241.18261	21039.25
245.44663	22608.35
249.70755	23952.05
253.96539	25144.05
258.22014	26249.35
262.4718	27127.55
266.72039	27692.05
270.96589	27922.15
275.20832	27855.15
279.44768	27568.95
283.68397	27283.65
287.91719	26946.05
292.14735	26862.75
296.37445	27043.25
300.59849	27464.55
304.81948	28031.45
309.03742	28519.75
313.25231	28713.65
317.46415	28270.05
321.67296	27448.05
325.87872	26736.35
330.08145	26433.05
334.28114	26466.75
338.47781	26828.45
342.67145	27272.65
346.86207	27977.35
351.04966	28813.55
355.23424	29657.55
359.4158	30237.45
363.59435	30568.45
367.76989	30706.15
371.94243	30703.65
376.11196	30678.15
380.27849	30693.25
384.44203	30657.55
388.60257	30819.85
392.76012	30988.25
396.91468	31421.35
401.06626	31935.75
405.21485	32210.65
409.36047	31848.25
413.50311	31195.35
417.64277	30583.65
421.77947	30403.35
425.9132	30413.75
430.04396	30515.75
434.17176	30578.95
438.2966	30846.85
442.41849	31251.75
446.53742	31830.65
450.6534	32373.75
454.76644	32756.35
458.87653	32897.65
462.98368	32856.95
467.08789	32688.15
471.18916	32356.15
475.2875	31884.25
479.38291	31483.85
483.4754	31238.65
487.56496	31120.25
491.6516	31088.35
495.73531	31133.55
499.81612	31228.05
503.89401	31490.95
507.96899	31687.15
512.04106	31760.25
516.11023	31855.75
520.1765	31891.45
524.23987	31862.35
528.30034	31849.95
532.35792	31734.35
536.41261	31445.55
540.46441	31143.55
544.51333	31055.55
548.55936	31258.35
552.60252	31620.15
556.64279	32104.05
560.6802	32467.35
564.71473	32749.85
568.7464	33215.65
572.7752	33431.15
576.80114	33322.45
580.82422	33312.15
584.84444	33615.75
588.86181	33969.75
592.87633	34303.85
596.888	34653.45
600.89682	35071.25
604.9028	37122.95
608.90594	42145.05
612.90624	47052.35
616.90371	43871.95
620.89834	36272.45
624.89015	33175.45
628.87913	32843.75
632.86528	33171.45
636.84862	33458.65
640.82913	33021.05
644.80683	32308.95
648.78172	31858.75
652.75379	32019.05
656.72306	32697.15
660.68952	33391.35
664.65319	33129.85
668.61405	32629.95
672.57211	32628.95
676.52738	32782.55
680.47986	32515.35
684.42955	32275.45
688.37646	32154.25
692.32058	32382.45
696.26192	32844.45
700.20048	33303.95
704.13626	33412.05
708.06928	33247.85
711.99952	33016.15
715.927	32977.75
719.85171	33061.75
723.77365	33100.15
727.69284	32776.25
731.60928	32563.25
735.52295	32507.65
739.43388	32570.45
743.34206	32669.65
747.24749	32741.45
751.15017	32900.85
755.05012	33258.15
758.94733	34138.35
762.8418	36132.65
766.73354	39183.45
770.62254	41667.15
774.50882	42022.85
778.39237	40641.75
782.27321	38363.15
786.15132	36007.05
790.02671	34434.55
793.89938	33709.75
797.76935	33268.45
801.6366	33078.95
805.50115	32972.95
809.36299	32845.05
813.22213	32786.85
817.07857	32707.35
820.93231	32699.35
824.78336	32699.95
828.63172	32795.55
832.47738	32753.75
836.32036	32706.65
840.16066	32674.35
843.99827	32658.85
847.8332	32676.15
851.66546	32745.45
855.49504	32799.95
859.32195	32822.15
863.1462	32751.05
866.96777	32815.85
870.78668	32814.85
874.60293	32941.65
878.41652	33026.15
882.22745	33239.45
886.03573	33415.95
889.84136	33441.65
893.64433	33272.15
897.44466	33213.25
901.24235	33071.25
905.0374	33040.55
908.8298	32891.95
912.61957	32872.75
916.40671	32909.95
920.19121	33061.35
923.97308	33312.05
927.75233	33531.65
931.52895	33624.65
935.30295	33369.75
939.07433	32910.15
942.84309	32557.05
946.60924	32482.05
950.37278	32458.45
954.13371	32425.75
957.89203	32320.85
961.64774	32265.05
965.40086	32243.15
969.15137	32252.75
972.89929	32223.55
976.64461	32216.35
980.38733	32270.05
984.12747	32338.55
987.86502	32461.25
991.59999	32586.25
995.33237	32765.05
999.06217	33053.05
1002.78939	33454.25
1006.51404	33925.55
1010.23611	34360.25
1013.95561	34568.35
1017.67255	34601.55
1021.38692	34386.95
1025.09872	34138.75
1028.80796	33858.25
1032.51465	33805.65
1036.21877	33900.55
1039.92035	33911.65
1043.61937	34018.05
1047.31584	34045.45
1051.00976	34020.25
1054.70114	34047.75
1058.38998	34210.85
1062.07627	34389.25
1065.76003	34642.15
1069.44126	34844.95
1073.11995	35433.55
1076.79611	36035.55
1080.46974	36487.55
1084.14085	36868.95
1087.80943	37222.85
1091.47549	37260.55
1095.13903	36997.25
1098.80005	36674.55
1102.45857	36429.85
1106.11456	36114.25
1109.76805	35776.15
1113.41903	35780.85
1117.06751	36093.05
1120.71348	36567.25
1124.35696	37193.35
1127.99793	37673.05
1131.63641	37415.55
1135.2724	36665.85
1138.90589	36093.95
1142.5369	35754.85
1146.16542	35535.85
1149.79145	35398.85
1153.415	35311.35
1157.03607	35301.05
1160.65467	35633.45
1164.27079	36295.95
1167.88443	37319.55
1171.49561	38795.25
1175.10432	41001.35
1178.71056	43863.15
1182.31434	46046.05
1185.91565	46804.15
1189.51451	46289.65
1193.11091	45335.65
1196.70485	44126.15
1200.29634	42909.55
1203.88538	41807.45
1207.47197	40620.25
1211.05612	39484.55
1214.63782	38667.55
1218.21708	38061.25
1221.79391	37744.85
1225.36829	37632.95
1228.94024	37585.15
1232.50976	37464.05
1236.07685	37377.55
1239.6415	37327.05
1243.20374	37366.75
1246.76355	37547.35
1250.32093	37790.55
1253.8759	38169.15
1257.42845	38907.55
1260.97859	39807.25
1264.52631	40726.15
1268.07163	41513.65
1271.61453	42127.75
1275.15503	42563.95
1278.69312	42780.05
1282.22882	43026.05
1285.76211	43462.75
1289.29301	44165.75
1292.82151	45031.15
1296.34761	45814.95
1299.87133	47140.95
1303.39266	49237.55
1306.9116	52248.65
1310.42815	55615.95
1313.94233	57141.85
1317.45412	55976.85
1320.96354	53531.95
1324.47058	51310.65
1327.97525	49596.95
1331.47754	48466.45
1334.97747	48146.55
1338.47502	48331.45
1341.97022	48988.25
1345.46305	50378.65
1348.95352	52295.05
1352.44163	54418.45
1355.92738	56719.35
1359.41078	60030.15
1362.89183	63009.65
1366.37053	61199.65
1369.84688	54957.05
1373.32088	48773.75
1376.79254	45141.05
1380.26186	43338.35
1383.72883	42409.55
1387.19347	41660.45
1390.65578	40731.85
1394.11575	39933.45
1397.57339	39407.55
1401.0287	39096.65
1404.48168	39070.45
1407.93234	39103.75
1411.38068	39269.55
1414.82669	39353.75
1418.27039	39215.55
1421.71177	38982.25
1425.15083	38620.85
1428.58758	38510.75
1432.02203	38787.45
1435.45416	39133.45
1438.88399	39450.05
1442.31151	39462.15
1445.73673	39497.55
1449.15965	39449.35
1452.58027	39338.25
1455.9986	39209.65
1459.41463	39251.95
1462.82837	39649.05
1466.23982	40219.25
1469.64898	40686.45
1473.05586	41215.85
1476.46045	41543.35
1479.86276	41798.95
1483.26279	42191.15
1486.66054	42788.35
1490.05602	43644.05
1493.44922	44853.45
1496.84016	46639.05
1500.22882	49448.25
1503.61521	53128.55
1506.99934	57100.75
1510.38121	59940.25
1513.76081	59872.95
1517.13816	56462.05
1520.51324	51535.75
1523.88607	47420.15
1527.25665	44835.55
1530.62498	43562.55
1533.99105	42894.85
1537.35488	42354.75
1540.71647	41880.65
1544.07581	41404.95
1547.4329	41060.05
1550.78776	40775.15
1554.14038	40616.35
1557.49077	40765.75
1560.83892	41136.75
1564.18484	41760.25
1567.52853	42528.65
1570.86999	43102.35
1574.20922	43507.65
1577.54624	43280.45
1580.88103	42068.65
1584.2136	40656.35
1587.54395	40044.85
1590.87208	40498.05
1594.19801	41779.65
1597.52172	43473.35
1600.84321	44066.25
1604.16251	43393.65
1607.47959	42211.75
1610.79447	40734.65
1614.10715	38888.65
1617.41763	37233.05
1620.7259	36049.25
1624.03199	35367.45
1627.33587	35310.15
1630.63757	35759.75
1633.93707	36746.85
1637.23439	38583.75
1640.52951	41588.95
1643.82246	45541.05
1647.11321	49445.35
1650.40179	51318.65
1653.68819	49433.15
1656.97241	44712.35
1660.25446	39815.65
1663.53433	36524.85
1666.81203	34423.95
1670.08756	33225.65
1673.36092	32490.25
1676.63211	31981.45
1679.90115	31670.65
1683.16801	31373.65
1686.43272	31146.45
1689.69527	31018.95
1692.95567	30864.55
1696.2139	30807.55
1699.46999	30753.55
1702.72392	30691.15
1705.97571	30720.85
1709.22535	30708.25
1712.47284	30714.45
1715.71819	30713.05
1718.96139	30719.75
1722.20246	30602.45
1725.44139	30532.25
1728.67818	30417.55
1731.91284	30314.95
1735.14537	30216.95
1738.37576	30110.95
1741.60403	30046.05
1744.83017	29962.15
1748.05418	29907.75
1751.27607	29793.35
1754.49584	29838.35
1757.71349	29787.15
1760.92903	29744.85
1764.14244	29723.15
1767.35375	29673.75
1770.56294	29658.15
1773.77002	29647.45
1776.97499	29577.65
1780.17785	29579.25
1783.37861	29498.85
1786.57727	29499.25
1789.77382	29432.65
1792.96828	29385.45
1796.16064	29346.95
1799.3509	29328.35
1802.53907	29298.15
1805.72514	29248.85
1808.90913	29186.55
1812.09102	29099.65
1815.27083	29028.05
1818.44856	28952.15
1821.6242	28911.25
1824.79776	28884.55
1827.96924	28851.75
1831.13864	28853.35
1834.30597	28846.85
1837.47122	28767.55
1840.6344	28769.95
1843.7955	28713.05
1846.95454	28707.35
1850.11151	28697.65
1853.26642	28648.65
1856.41926	28644.15
1859.57004	28604.55
1862.71876	28629.95
1865.86542	28642.75
1869.01003	28616.65
1872.15258	28597.05
1875.29308	28555.95
1878.43152	28445.75
1881.56792	28466.25
1884.70227	28399.65
1887.83457	28395.35
1890.96482	28379.75
1894.09304	28300.55
1897.21921	28315.15
1900.34335	28238.65
1903.46544	28194.45
1906.58551	28203.45
1909.70353	28166.55
1912.81953	28181.45
1915.93349	28072.65
1919.04543	28061.55
1922.15534	28070.45
1925.26322	27939.25
1928.36908	27894.05
1931.47292	27879.35
1934.57473	27835.95
1937.67453	27755.75
1940.77232	27627.15
1943.86808	27618.25
1946.96184	27519.85
1950.05358	27469.75
1953.14331	27438.15
1956.23103	27351.55
1959.31675	27278.65
1962.40046	27215.65
1965.48217	27108.75
1968.56188	27071.85
1971.63959	26997.75
1974.7153	26907.75
1977.78901	26845.45
1980.86073	26729.75
1983.93046	26674.85
1986.99819	26585.15
1990.06394	26510.05
1993.1277	26443.35
1996.18947	26341.05
1999.24925	26296.15
2002.30706	26244.55
2005.36288	26140.65
2008.41672	26102.55
2011.46859	26025.55
2014.51848	25942.45
2017.56639	25874.65
2020.61233	25785.35
2023.6563	25721.85
2026.6983	25691.65
2029.73833	25595.15
2032.7764	25504.35
2035.8125	25499.05
2038.84664	25398.25
2041.87881	25431.65
2044.90903	25367.05
2047.93729	25279.05
2050.96359	25255.95
2053.98794	25234.35
2057.01034	25217.15
2060.03078	25213.55
2063.04927	25173.65
2066.06582	25197.15
2069.08042	25169.35
2072.09307	25099.15
2075.10378	25084.95
2078.11255	25076.45
2081.11938	25101.35
2084.12426	25047.85
2087.12722	25048.75
2090.12824	25034.75
2093.12732	25023.35
2096.12447	25025.65
2099.11969	25047.15
2102.11299	25021.15
2105.10435	25091.45
2108.09379	25092.95
2111.08131	25112.55
2114.0669	25105.15
2117.05057	25123.85
2120.03233	25150.25
2123.01216	25206.45
2125.99008	25235.05
2128.96609	25237.45
2131.94018	25301.55
2134.91236	25303.45
2137.88263	25358.75
2140.851	25345.55
2143.81746	25342.35
2146.78201	25369.65
2149.74466	25333.15
2152.7054	25392.65
2155.66425	25372.75
2158.6212	25340.05
2161.57625	25325.45
2164.52941	25311.55
2167.48067	25314.35
2170.43004	25324.85
2173.37752	25256.35
2176.32311	25354.15
2179.26681	25368.15
2182.20863	25314.25
2185.14856	25361.75
2188.08661	25302.55
2191.02278	25349.55
2193.95707	25271.95
2196.88948	25302.65
2199.82001	25251.85
2202.74867	25230.75
2205.67545	25175.65
2208.60037	25161.65
2211.52341	25131.65
2214.44458	25086.45
2217.36388	25045.15
2220.28132	25003.55
2223.1969	24902.25
2226.11061	24890.15
2229.02246	24894.65
2231.93245	24796.65
2234.84058	24749.35
2237.74686	24728.65
2240.65128	24741.85
2243.55385	24728.15
2246.45456	24657.55
2249.35343	24637.35
2252.25044	24635.55
2255.14561	24575.45
2258.03893	24563.85
2260.93041	24561.45
2263.82004	24481.85
2266.70783	24430.05
2269.59378	24413.95
2272.4779	24362.45
2275.36017	24292.55
2278.24061	24213.35
2281.11922	24199.75
2283.996	24160.45
2286.87094	24109.95
2289.74405	24083.45
2292.61534	24033.25
2295.4848	23992.25
2298.35243	23956.05
2301.21824	23988.35
2304.08223	23921.85
2306.94439	23927.05
2309.80474	23982.65
2312.66327	23950.15
2315.51999	23909.25
2318.37489	23871.55
2321.22797	23826.35
2324.07925	23839.65
2326.92871	23768.85
2329.77637	23751.35
2332.62222	23730.75
2335.46626	23661.35
2338.3085	23659.65
2341.14893	23588.35
2343.98756	23602.95
2346.8244	23535.65
2349.65943	23563.25
2352.49267	23545.65
2355.32411	23612.85
2358.15376	23612.15
2360.98161	23582.75
2363.80768	23542.85
2366.63195	23523.75
2369.45444	23514.55
2372.27514	23576.35
2375.09405	23501.85
2377.91118	23462.55
2380.72652	23416.95
2383.54009	23360.05
2386.35187	23264.45
2389.16188	23206.15
2391.97011	23184.15
2394.77657	23136.15
2397.58125	23075.85
2400.38416	23039.25
2403.18529	23036.05
2405.98466	22991.85
2408.78226	22990.65
2411.57809	22941.85
2414.37216	22899.75
2417.16446	22908.45
2419.955	22895.25
2422.74378	22898.55
2425.5308	22871.15
2428.31606	22866.85
2431.09956	22865.85
2433.88131	22789.55
2436.6613	22858.15
2439.43954	22784.95
2442.21603	22773.55
2444.99077	22801.45
2447.76377	22783.05
2450.53501	22760.65
2453.30451	22720.15
2456.07226	22653.45
2458.83827	22653.15
2461.60254	22625.35
2464.36507	22603.35
2467.12586	22565.45
2469.88492	22585.65
2472.64224	22569.55
2475.39782	22565.25
2478.15167	22534.65
2480.90379	22536.75
2483.65417	22539.95
2486.40283	22539.05
2489.14976	22556.75
2491.89497	22523.85
2494.63845	22543.05
2497.3802	22525.05
2500.12024	22513.55
2502.85855	22504.75
2505.59514	22460.85
2508.33002	22412.75
2511.06318	22402.35
2513.79462	22325.45
2516.52435	22271.75
2519.25237	22259.55
2521.97867	22228.25
2524.70327	22267.15
2527.42616	22171.75
2530.14734	22150.25
2532.86681	22135.95
2535.58458	22162.85
2538.30065	22138.45
2541.01501	22138.35
2543.72768	22064.35
2546.43864	22019.05
2549.14791	21963.35
2551.85548	21960.65
2554.56136	21922.85
2557.26554	21871.45
2559.96803	21842.75
2562.66883	21842.15
2565.36794	21775.85
2568.06536	21735.85
2570.7611	21721.25
2573.45514	21708.85
2576.14751	21679.65
2578.83819	21652.75
2581.52719	21622.85
2584.21451	21582.05
2586.90015	21521.95
2589.58411	21489.85
2592.2664	21437.45
2594.94701	21399.45
2597.62594	21406.55
2600.30321	21324.05
2602.9788	21319.25
2605.65273	21263.15
2608.32498	21282.45
2610.99557	21255.35
2613.66449	21248.45
2616.33175	21216.55
2618.99734	21214.95
2621.66128	21198.25
2624.32355	21146.25
2626.98416	21125.35
2629.64311	21139.95
2632.30041	21116.15
2634.95605	21062.25
2637.61004	21039.75
2640.26238	20968.65
2642.91306	20884.85
2645.56209	20878.95
2648.20948	20896.15
2650.85521	20838.95
2653.4993	20860.55
2656.14175	20893.45
2658.78255	20897.55
2661.42171	20893.65
2664.05923	20942.65
2666.6951	20924.95
2669.32934	20925.65
2671.96194	20868.55
2674.59291	20919.65
2677.22224	20911.05
2679.84993	20970.95
2682.476	20914.95
2685.10043	20928.65
2687.72324	20872.35
2690.34441	20899.85
2692.96396	20892.55
2695.58188	20906.65
2698.19818	20848.65
2700.81285	20895.65
2703.4259	20853.15
2706.03733	20863.35
2708.64714	20940.75
2711.25533	20928.85
2713.86191	20906.65
2716.46687	20926.25
2719.07021	20895.35
2721.67194	20906.45
2724.27206	20901.75
2726.87057	20940.25
2729.46747	20897.55
2732.06276	20954.65
2734.65644	20916.45
2737.24852	20908.55
2739.83899	20861.15
2742.42786	20864.55
2745.01513	20800.05
2747.60079	20838.55
2750.18486	20772.95
2752.76733	20744.05
2755.3482	20705.65
2757.92747	20724.95
2760.50515	20679.45
2763.08123	20650.85
2765.65573	20602.55
2768.22863	20632.25
2770.79994	20553.05
2773.36967	20548.85
2775.9378	20543.15
2778.50435	20517.25
2781.06932	20496.15
2783.6327	20465.95
2786.1945	20433.15
2788.75471	20406.55
2791.31335	20326.55
2793.87041	20351.15
2796.42589	20317.25
2798.97979	20281.85
2801.53212	20239.15
2804.08288	20199.65
2806.63206	20123.25
2809.17967	20097.45
2811.72571	20023.75
2814.27018	20019.35
2816.81308	19971.75
2819.35442	19973.15
2821.89419	19913.05
2824.43239	19889.25
2826.96904	19928.75
2829.50412	19883.25
2832.03763	19857.45
2834.56959	19836.35
2837.1	19783.15
2839.62884	19802.55
2842.15613	19763.85
2844.68186	19791.95
2847.20604	19726.05
2849.72867	19747.75
2852.24974	19702.75
2854.76927	19720.35
2857.28724	19706.05
2859.80367	19673.25
2862.31855	19621.85
2864.83189	19615.25
2867.34368	19561.15
2869.85393	19582.05
2872.36264	19506.65
2874.8698	19532.15
2877.37543	19501.05
2879.87952	19482.05
2882.38207	19476.35
2884.88308	19456.15
2887.38256	19423.55
2889.88051	19383.55
2892.37692	19415.75
2894.8718	19433.25
2897.36515	19426.95
2899.85698	19441.65
2902.34727	19435.05
2904.83604	19436.95
2907.32328	19461.55
2909.809	19517.15
2912.29319	19528.65
2914.77587	19516.55
2917.25702	19526.95
2919.73665	19480.85
2922.21476	19487.95
2924.69136	19431.55
2927.16644	19437.95
2929.64	19405.35
2932.11205	19359.25
2934.58258	19294.35
2937.05161	19317.25
2939.51912	19344.95
2941.98513	19327.25
2944.44962	19302.65
2946.91261	19212.05
2949.37409	19266.75
2951.83407	19264.55
2954.29254	19254.65
2956.74951	19242.35
2959.20498	19210.15
2961.65895	19189.25
2964.11142	19238.95
2966.56239	19224.85
2969.01186	19254.05
2971.45984	19228.15
2973.90632	19198.15
2976.35131	19145.75
2978.7948	19126.15
2981.23681	19091.05
2983.67732	19093.25
2986.11635	19029.65
2988.55388	18991.95
2990.98993	18952.15
2993.4245	18913.55
2995.85758	18859.55
2998.28917	18840.05
3000.71928	18796.75
3003.14791	18750.15
3005.57506	18705.95
3008.00073	18690.75
3010.42493	18706.65
3012.84764	18617.65
3015.26888	18620.95
3017.68865	18554.25
3020.10694	18552.55
3022.52376	18534.25
3024.9391	18515.55
3027.35298	18470.15
3029.76539	18440.35
3032.17632	18389.85
3034.5858	18372.45
3036.9938	18330.45
3039.40034	18351.15
3041.80542	18320.65
3044.20903	18239.35
3046.61118	18240.85
3049.01187	18186.95
3051.4111	18223.65
3053.80888	18189.25
3056.20519	18169.65
3058.60005	18114.15
3060.99345	18110.75
3063.3854	18058.75
3065.7759	18035.55
3068.16494	17978.55
3070.55254	17914.55
3072.93868	17862.75
3075.32338	17829.95
3077.70662	17822.05
3080.08842	17752.55
3082.46878	17751.25
3084.84769	17726.65
3087.22515	17721.65
3089.60118	17715.05
3091.97576	17678.75
3094.3489	17674.05
3096.72061	17687.05
3099.09087	17691.55
3101.4597	17662.35
3103.82709	17691.75
3106.19305	17662.35
3108.55757	17608.35
3110.92066	17598.15
3113.28232	17580.65
3115.64255	17537.35
3118.00134	17528.15
3120.35871	17511.75
3122.71466	17483.35
3125.06917	17450.95
3127.42226	17396.95
3129.77393	17420.85
3132.12417	17365.65
3134.47299	17329.35
3136.82039	17320.85
3139.16636	17351.75
3141.51092	17299.75
3143.85406	17305.55
3146.19579	17297.75
3148.53609	17309.55
3150.87499	17323.55
3153.21246	17305.45
3155.54853	17320.65
3157.88318	17285.65
3160.21642	17335.35
3162.54826	17334.05
3164.87868	17325.45
3167.2077	17280.25
3169.5353	17287.25
3171.86151	17284.85
3174.18631	17269.35
3176.5097	17252.45
3178.83169	17213.15
3181.15228	17192.75
3183.47147	17146.35
3185.78926	17133.85
3188.10565	17104.15
3190.42065	17064.55
3192.73424	17088.55
3195.04645	17089.25
3197.35725	17061.15
3199.66667	17028.85
3201.97469	17025.35
3204.28132	16999.75
3206.58656	17027.85
3208.8904	17010.25
3211.19287	17017.15
3213.49394	16999.05
3215.79363	16986.45
3218.09193	17018.05
3220.38884	17049.05
3222.68438	17082.05
3224.97853	17023.65
3227.2713	17030.65
3229.56269	16998.75
3231.8527	16980.45
3234.14133	16921.45
3236.42858	16908.35
3238.71446	16877.85
3240.99896	16828.55
