Data from AgNPs_UA_1uM_CRN_0uM_R6G_10uM_Q_RamanShift__26__12-41-05-895.txt Node

Date: Wed Jul 13 12:41:05 BST 2022
User: TCL
Spectrometer: QEP01345
Trigger mode: 4
Integration Time (sec): 7.000000E0
Scans to average: 10
Electric dark correction enabled: true
Nonlinearity correction enabled: false
Boxcar width: 0
XAxis mode: Raman Shifts
Number of Pixels in Spectrum: 1044
>>>>>Begin Spectral Data<<<<<
46.04893	-0.95
50.45542	-1.35
54.85868	-1.45
59.25871	-0.65
63.6555	84.65
68.04907	88.45
72.43941	91.05
76.82654	93.65
81.21044	105.15
85.59113	102.05
89.96862	110.35
94.34289	108.65
98.71396	114.15
103.08183	117.05
107.4465	123.85
111.80798	123.75
116.16626	124.15
120.52136	131.85
124.87327	135.75
129.222	139.95
133.56755	146.85
137.90993	159.15
142.24913	170.95
146.58517	192.75
150.91804	219.05
155.24774	258.45
159.57429	313.75
163.89768	397.15
168.21792	523.35
172.53501	696.95
176.84895	970.85
181.15975	1351.05
185.46741	1899.85
189.77193	2591.75
194.07331	3451.95
198.37157	4434.55
202.6667	5436.75
206.9587	6460.45
211.24758	7454.35
215.53334	8461.45
219.81599	9579.25
224.09553	10838.55
228.37195	12164.65
232.64527	13644.05
236.91549	15193.55
241.18261	16687.35
245.44663	17996.25
249.70755	19250.35
253.96539	20268.75
258.22014	21154.85
262.4718	21927.15
266.72039	22419.35
270.96589	22619.25
275.20832	22616.45
279.44768	22464.75
283.68397	22270.85
287.91719	22140.95
292.14735	22045.45
296.37445	22095.85
300.59849	22319.15
304.81948	22569.25
309.03742	22696.75
313.25231	22604.85
317.46415	22125.35
321.67296	21498.85
325.87872	20987.05
330.08145	20836.85
334.28114	20969.95
338.47781	21246.55
342.67145	21624.85
346.86207	22098.95
351.04966	22782.55
355.23424	23405.85
359.4158	24022.75
363.59435	24375.15
367.76989	24546.95
371.94243	24658.85
376.11196	24756.35
380.27849	24889.05
384.44203	24951.35
388.60257	25016.25
392.76012	25207.85
396.91468	25507.65
401.06626	26017.55
405.21485	26363.95
409.36047	26274.85
413.50311	25912.15
417.64277	25869.95
421.77947	25896.75
425.9132	25751.85
430.04396	25840.15
434.17176	26148.05
438.2966	26639.55
442.41849	27410.35
446.53742	28422.75
450.6534	29471.25
454.76644	30087.85
458.87653	30139.75
462.98368	29667.75
467.08789	28913.75
471.18916	28146.65
475.2875	27475.95
479.38291	27121.65
483.4754	26809.75
487.56496	26478.45
491.6516	26171.75
495.73531	25962.45
499.81612	25886.15
503.89401	25982.05
507.96899	26105.85
512.04106	26116.75
516.11023	26148.25
520.1765	26131.35
524.23987	26121.75
528.30034	26016.75
532.35792	25764.95
536.41261	25417.25
540.46441	25080.65
544.51333	25051.45
548.55936	25331.35
552.60252	25877.15
556.64279	26427.75
560.6802	26778.65
564.71473	27050.15
568.7464	27634.75
572.7752	28217.35
576.80114	28392.75
580.82422	28632.95
584.84444	29212.05
588.86181	30124.05
592.87633	31318.45
596.888	32064.15
600.89682	32215.75
604.9028	33399.85
608.90594	36796.85
612.90624	39624.95
616.90371	36283.85
620.89834	30446.75
624.89015	28684.75
628.87913	28637.55
632.86528	28234.95
636.84862	27452.85
640.82913	26736.75
644.80683	25951.15
648.78172	25553.35
652.75379	25596.95
656.72306	26136.05
660.68952	26679.05
664.65319	26497.65
668.61405	26063.15
672.57211	25866.65
676.52738	25791.75
680.47986	25701.75
684.42955	25607.65
688.37646	25672.75
692.32058	25885.75
696.26192	26132.75
700.20048	26482.55
704.13626	26619.15
708.06928	26453.85
711.99952	26214.85
715.927	26171.75
719.85171	26223.35
723.77365	26055.55
727.69284	25826.15
731.60928	25707.35
735.52295	25825.75
739.43388	25936.75
743.34206	26149.55
747.24749	26365.75
751.15017	26654.05
755.05012	27131.95
758.94733	28080.55
762.8418	29787.25
766.73354	32198.55
770.62254	34232.75
774.50882	34428.75
778.39237	32712.45
782.27321	30276.55
786.15132	28260.35
790.02671	27123.35
793.89938	26631.05
797.76935	26486.05
801.6366	26471.25
805.50115	26363.65
809.36299	26136.05
813.22213	25991.95
817.07857	25952.55
820.93231	25948.75
824.78336	25993.15
828.63172	26106.15
832.47738	26188.15
836.32036	26350.85
840.16066	26588.05
843.99827	26755.55
847.8332	26568.95
851.66546	26370.85
855.49504	26284.15
859.32195	26257.25
863.1462	26080.25
866.96777	25904.95
870.78668	25858.35
874.60293	25888.55
878.41652	25960.75
882.22745	26110.95
886.03573	26191.45
889.84136	26134.15
893.64433	26026.45
897.44466	25959.15
901.24235	25881.35
905.0374	25867.15
908.8298	25806.85
912.61957	25859.55
916.40671	26205.35
920.19121	26660.65
923.97308	27105.95
927.75233	27419.65
931.52895	27469.55
935.30295	27095.55
939.07433	26397.45
942.84309	26047.65
946.60924	25941.55
950.37278	25853.05
954.13371	25607.35
957.89203	25386.45
961.64774	25291.65
965.40086	25185.75
969.15137	25109.75
972.89929	25077.35
976.64461	25025.25
980.38733	25142.35
984.12747	25312.25
987.86502	25663.75
991.59999	26166.55
995.33237	27050.75
999.06217	28501.45
1002.78939	29942.25
1006.51404	30453.25
1010.23611	30494.35
1013.95561	30690.25
1017.67255	30787.65
1021.38692	30467.25
1025.09872	30406.15
1028.80796	31336.05
1032.51465	33071.05
1036.21877	34334.65
1039.92035	34113.15
1043.61937	32943.25
1047.31584	31308.65
1051.00976	29758.55
1054.70114	28968.65
1058.38998	28805.35
1062.07627	28758.55
1065.76003	28572.65
1069.44126	28606.75
1073.11995	28819.95
1076.79611	29081.35
1080.46974	29366.15
1084.14085	29757.65
1087.80943	30055.35
1091.47549	30030.45
1095.13903	29641.35
1098.80005	29032.85
1102.45857	28535.65
1106.11456	28413.85
1109.76805	28594.75
1113.41903	28846.25
1117.06751	29260.85
1120.71348	29704.95
1124.35696	30109.25
1127.99793	30411.55
1131.63641	30297.55
1135.2724	29900.25
1138.90589	29524.05
1142.5369	29297.05
1146.16542	29140.05
1149.79145	29243.85
1153.415	29509.55
1157.03607	29880.25
1160.65467	30405.95
1164.27079	31353.15
1167.88443	32983.15
1171.49561	35284.55
1175.10432	38610.05
1178.71056	42709.25
1182.31434	46102.55
1185.91565	47647.55
1189.51451	46875.55
1193.11091	44474.15
1196.70485	41824.05
1200.29634	39613.45
1203.88538	37907.15
1207.47197	36647.45
1211.05612	35780.45
1214.63782	35563.75
1218.21708	35924.45
1221.79391	36627.85
1225.36829	37014.45
1228.94024	36534.85
1232.50976	35558.65
1236.07685	34662.25
1239.6415	34243.75
1243.20374	34208.55
1246.76355	34408.75
1250.32093	35010.65
1253.8759	35813.85
1257.42845	36979.95
1260.97859	38020.25
1264.52631	38920.95
1268.07163	39839.25
1271.61453	40982.75
1275.15503	42577.65
1278.69312	44241.95
1282.22882	45597.95
1285.76211	46521.85
1289.29301	47325.75
1292.82151	48398.95
1296.34761	50209.75
1299.87133	52822.25
1303.39266	56538.35
1306.9116	61544.65
1310.42815	66868.85
1313.94233	70156.35
1317.45412	69390.45
1320.96354	66267.15
1324.47058	62615.55
1327.97525	59707.45
1331.47754	57794.75
1334.97747	57110.45
1338.47502	57330.15
1341.97022	57751.65
1345.46305	57815.05
1348.95352	57572.75
1352.44163	57836.35
1355.92738	59599.05
1359.41078	63478.05
1362.89183	66496.45
1366.37053	64387.95
1369.84688	57911.85
1373.32088	51278.75
1376.79254	46930.25
1380.26186	45018.95
1383.72883	44373.75
1387.19347	44000.85
1390.65578	43557.85
1394.11575	43702.25
1397.57339	44549.35
1401.0287	45831.05
1404.48168	47008.25
1407.93234	47575.55
1411.38068	47676.75
1414.82669	46957.05
1418.27039	45450.45
1421.71177	43575.35
1425.15083	42129.05
1428.58758	41451.45
1432.02203	41756.85
1435.45416	42439.75
1438.88399	43102.05
1442.31151	43644.35
1445.73673	44053.55
1449.15965	44342.95
1452.58027	44308.25
1455.9986	44027.75
1459.41463	43995.85
1462.82837	44477.95
1466.23982	45320.35
1469.64898	46075.55
1473.05586	46642.35
1476.46045	46873.85
1479.86276	47071.35
1483.26279	47149.25
1486.66054	47312.35
1490.05602	47704.35
1493.44922	48194.35
1496.84016	48579.95
1500.22882	49124.95
1503.61521	50211.45
1506.99934	51850.35
1510.38121	53572.05
1513.76081	54299.15
1517.13816	53215.65
1520.51324	50800.85
1523.88607	48512.55
1527.25665	46985.15
1530.62498	46145.25
1533.99105	45760.55
1537.35488	45575.25
1540.71647	45353.05
1544.07581	44941.45
1547.4329	44372.95
1550.78776	43603.25
1554.14038	43010.85
1557.49077	42580.15
1560.83892	42332.45
1564.18484	42174.25
1567.52853	42047.25
1570.86999	41952.75
1574.20922	42080.75
1577.54624	42162.45
1580.88103	41851.75
1584.2136	41810.95
1587.54395	43071.25
1590.87208	45949.85
1594.19801	50190.85
1597.52172	54779.25
1600.84321	56776.45
1604.16251	54717.95
1607.47959	50122.25
1610.79447	44919.55
1614.10715	40466.45
1617.41763	37325.15
1620.7259	35367.55
1624.03199	34488.05
1627.33587	34727.95
1630.63757	35937.45
1633.93707	38259.05
1637.23439	41537.95
1640.52951	45677.05
1643.82246	49876.55
1647.11321	52791.55
1650.40179	52628.25
1653.68819	48821.75
1656.97241	42769.95
1660.25446	37256.65
1663.53433	33298.55
1666.81203	30841.05
1670.08756	29279.35
1673.36092	28398.05
1676.63211	27723.85
1679.90115	27260.15
1683.16801	26944.05
1686.43272	26709.35
1689.69527	26528.05
1692.95567	26365.75
1696.2139	26265.05
1699.46999	26245.45
1702.72392	26207.05
1705.97571	26214.25
1709.22535	26206.95
1712.47284	26218.35
1715.71819	26194.15
1718.96139	26135.85
1722.20246	26103.55
1725.44139	25971.55
1728.67818	25880.75
1731.91284	25793.65
1735.14537	25659.85
1738.37576	25592.55
1741.60403	25521.35
1744.83017	25470.75
1748.05418	25422.15
1751.27607	25383.45
1754.49584	25340.55
1757.71349	25339.05
1760.92903	25326.25
1764.14244	25328.85
1767.35375	25334.85
1770.56294	25266.65
1773.77002	25297.15
1776.97499	25302.25
1780.17785	25274.15
1783.37861	25249.25
1786.57727	25211.25
1789.77382	25168.15
1792.96828	25157.85
1796.16064	25178.95
1799.3509	25158.85
1802.53907	25142.45
1805.72514	25080.65
1808.90913	25052.75
1812.09102	25022.45
1815.27083	24956.95
1818.44856	24904.75
1821.6242	24860.65
1824.79776	24833.75
1827.96924	24800.65
1831.13864	24779.55
1834.30597	24817.25
1837.47122	24789.55
1840.6344	24771.65
1843.7955	24786.35
1846.95454	24800.75
1850.11151	24779.05
1853.26642	24812.35
1856.41926	24807.55
1859.57004	24813.85
1862.71876	24842.65
1865.86542	24854.45
1869.01003	24881.65
1872.15258	24886.45
1875.29308	24877.55
1878.43152	24862.75
1881.56792	24881.25
1884.70227	24888.35
1887.83457	24908.45
1890.96482	24886.35
1894.09304	24863.45
1897.21921	24880.15
1900.34335	24891.95
1903.46544	24847.35
1906.58551	24877.55
1909.70353	24899.75
1912.81953	24899.05
1915.93349	24858.45
1919.04543	24840.75
1922.15534	24831.45
1925.26322	24808.75
1928.36908	24740.75
1931.47292	24700.25
1934.57473	24638.65
1937.67453	24610.55
1940.77232	24517.95
1943.86808	24451.15
1946.96184	24385.75
1950.05358	24304.55
1953.14331	24248.15
1956.23103	24188.05
1959.31675	24079.55
1962.40046	24043.15
1965.48217	24013.65
1968.56188	23895.35
1971.63959	23884.65
1974.7153	23818.65
1977.78901	23782.05
1980.86073	23698.15
1983.93046	23645.35
1986.99819	23546.95
1990.06394	23474.85
1993.1277	23422.15
1996.18947	23380.15
1999.24925	23317.35
2002.30706	23260.15
2005.36288	23185.35
2008.41672	23108.75
2011.46859	23063.05
2014.51848	23050.65
2017.56639	22998.05
2020.61233	22953.85
2023.6563	22894.95
2026.6983	22810.15
2029.73833	22852.95
2032.7764	22832.85
2035.8125	22802.85
2038.84664	22805.15
2041.87881	22771.95
2044.90903	22750.85
2047.93729	22682.95
2050.96359	22706.15
2053.98794	22647.95
2057.01034	22647.75
2060.03078	22664.45
2063.04927	22633.05
2066.06582	22659.25
2069.08042	22617.95
2072.09307	22548.35
2075.10378	22541.35
2078.11255	22485.35
2081.11938	22512.85
2084.12426	22468.65
2087.12722	22432.85
2090.12824	22440.05
2093.12732	22410.35
2096.12447	22443.95
2099.11969	22459.55
2102.11299	22464.35
2105.10435	22481.25
2108.09379	22450.15
2111.08131	22470.05
2114.0669	22527.45
2117.05057	22559.05
2120.03233	22543.65
2123.01216	22600.35
2125.99008	22619.85
2128.96609	22628.45
2131.94018	22627.75
2134.91236	22675.25
2137.88263	22706.95
2140.851	22698.75
2143.81746	22745.85
2146.78201	22717.65
2149.74466	22763.45
2152.7054	22779.45
2155.66425	22810.05
2158.6212	22791.15
2161.57625	22729.05
2164.52941	22779.45
2167.48067	22816.85
2170.43004	22793.25
2173.37752	22765.95
2176.32311	22864.75
2179.26681	22858.45
2182.20863	22853.85
2185.14856	22907.45
2188.08661	22900.55
2191.02278	22922.85
2193.95707	22922.75
2196.88948	22923.65
2199.82001	22938.15
2202.74867	22937.25
2205.67545	22939.15
2208.60037	22909.95
2211.52341	22935.85
2214.44458	22906.65
2217.36388	22904.15
2220.28132	22896.25
2223.1969	22878.95
2226.11061	22873.85
2229.02246	22824.15
2231.93245	22783.15
2234.84058	22751.15
2237.74686	22669.25
2240.65128	22686.05
2243.55385	22645.65
2246.45456	22652.95
2249.35343	22579.55
2252.25044	22602.55
2255.14561	22505.75
2258.03893	22542.95
2260.93041	22488.65
2263.82004	22427.25
2266.70783	22384.95
2269.59378	22330.05
2272.4779	22267.65
2275.36017	22199.35
2278.24061	22194.55
2281.11922	22117.75
2283.996	22099.75
2286.87094	22143.65
2289.74405	22104.75
2292.61534	22104.35
2295.4848	22137.15
2298.35243	22131.75
2301.21824	22160.55
2304.08223	22150.55
2306.94439	22234.25
2309.80474	22263.35
2312.66327	22314.65
2315.51999	22343.85
2318.37489	22310.65
2321.22797	22297.05
2324.07925	22315.75
2326.92871	22289.15
2329.77637	22277.25
2332.62222	22280.45
2335.46626	22290.65
2338.3085	22305.05
2341.14893	22295.55
2343.98756	22309.65
2346.8244	22345.15
2349.65943	22387.55
2352.49267	22447.75
2355.32411	22424.55
2358.15376	22441.05
2360.98161	22385.95
2363.80768	22321.35
2366.63195	22306.25
2369.45444	22231.95
2372.27514	22189.15
2375.09405	22145.55
2377.91118	22085.65
2380.72652	22022.75
2383.54009	21955.45
2386.35187	21960.65
2389.16188	21918.35
2391.97011	21868.45
2394.77657	21901.05
2397.58125	21834.65
2400.38416	21820.95
2403.18529	21754.95
2405.98466	21764.15
2408.78226	21679.25
2411.57809	21645.65
2414.37216	21621.55
2417.16446	21577.95
2419.955	21523.65
2422.74378	21519.15
2425.5308	21458.45
2428.31606	21533.85
2431.09956	21516.05
2433.88131	21484.25
2436.6613	21526.65
2439.43954	21492.35
2442.21603	21488.95
2444.99077	21509.95
2447.76377	21535.65
2450.53501	21481.75
2453.30451	21471.85
2456.07226	21477.25
2458.83827	21458.35
2461.60254	21471.75
2464.36507	21437.05
2467.12586	21445.05
2469.88492	21460.55
2472.64224	21494.75
2475.39782	21481.85
2478.15167	21538.95
2480.90379	21530.35
2483.65417	21557.35
2486.40283	21595.25
2489.14976	21619.65
2491.89497	21637.55
2494.63845	21690.45
2497.3802	21679.95
2500.12024	21688.05
2502.85855	21685.35
2505.59514	21663.25
2508.33002	21635.55
2511.06318	21625.55
2513.79462	21555.95
2516.52435	21517.75
2519.25237	21533.05
2521.97867	21524.65
2524.70327	21521.95
2527.42616	21513.35
2530.14734	21506.45
2532.86681	21517.05
2535.58458	21540.25
2538.30065	21535.15
2541.01501	21560.05
2543.72768	21518.35
2546.43864	21495.25
2549.14791	21524.85
2551.85548	21504.05
2554.56136	21437.25
2557.26554	21398.95
2559.96803	21424.45
2562.66883	21381.25
2565.36794	21388.65
2568.06536	21377.65
2570.7611	21373.85
2573.45514	21415.55
2576.14751	21404.75
2578.83819	21387.75
2581.52719	21436.35
2584.21451	21427.85
2586.90015	21388.65
2589.58411	21388.85
2592.2664	21412.05
2594.94701	21406.25
2597.62594	21436.25
2600.30321	21377.15
2602.9788	21414.35
2605.65273	21384.15
2608.32498	21341.15
2610.99557	21369.25
2613.66449	21381.75
2616.33175	21436.85
2618.99734	21476.55
2621.66128	21506.65
2624.32355	21515.05
2626.98416	21550.15
2629.64311	21584.45
2632.30041	21613.35
2634.95605	21590.75
2637.61004	21566.05
2640.26238	21485.15
2642.91306	21445.15
2645.56209	21376.15
2648.20948	21350.65
2650.85521	21288.45
2653.4993	21287.65
2656.14175	21278.05
2658.78255	21313.35
2661.42171	21334.85
2664.05923	21380.25
2666.6951	21360.75
2669.32934	21406.95
2671.96194	21374.05
2674.59291	21416.85
2677.22224	21428.15
2679.84993	21464.05
2682.476	21441.75
2685.10043	21433.65
2687.72324	21366.95
2690.34441	21342.75
2692.96396	21296.95
2695.58188	21345.35
2698.19818	21316.35
2700.81285	21350.95
2703.4259	21321.95
2706.03733	21314.95
2708.64714	21364.85
2711.25533	21387.95
2713.86191	21347.55
2716.46687	21399.95
2719.07021	21400.55
2721.67194	21422.55
2724.27206	21434.95
2726.87057	21441.55
2729.46747	21512.05
2732.06276	21446.95
2734.65644	21441.15
2737.24852	21497.35
2739.83899	21456.05
2742.42786	21437.65
2745.01513	21431.45
2747.60079	21414.85
2750.18486	21443.65
2752.76733	21380.55
2755.3482	21363.85
2757.92747	21419.35
2760.50515	21389.65
2763.08123	21410.35
2765.65573	21385.65
2768.22863	21421.85
2770.79994	21408.15
2773.36967	21431.55
2775.9378	21393.05
2778.50435	21425.35
2781.06932	21417.55
2783.6327	21440.95
2786.1945	21396.45
2788.75471	21357.65
2791.31335	21314.95
2793.87041	21336.15
2796.42589	21303.95
2798.97979	21293.05
2801.53212	21271.85
2804.08288	21193.35
2806.63206	21143.25
2809.17967	21148.45
2811.72571	21075.35
2814.27018	21080.35
2816.81308	21101.15
2819.35442	21052.75
2821.89419	20981.55
2824.43239	21006.45
2826.96904	21030.05
2829.50412	21022.05
2832.03763	21012.05
2834.56959	21027.65
2837.1	20978.65
2839.62884	20931.25
2842.15613	20959.35
2844.68186	21004.25
2847.20604	21002.95
2849.72867	20978.95
2852.24974	20938.15
2854.76927	20933.05
2857.28724	20939.65
2859.80367	20914.85
2862.31855	20912.25
2864.83189	20903.25
2867.34368	20876.55
2869.85393	20839.05
2872.36264	20828.35
2874.8698	20853.55
2877.37543	20813.35
2879.87952	20832.45
2882.38207	20833.85
2884.88308	20810.45
2887.38256	20827.85
2889.88051	20803.25
2892.37692	20847.55
2894.8718	20891.95
2897.36515	20938.15
2899.85698	20921.75
2902.34727	20976.25
2904.83604	20964.05
2907.32328	21011.55
2909.809	21072.15
2912.29319	21084.35
2914.77587	21094.35
2917.25702	21128.55
2919.73665	21079.45
2922.21476	21029.25
2924.69136	20964.55
2927.16644	20962.15
2929.64	20934.25
2932.11205	20930.35
2934.58258	20833.85
2937.05161	20921.85
2939.51912	20893.25
2941.98513	20929.95
2944.44962	20889.35
2946.91261	20788.25
2949.37409	20876.25
2951.83407	20828.55
2954.29254	20865.05
2956.74951	20856.05
2959.20498	20884.95
2961.65895	20826.35
2964.11142	20855.25
2966.56239	20792.55
2969.01186	20833.55
2971.45984	20796.15
2973.90632	20729.75
2976.35131	20707.35
2978.7948	20637.25
2981.23681	20620.55
2983.67732	20558.75
2986.11635	20512.55
2988.55388	20478.35
2990.98993	20409.75
2993.4245	20385.05
2995.85758	20370.15
2998.28917	20337.85
3000.71928	20246.35
3003.14791	20250.15
3005.57506	20243.05
3008.00073	20182.05
3010.42493	20154.55
3012.84764	20134.55
3015.26888	20133.75
3017.68865	20084.05
3020.10694	20044.15
3022.52376	20021.95
3024.9391	19987.05
3027.35298	19930.95
3029.76539	19959.15
3032.17632	19955.65
3034.5858	19916.55
3036.9938	19913.65
3039.40034	19916.55
3041.80542	19904.35
3044.20903	19837.55
3046.61118	19862.45
3049.01187	19821.35
3051.4111	19863.75
3053.80888	19815.45
3056.20519	19783.65
3058.60005	19722.05
3060.99345	19709.85
3063.3854	19601.65
3065.7759	19542.05
3068.16494	19542.65
3070.55254	19446.15
3072.93868	19403.55
3075.32338	19372.85
3077.70662	19316.65
3080.08842	19284.25
3082.46878	19296.55
3084.84769	19246.75
3087.22515	19242.05
3089.60118	19259.45
3091.97576	19234.55
3094.3489	19241.65
3096.72061	19254.85
3099.09087	19229.95
3101.4597	19245.85
3103.82709	19285.85
3106.19305	19219.75
3108.55757	19220.65
3110.92066	19156.95
3113.28232	19173.15
3115.64255	19132.55
3118.00134	19108.85
3120.35871	19100.15
3122.71466	19051.75
3125.06917	19032.45
3127.42226	19003.85
3129.77393	19049.65
3132.12417	19003.55
3134.47299	18930.45
3136.82039	18913.35
3139.16636	18969.35
3141.51092	18922.75
3143.85406	18928.75
3146.19579	18927.45
3148.53609	18918.35
3150.87499	18933.75
3153.21246	18945.75
3155.54853	18952.05
3157.88318	18926.35
3160.21642	19001.35
3162.54826	18987.35
3164.87868	18979.25
3167.2077	18962.05
3169.5353	18950.25
3171.86151	18944.45
3174.18631	18984.55
3176.5097	18960.85
3178.83169	18934.85
3181.15228	18957.15
3183.47147	18880.75
3185.78926	18891.95
3188.10565	18878.35
3190.42065	18870.75
3192.73424	18900.15
3195.04645	18890.65
3197.35725	18896.35
3199.66667	18832.45
3201.97469	18856.95
3204.28132	18862.35
3206.58656	18889.95
3208.8904	18875.05
3211.19287	18910.75
3213.49394	18880.35
3215.79363	18856.25
3218.09193	18896.05
3220.38884	18902.65
3222.68438	18986.05
3224.97853	18909.05
3227.2713	18941.35
3229.56269	18927.15
3231.8527	18942.85
3234.14133	18943.35
3236.42858	18878.65
3238.71446	18865.95
3240.99896	18768.45
