Data from AgNPs_UA_50uM_CRN_0uM_R6G_10uM_Q_RamanShift__19__12-33-21-778.txt Node

Date: Tue Jul 26 12:33:21 BST 2022
User: TCL
Spectrometer: QEP01345
Trigger mode: 4
Integration Time (sec): 7.000000E0
Scans to average: 10
Electric dark correction enabled: true
Nonlinearity correction enabled: false
Boxcar width: 0
XAxis mode: Raman Shifts
Number of Pixels in Spectrum: 1044
>>>>>Begin Spectral Data<<<<<
46.04893	0.2625
50.45542	-0.3375
54.85868	0.4625
59.25871	-0.9375
63.6555	71.2625
68.04907	73.6625
72.43941	78.9625
76.82654	88.1625
81.21044	88.0625
85.59113	89.8625
89.96862	97.6625
94.34289	102.0625
98.71396	103.1625
103.08183	109.5625
107.4465	108.8625
111.80798	113.4625
116.16626	112.8625
120.52136	117.3625
124.87327	115.0625
129.222	119.8625
133.56755	128.5625
137.90993	135.6625
142.24913	141.8625
146.58517	159.1625
150.91804	180.3625
155.24774	209.1625
159.57429	251.8625
163.89768	305.4625
168.21792	405.4625
172.53501	548.4625
176.84895	761.5625
181.15975	1048.9625
185.46741	1470.0625
189.77193	2034.8625
194.07331	2687.8625
198.37157	3443.5625
202.6667	4246.4625
206.9587	5044.6625
211.24758	5838.3625
215.53334	6636.2625
219.81599	7457.6625
224.09553	8436.7625
228.37195	9509.0625
232.64527	10674.5625
236.91549	11874.7625
241.18261	13051.1625
245.44663	14087.5625
249.70755	14981.4625
253.96539	15771.0625
258.22014	16387.6625
262.4718	16905.9625
266.72039	17261.5625
270.96589	17421.8625
275.20832	17362.2625
279.44768	17147.1625
283.68397	16892.5625
287.91719	16653.7625
292.14735	16592.7625
296.37445	16672.6625
300.59849	16909.5625
304.81948	17176.2625
309.03742	17376.4625
313.25231	17307.7625
317.46415	16974.7625
321.67296	16470.0625
325.87872	16027.4625
330.08145	15853.4625
334.28114	15907.2625
338.47781	16143.1625
342.67145	16418.8625
346.86207	16787.9625
351.04966	17356.3625
355.23424	17892.2625
359.4158	18369.7625
363.59435	18707.8625
367.76989	18932.1625
371.94243	19071.3625
376.11196	19157.2625
380.27849	19201.5625
384.44203	19307.7625
388.60257	19380.9625
392.76012	19442.7625
396.91468	19658.4625
401.06626	19941.1625
405.21485	20194.9625
409.36047	20083.9625
413.50311	19759.1625
417.64277	19516.5625
421.77947	19356.4625
425.9132	18938.7625
430.04396	18800.2625
434.17176	18918.8625
438.2966	19110.9625
442.41849	19519.9625
446.53742	19971.2625
450.6534	20406.0625
454.76644	20766.6625
458.87653	20894.5625
462.98368	20889.2625
467.08789	20683.8625
471.18916	20380.3625
475.2875	20034.8625
479.38291	19712.7625
483.4754	19463.2625
487.56496	19329.1625
491.6516	19186.0625
495.73531	19144.4625
499.81612	19177.8625
503.89401	19352.1625
507.96899	19509.1625
512.04106	19573.0625
516.11023	19667.5625
520.1765	19731.2625
524.23987	19783.1625
528.30034	19721.9625
532.35792	19637.4625
536.41261	19482.7625
540.46441	19315.6625
544.51333	19179.0625
548.55936	19303.7625
552.60252	19536.9625
556.64279	19847.4625
560.6802	20023.3625
564.71473	20198.0625
568.7464	20456.2625
572.7752	20563.5625
576.80114	20487.5625
580.82422	20468.8625
584.84444	20625.6625
588.86181	20834.5625
592.87633	21079.6625
596.888	21326.1625
600.89682	21775.7625
604.9028	23258.2625
608.90594	26804.5625
612.90624	30347.2625
616.90371	28490.8625
620.89834	23276.8625
624.89015	21118.0625
628.87913	20885.9625
632.86528	20947.1625
636.84862	20944.8625
640.82913	20614.2625
644.80683	19943.9625
648.78172	19517.2625
652.75379	19531.4625
656.72306	19929.9625
660.68952	20496.2625
664.65319	20428.9625
668.61405	20151.0625
672.57211	20127.0625
676.52738	20199.3625
680.47986	20084.0625
684.42955	19903.8625
688.37646	19905.8625
692.32058	19982.2625
696.26192	20146.4625
700.20048	20369.1625
704.13626	20438.9625
708.06928	20317.6625
711.99952	20129.7625
715.927	20060.9625
719.85171	20150.6625
723.77365	20091.2625
727.69284	19961.1625
731.60928	19812.2625
735.52295	19844.4625
739.43388	19890.6625
743.34206	19993.2625
747.24749	20034.0625
751.15017	20029.4625
755.05012	20243.6625
758.94733	20767.7625
762.8418	21927.1625
766.73354	23832.3625
770.62254	25707.4625
774.50882	26624.5625
778.39237	25932.8625
782.27321	24140.8625
786.15132	22248.0625
790.02671	21051.1625
793.89938	20460.1625
797.76935	20198.2625
801.6366	20060.0625
805.50115	20034.0625
809.36299	19900.6625
813.22213	19759.0625
817.07857	19706.3625
820.93231	19713.4625
824.78336	19741.5625
828.63172	19786.8625
832.47738	19760.6625
836.32036	19834.7625
840.16066	19826.9625
843.99827	19887.2625
847.8332	19883.4625
851.66546	19860.0625
855.49504	19853.4625
859.32195	19861.5625
863.1462	19863.0625
866.96777	19830.4625
870.78668	19801.9625
874.60293	19855.2625
878.41652	19892.6625
882.22745	19966.0625
886.03573	20056.2625
889.84136	20019.1625
893.64433	19913.9625
897.44466	19853.9625
901.24235	19783.2625
905.0374	19721.3625
908.8298	19696.8625
912.61957	19647.9625
916.40671	19686.6625
920.19121	19867.6625
923.97308	20055.9625
927.75233	20247.1625
931.52895	20366.6625
935.30295	20247.3625
939.07433	19934.0625
942.84309	19687.4625
946.60924	19612.8625
950.37278	19579.5625
954.13371	19467.0625
957.89203	19422.9625
961.64774	19368.9625
965.40086	19339.4625
969.15137	19284.1625
972.89929	19267.2625
976.64461	19266.2625
980.38733	19296.4625
984.12747	19386.4625
987.86502	19594.9625
991.59999	19822.6625
995.33237	20179.1625
999.06217	20690.7625
1002.78939	21246.1625
1006.51404	21567.6625
1010.23611	21768.6625
1013.95561	21981.9625
1017.67255	22044.6625
1021.38692	21907.4625
1025.09872	21817.1625
1028.80796	22026.1625
1032.51465	22480.2625
1036.21877	22898.7625
1039.92035	22919.7625
1043.61937	22644.7625
1047.31584	22131.6625
1051.00976	21628.0625
1054.70114	21406.0625
1058.38998	21374.7625
1062.07627	21467.1625
1065.76003	21517.3625
1069.44126	21662.0625
1073.11995	21933.8625
1076.79611	22265.4625
1080.46974	22566.5625
1084.14085	22870.4625
1087.80943	23030.9625
1091.47549	23102.5625
1095.13903	22938.7625
1098.80005	22702.4625
1102.45857	22461.2625
1106.11456	22330.2625
1109.76805	22370.9625
1113.41903	22439.7625
1117.06751	22639.4625
1120.71348	22955.1625
1124.35696	23352.8625
1127.99793	23630.0625
1131.63641	23585.3625
1135.2724	23249.8625
1138.90589	22851.3625
1142.5369	22544.3625
1146.16542	22348.2625
1149.79145	22125.8625
1153.415	22004.3625
1157.03607	22068.8625
1160.65467	22307.7625
1164.27079	22819.2625
1167.88443	23624.3625
1171.49561	24889.3625
1175.10432	26625.3625
1178.71056	28835.6625
1182.31434	30920.0625
1185.91565	31924.7625
1189.51451	31788.7625
1193.11091	30737.5625
1196.70485	29342.0625
1200.29634	28156.1625
1203.88538	27203.0625
1207.47197	26243.6625
1211.05612	25449.1625
1214.63782	24973.7625
1218.21708	24733.6625
1221.79391	24775.2625
1225.36829	24899.4625
1228.94024	24722.2625
1232.50976	24416.5625
1236.07685	24095.1625
1239.6415	24020.0625
1243.20374	24121.4625
1246.76355	24331.1625
1250.32093	24707.7625
1253.8759	25100.5625
1257.42845	25676.0625
1260.97859	26383.8625
1264.52631	27049.6625
1268.07163	27768.4625
1271.61453	28505.8625
1275.15503	29097.9625
1278.69312	29606.7625
1282.22882	30006.5625
1285.76211	30268.9625
1289.29301	30633.3625
1292.82151	31057.3625
1296.34761	31733.9625
1299.87133	33015.8625
1303.39266	34949.2625
1306.9116	37749.5625
1310.42815	40750.6625
1313.94233	42532.4625
1317.45412	42068.5625
1320.96354	40334.6625
1324.47058	38268.9625
1327.97525	36328.7625
1331.47754	35010.4625
1334.97747	34386.5625
1338.47502	34328.2625
1341.97022	34746.4625
1345.46305	35451.4625
1348.95352	36413.0625
1352.44163	37677.5625
1355.92738	39489.8625
1359.41078	42262.2625
1362.89183	44688.7625
1366.37053	43477.1625
1369.84688	38914.9625
1373.32088	34313.1625
1376.79254	31436.6625
1380.26186	29967.6625
1383.72883	29132.3625
1387.19347	28563.8625
1390.65578	27863.3625
1394.11575	27261.5625
1397.57339	26930.9625
1401.0287	26975.1625
1404.48168	27129.6625
1407.93234	27263.7625
1411.38068	27376.3625
1414.82669	27263.6625
1418.27039	27092.5625
1421.71177	26757.3625
1425.15083	26433.8625
1428.58758	26327.6625
1432.02203	26508.7625
1435.45416	26906.1625
1438.88399	27161.7625
1442.31151	27332.4625
1445.73673	27385.0625
1449.15965	27425.6625
1452.58027	27432.0625
1455.9986	27383.5625
1459.41463	27490.3625
1462.82837	27918.7625
1466.23982	28441.3625
1469.64898	29004.3625
1473.05586	29278.8625
1476.46045	29458.0625
1479.86276	29570.1625
1483.26279	29561.4625
1486.66054	29713.3625
1490.05602	30022.5625
1493.44922	30571.7625
1496.84016	31598.9625
1500.22882	33104.6625
1503.61521	35366.3625
1506.99934	37758.5625
1510.38121	39499.1625
1513.76081	39651.6625
1517.13816	37930.9625
1520.51324	35039.7625
1523.88607	32425.5625
1527.25665	30718.3625
1530.62498	29766.7625
1533.99105	29211.1625
1537.35488	28843.9625
1540.71647	28622.5625
1544.07581	28490.2625
1547.4329	28313.0625
1550.78776	28147.6625
1554.14038	28015.6625
1557.49077	27975.5625
1560.83892	28135.6625
1564.18484	28484.5625
1567.52853	28937.5625
1570.86999	29263.9625
1574.20922	29430.6625
1577.54624	29320.6625
1580.88103	28632.4625
1584.2136	27878.4625
1587.54395	27709.5625
1590.87208	28474.1625
1594.19801	30107.4625
1597.52172	32007.2625
1600.84321	32943.0625
1604.16251	32185.3625
1607.47959	30394.2625
1610.79447	28415.8625
1614.10715	26594.8625
1617.41763	25001.2625
1620.7259	23943.1625
1624.03199	23412.6625
1627.33587	23441.3625
1630.63757	23871.9625
1633.93707	24915.6625
1637.23439	26528.0625
1640.52951	28788.6625
1643.82246	31520.1625
1647.11321	33835.8625
1650.40179	34588.8625
1653.68819	32920.5625
1656.97241	29504.3625
1660.25446	26028.0625
1663.53433	23642.7625
1666.81203	22116.1625
1670.08756	21180.7625
1673.36092	20575.3625
1676.63211	20182.6625
1679.90115	19851.4625
1683.16801	19632.4625
1686.43272	19426.6625
1689.69527	19348.8625
1692.95567	19283.4625
1696.2139	19165.8625
1699.46999	19123.4625
1702.72392	19089.6625
1705.97571	19065.2625
1709.22535	19041.1625
1712.47284	19030.2625
1715.71819	19005.7625
1718.96139	18941.9625
1722.20246	18906.3625
1725.44139	18842.2625
1728.67818	18754.2625
1731.91284	18652.7625
1735.14537	18587.6625
1738.37576	18520.7625
1741.60403	18457.1625
1744.83017	18409.2625
1748.05418	18353.3625
1751.27607	18296.7625
1754.49584	18293.7625
1757.71349	18263.5625
1760.92903	18239.0625
1764.14244	18221.9625
1767.35375	18217.5625
1770.56294	18185.0625
1773.77002	18162.3625
1776.97499	18153.1625
1780.17785	18112.8625
1783.37861	18107.2625
1786.57727	18119.7625
1789.77382	18079.1625
1792.96828	18032.4625
1796.16064	18045.7625
1799.3509	18025.9625
1802.53907	17995.8625
1805.72514	17970.5625
1808.90913	17879.1625
1812.09102	17844.3625
1815.27083	17803.2625
1818.44856	17806.2625
1821.6242	17763.4625
1824.79776	17724.0625
1827.96924	17706.4625
1831.13864	17714.7625
1834.30597	17709.7625
1837.47122	17703.1625
1840.6344	17692.1625
1843.7955	17679.9625
1846.95454	17668.1625
1850.11151	17650.0625
1853.26642	17633.4625
1856.41926	17604.6625
1859.57004	17615.2625
1862.71876	17586.6625
1865.86542	17595.8625
1869.01003	17594.5625
1872.15258	17577.0625
1875.29308	17569.4625
1878.43152	17548.2625
1881.56792	17527.7625
1884.70227	17535.0625
1887.83457	17549.6625
1890.96482	17484.3625
1894.09304	17473.3625
1897.21921	17445.4625
1900.34335	17449.1625
1903.46544	17462.2625
1906.58551	17436.2625
1909.70353	17446.9625
1912.81953	17428.1625
1915.93349	17389.7625
1919.04543	17374.8625
1922.15534	17354.7625
1925.26322	17324.2625
1928.36908	17302.0625
1931.47292	17275.7625
1934.57473	17235.3625
1937.67453	17213.3625
1940.77232	17167.5625
1943.86808	17140.6625
1946.96184	17086.2625
1950.05358	17057.3625
1953.14331	17018.6625
1956.23103	16974.9625
1959.31675	16912.4625
1962.40046	16851.1625
1965.48217	16843.8625
1968.56188	16779.5625
1971.63959	16777.3625
1974.7153	16745.8625
1977.78901	16682.6625
1980.86073	16659.4625
1983.93046	16599.0625
1986.99819	16562.4625
1990.06394	16527.0625
1993.1277	16485.0625
1996.18947	16421.3625
1999.24925	16395.9625
2002.30706	16364.4625
2005.36288	16312.2625
2008.41672	16299.4625
2011.46859	16216.1625
2014.51848	16158.8625
2017.56639	16148.6625
2020.61233	16097.1625
2023.6563	16088.2625
2026.6983	16045.7625
2029.73833	16028.0625
2032.7764	15990.5625
2035.8125	15967.9625
2038.84664	15950.5625
2041.87881	15946.3625
2044.90903	15920.4625
2047.93729	15883.1625
2050.96359	15894.8625
2053.98794	15864.2625
2057.01034	15884.4625
2060.03078	15878.9625
2063.04927	15847.7625
2066.06582	15852.4625
2069.08042	15832.7625
2072.09307	15840.3625
2075.10378	15814.1625
2078.11255	15794.9625
2081.11938	15784.6625
2084.12426	15791.6625
2087.12722	15761.2625
2090.12824	15784.9625
2093.12732	15778.0625
2096.12447	15761.2625
2099.11969	15752.2625
2102.11299	15772.7625
2105.10435	15781.4625
2108.09379	15828.6625
2111.08131	15803.0625
2114.0669	15795.6625
2117.05057	15828.3625
2120.03233	15877.1625
2123.01216	15899.8625
2125.99008	15891.2625
2128.96609	15901.7625
2131.94018	15918.4625
2134.91236	15954.8625
2137.88263	15942.2625
2140.851	15968.8625
2143.81746	15956.4625
2146.78201	15948.1625
2149.74466	15994.4625
2152.7054	16034.8625
2155.66425	16031.8625
2158.6212	16019.0625
2161.57625	16026.2625
2164.52941	16000.8625
2167.48067	16003.5625
2170.43004	16008.9625
2173.37752	16004.0625
2176.32311	16005.7625
2179.26681	15985.3625
2182.20863	16007.7625
2185.14856	16029.9625
2188.08661	16048.3625
2191.02278	16025.2625
2193.95707	16029.7625
2196.88948	16052.9625
2199.82001	16019.6625
2202.74867	16033.9625
2205.67545	16046.5625
2208.60037	16040.9625
2211.52341	16061.1625
2214.44458	16024.3625
2217.36388	16024.8625
2220.28132	15977.2625
2223.1969	15957.3625
2226.11061	15946.6625
2229.02246	15940.0625
2231.93245	15887.4625
2234.84058	15853.4625
2237.74686	15823.9625
2240.65128	15835.7625
2243.55385	15790.4625
2246.45456	15766.5625
2249.35343	15751.0625
2252.25044	15766.9625
2255.14561	15768.6625
2258.03893	15768.5625
2260.93041	15717.4625
2263.82004	15722.6625
2266.70783	15705.0625
2269.59378	15648.8625
2272.4779	15641.3625
2275.36017	15573.3625
2278.24061	15561.6625
2281.11922	15533.5625
2283.996	15515.1625
2286.87094	15499.9625
2289.74405	15438.2625
2292.61534	15453.4625
2295.4848	15452.7625
2298.35243	15451.5625
2301.21824	15462.4625
2304.08223	15427.7625
2306.94439	15488.5625
2309.80474	15526.6625
2312.66327	15505.2625
2315.51999	15501.0625
2318.37489	15493.2625
2321.22797	15529.9625
2324.07925	15473.9625
2326.92871	15442.0625
2329.77637	15436.6625
2332.62222	15437.1625
2335.46626	15471.8625
2338.3085	15431.5625
2341.14893	15451.2625
2343.98756	15463.5625
2346.8244	15490.9625
2349.65943	15523.2625
2352.49267	15500.0625
2355.32411	15495.1625
2358.15376	15442.5625
2360.98161	15459.0625
2363.80768	15471.8625
2366.63195	15482.0625
2369.45444	15449.0625
2372.27514	15401.3625
2375.09405	15390.3625
2377.91118	15368.5625
2380.72652	15349.7625
2383.54009	15307.9625
2386.35187	15258.5625
2389.16188	15260.1625
2391.97011	15238.1625
2394.77657	15210.5625
2397.58125	15183.7625
2400.38416	15180.7625
2403.18529	15141.3625
2405.98466	15125.2625
2408.78226	15026.3625
2411.57809	15032.1625
2414.37216	15052.4625
2417.16446	15058.1625
2419.955	15043.3625
2422.74378	15054.9625
2425.5308	15011.1625
2428.31606	14984.2625
2431.09956	15010.2625
2433.88131	14994.2625
2436.6613	15031.3625
2439.43954	15004.9625
2442.21603	14982.5625
2444.99077	14932.6625
2447.76377	14958.0625
2450.53501	14975.1625
2453.30451	14937.3625
2456.07226	14952.8625
2458.83827	14932.0625
2461.60254	14929.7625
2464.36507	14914.1625
2467.12586	14912.5625
2469.88492	14909.4625
2472.64224	14909.9625
2475.39782	14923.5625
2478.15167	14974.1625
2480.90379	14962.1625
2483.65417	14977.7625
2486.40283	14984.9625
2489.14976	15018.2625
2491.89497	15039.4625
2494.63845	15027.8625
2497.3802	15012.4625
2500.12024	15000.4625
2502.85855	14990.6625
2505.59514	14985.0625
2508.33002	14976.6625
2511.06318	14926.6625
2513.79462	14897.2625
2516.52435	14885.3625
2519.25237	14897.9625
2521.97867	14874.7625
2524.70327	14856.0625
2527.42616	14857.4625
2530.14734	14859.5625
2532.86681	14853.4625
2535.58458	14860.6625
2538.30065	14848.8625
2541.01501	14867.4625
2543.72768	14842.5625
2546.43864	14815.4625
2549.14791	14799.0625
2551.85548	14828.2625
2554.56136	14787.4625
2557.26554	14752.6625
2559.96803	14768.7625
2562.66883	14740.8625
2565.36794	14731.8625
2568.06536	14718.0625
2570.7611	14725.2625
2573.45514	14681.4625
2576.14751	14699.3625
2578.83819	14698.8625
2581.52719	14692.0625
2584.21451	14675.9625
2586.90015	14673.0625
2589.58411	14651.6625
2592.2664	14675.4625
2594.94701	14634.0625
2597.62594	14644.4625
2600.30321	14597.1625
2602.9788	14597.9625
2605.65273	14604.1625
2608.32498	14627.8625
2610.99557	14585.9625
2613.66449	14587.2625
2616.33175	14586.3625
2618.99734	14626.7625
2621.66128	14644.4625
2624.32355	14628.1625
2626.98416	14625.6625
2629.64311	14597.1625
2632.30041	14597.9625
2634.95605	14633.1625
2637.61004	14621.2625
2640.26238	14591.6625
2642.91306	14587.5625
2645.56209	14583.8625
2648.20948	14560.9625
2650.85521	14493.3625
2653.4993	14525.3625
2656.14175	14503.0625
2658.78255	14487.4625
2661.42171	14478.3625
2664.05923	14497.5625
2666.6951	14556.9625
2669.32934	14575.3625
2671.96194	14604.6625
2674.59291	14603.4625
2677.22224	14572.9625
2679.84993	14595.2625
2682.476	14559.8625
2685.10043	14553.4625
2687.72324	14530.5625
2690.34441	14530.3625
2692.96396	14501.2625
2695.58188	14513.4625
2698.19818	14508.5625
2700.81285	14506.3625
2703.4259	14481.2625
2706.03733	14524.8625
2708.64714	14510.8625
2711.25533	14489.7625
2713.86191	14530.7625
2716.46687	14535.0625
2719.07021	14529.2625
2721.67194	14590.8625
2724.27206	14573.5625
2726.87057	14561.6625
2729.46747	14571.7625
2732.06276	14551.2625
2734.65644	14552.0625
2737.24852	14543.1625
2739.83899	14552.0625
2742.42786	14570.2625
2745.01513	14553.9625
2747.60079	14509.7625
2750.18486	14493.9625
2752.76733	14491.1625
2755.3482	14465.9625
2757.92747	14480.5625
2760.50515	14474.4625
2763.08123	14458.0625
2765.65573	14474.9625
2768.22863	14502.7625
2770.79994	14465.3625
2773.36967	14461.8625
2775.9378	14468.5625
2778.50435	14437.9625
2781.06932	14462.0625
2783.6327	14457.9625
2786.1945	14457.0625
2788.75471	14435.1625
2791.31335	14408.6625
2793.87041	14361.9625
2796.42589	14335.5625
2798.97979	14327.2625
2801.53212	14309.0625
2804.08288	14314.4625
2806.63206	14265.9625
2809.17967	14248.4625
2811.72571	14188.0625
2814.27018	14199.6625
2816.81308	14174.2625
2819.35442	14202.3625
2821.89419	14164.8625
2824.43239	14147.5625
2826.96904	14160.0625
2829.50412	14134.4625
2832.03763	14097.6625
2834.56959	14110.0625
2837.1	14064.2625
2839.62884	14087.0625
2842.15613	14083.6625
2844.68186	14076.7625
2847.20604	14053.4625
2849.72867	14040.2625
2852.24974	14007.6625
2854.76927	14020.8625
2857.28724	14018.5625
2859.80367	14015.8625
2862.31855	14031.4625
2864.83189	14023.2625
2867.34368	13997.2625
2869.85393	14001.2625
2872.36264	13981.1625
2874.8698	14007.5625
2877.37543	13983.2625
2879.87952	13984.8625
2882.38207	13978.8625
2884.88308	13956.3625
2887.38256	13996.9625
2889.88051	13982.5625
2892.37692	13989.7625
2894.8718	14000.2625
2897.36515	13983.5625
2899.85698	14008.4625
2902.34727	14032.4625
2904.83604	14064.9625
2907.32328	14115.9625
2909.809	14138.1625
2912.29319	14126.0625
2914.77587	14101.3625
2917.25702	14097.1625
2919.73665	14120.6625
2922.21476	14098.0625
2924.69136	14076.6625
2927.16644	14077.8625
2929.64	14081.9625
2932.11205	14008.7625
2934.58258	13982.6625
2937.05161	14036.1625
2939.51912	14014.3625
2941.98513	14028.0625
2944.44962	13998.9625
2946.91261	13972.9625
2949.37409	13997.6625
2951.83407	14025.7625
2954.29254	13975.2625
2956.74951	14008.0625
2959.20498	14021.3625
2961.65895	13977.9625
2964.11142	13964.9625
2966.56239	13958.3625
2969.01186	13952.9625
2971.45984	13961.1625
2973.90632	13969.8625
2976.35131	13917.3625
2978.7948	13904.0625
2981.23681	13894.9625
2983.67732	13874.6625
2986.11635	13833.5625
2988.55388	13823.8625
2990.98993	13818.0625
2993.4245	13784.8625
2995.85758	13763.3625
2998.28917	13766.8625
3000.71928	13757.6625
3003.14791	13709.9625
3005.57506	13670.6625
3008.00073	13662.2625
3010.42493	13662.4625
3012.84764	13668.9625
3015.26888	13640.8625
3017.68865	13608.8625
3020.10694	13591.8625
3022.52376	13591.4625
3024.9391	13554.6625
3027.35298	13547.6625
