Data from AgNPs_UA_200uM_CRN_0uM_R6G_10uM_Q_RamanShift__8__14-09-14-144.txt Node

Date: Tue Jul 26 14:09:14 BST 2022
User: TCL
Spectrometer: QEP01345
Trigger mode: 4
Integration Time (sec): 7.000000E0
Scans to average: 10
Electric dark correction enabled: true
Nonlinearity correction enabled: false
Boxcar width: 0
XAxis mode: Raman Shifts
Number of Pixels in Spectrum: 1044
>>>>>Begin Spectral Data<<<<<
46.04893	-1.725
50.45542	0.575
54.85868	-0.825
59.25871	-0.725
63.6555	43.675
68.04907	47.475
72.43941	52.375
76.82654	53.275
81.21044	58.975
85.59113	58.375
89.96862	63.175
94.34289	66.375
98.71396	68.075
103.08183	71.575
107.4465	68.275
111.80798	71.475
116.16626	69.275
120.52136	71.175
124.87327	71.975
129.222	69.575
133.56755	75.075
137.90993	72.975
142.24913	72.975
146.58517	77.875
150.91804	77.875
155.24774	88.175
159.57429	104.275
163.89768	113.575
168.21792	145.575
172.53501	176.975
176.84895	240.975
181.15975	324.275
185.46741	447.975
189.77193	606.875
194.07331	796.175
198.37157	1020.375
202.6667	1249.975
206.9587	1468.075
211.24758	1705.175
215.53334	1931.075
219.81599	2167.075
224.09553	2411.775
228.37195	2706.175
232.64527	3008.575
236.91549	3340.675
241.18261	3672.475
245.44663	3993.375
249.70755	4291.675
253.96539	4559.775
258.22014	4781.475
262.4718	4928.375
266.72039	5024.675
270.96589	5065.775
275.20832	5067.475
279.44768	5014.975
283.68397	4950.975
287.91719	4885.675
292.14735	4824.875
296.37445	4794.575
300.59849	4770.175
304.81948	4784.775
309.03742	4753.475
313.25231	4745.275
317.46415	4719.775
321.67296	4662.275
325.87872	4641.375
330.08145	4644.275
334.28114	4675.175
338.47781	4732.675
342.67145	4763.275
346.86207	4855.075
351.04966	4905.175
355.23424	5013.175
359.4158	5064.375
363.59435	5154.175
367.76989	5212.075
371.94243	5272.375
376.11196	5330.875
380.27849	5378.975
384.44203	5427.175
388.60257	5467.175
392.76012	5521.575
396.91468	5557.075
401.06626	5611.875
405.21485	5670.275
409.36047	5673.775
413.50311	5657.375
417.64277	5634.375
421.77947	5653.575
425.9132	5648.675
430.04396	5677.975
434.17176	5727.075
438.2966	5785.575
442.41849	5827.075
446.53742	5875.275
450.6534	5929.575
454.76644	5969.175
458.87653	6003.475
462.98368	6025.175
467.08789	6061.375
471.18916	6054.975
475.2875	6047.475
479.38291	6036.375
483.4754	6046.875
487.56496	6057.275
491.6516	6099.275
495.73531	6123.175
499.81612	6126.675
503.89401	6157.775
507.96899	6175.875
512.04106	6171.775
516.11023	6178.175
520.1765	6205.675
524.23987	6238.075
528.30034	6248.975
532.35792	6255.475
536.41261	6240.475
540.46441	6232.275
544.51333	6230.275
548.55936	6236.875
552.60252	6259.075
556.64279	6291.475
560.6802	6305.775
564.71473	6322.175
568.7464	6328.175
572.7752	6332.375
576.80114	6339.875
580.82422	6364.875
584.84444	6392.475
588.86181	6427.175
592.87633	6469.675
596.888	6484.775
600.89682	6564.175
604.9028	6717.575
608.90594	7070.075
612.90624	7423.875
616.90371	7275.875
620.89834	6818.475
624.89015	6663.075
628.87913	6683.675
632.86528	6825.275
636.84862	6945.675
640.82913	6960.475
644.80683	6881.475
648.78172	6781.575
652.75379	6704.975
656.72306	6686.375
660.68952	6718.375
664.65319	6681.975
668.61405	6633.375
672.57211	6625.975
676.52738	6632.475
680.47986	6625.275
684.42955	6638.975
688.37646	6638.475
692.32058	6648.975
696.26192	6661.375
700.20048	6681.875
704.13626	6709.075
708.06928	6730.575
711.99952	6723.775
715.927	6720.575
719.85171	6731.275
723.77365	6759.175
727.69284	6780.875
731.60928	6799.775
735.52295	6814.775
739.43388	6791.175
743.34206	6760.675
747.24749	6785.275
751.15017	6791.275
755.05012	6804.275
758.94733	6841.275
762.8418	6953.475
766.73354	7166.175
770.62254	7368.975
774.50882	7461.775
778.39237	7384.475
782.27321	7173.975
786.15132	6999.075
790.02671	6883.275
793.89938	6836.975
797.76935	6811.975
801.6366	6837.375
805.50115	6841.175
809.36299	6882.475
813.22213	6926.675
817.07857	6945.475
820.93231	6898.475
824.78336	6877.275
828.63172	6825.875
832.47738	6801.175
836.32036	6816.175
840.16066	6777.875
843.99827	6804.175
847.8332	6811.475
851.66546	6828.175
855.49504	6839.075
859.32195	6831.175
863.1462	6851.775
866.96777	6846.075
870.78668	6875.475
874.60293	6915.775
878.41652	6937.775
882.22745	6961.575
886.03573	7007.975
889.84136	7041.475
893.64433	7045.175
897.44466	7005.175
901.24235	6968.175
905.0374	6927.175
908.8298	6900.075
912.61957	6891.275
916.40671	6867.775
920.19121	6875.975
923.97308	6871.775
927.75233	6872.075
931.52895	6860.975
935.30295	6844.075
939.07433	6836.875
942.84309	6809.175
946.60924	6794.075
950.37278	6801.675
954.13371	6771.875
957.89203	6785.775
961.64774	6750.675
965.40086	6767.875
969.15137	6772.675
972.89929	6739.175
976.64461	6746.675
980.38733	6738.175
984.12747	6755.575
987.86502	6775.975
991.59999	6789.975
995.33237	6805.075
999.06217	6847.375
1002.78939	6864.475
1006.51404	6911.675
1010.23611	6981.275
1013.95561	7004.375
1017.67255	7021.475
1021.38692	7032.875
1025.09872	7014.375
1028.80796	6978.575
1032.51465	6939.575
1036.21877	6937.875
1039.92035	6945.875
1043.61937	6918.275
1047.31584	6912.375
1051.00976	6932.675
1054.70114	6956.175
1058.38998	6975.975
1062.07627	6967.275
1065.76003	6988.375
1069.44126	7041.175
1073.11995	7085.775
1076.79611	7110.275
1080.46974	7170.075
1084.14085	7169.575
1087.80943	7156.075
1091.47549	7164.675
1095.13903	7173.975
1098.80005	7141.075
1102.45857	7104.975
1106.11456	7106.375
1109.76805	7090.675
1113.41903	7125.275
1117.06751	7159.575
1120.71348	7247.875
1124.35696	7346.475
1127.99793	7467.875
1131.63641	7539.875
1135.2724	7550.375
1138.90589	7519.175
1142.5369	7420.875
1146.16542	7346.675
1149.79145	7258.875
1153.415	7140.875
1157.03607	7076.775
1160.65467	7065.475
1164.27079	7053.275
1167.88443	7109.975
1171.49561	7215.775
1175.10432	7354.375
1178.71056	7563.175
1182.31434	7767.275
1185.91565	7868.775
1189.51451	7943.075
1193.11091	7900.575
1196.70485	7853.775
1200.29634	7798.875
1203.88538	7737.975
1207.47197	7649.575
1211.05612	7558.975
1214.63782	7494.475
1218.21708	7419.075
1221.79391	7353.975
1225.36829	7294.775
1228.94024	7255.775
1232.50976	7262.775
1236.07685	7260.675
1239.6415	7253.175
1243.20374	7282.075
1246.76355	7301.975
1250.32093	7352.875
1253.8759	7366.475
1257.42845	7430.575
1260.97859	7494.075
1264.52631	7549.075
1268.07163	7593.275
1271.61453	7592.975
1275.15503	7611.175
1278.69312	7625.375
1282.22882	7598.975
1285.76211	7635.775
1289.29301	7631.675
1292.82151	7685.075
1296.34761	7749.975
1299.87133	7857.775
1303.39266	7986.175
1306.9116	8162.875
1310.42815	8342.075
1313.94233	8421.075
1317.45412	8385.175
1320.96354	8298.875
1324.47058	8192.475
1327.97525	8046.375
1331.47754	7953.975
1334.97747	7922.175
1338.47502	7939.175
1341.97022	8049.675
1345.46305	8180.875
1348.95352	8321.975
1352.44163	8520.375
1355.92738	8685.275
1359.41078	8956.175
1362.89183	9177.275
1366.37053	9093.175
1369.84688	8680.175
1373.32088	8205.275
1376.79254	7878.575
1380.26186	7659.475
1383.72883	7510.675
1387.19347	7409.775
1390.65578	7290.875
1394.11575	7171.675
1397.57339	7114.775
1401.0287	7040.775
1404.48168	7022.575
1407.93234	7023.075
1411.38068	7013.675
1414.82669	7010.075
1418.27039	6963.875
1421.71177	6934.375
1425.15083	6896.375
1428.58758	6874.975
1432.02203	6838.075
1435.45416	6853.975
1438.88399	6837.675
1442.31151	6853.975
1445.73673	6872.775
1449.15965	6884.375
1452.58027	6855.975
1455.9986	6848.475
1459.41463	6881.875
1462.82837	6884.575
1466.23982	6956.275
1469.64898	6994.975
1473.05586	7072.375
1476.46045	7121.875
1479.86276	7144.175
1483.26279	7199.175
1486.66054	7207.375
1490.05602	7267.775
1493.44922	7400.175
1496.84016	7541.075
1500.22882	7777.575
1503.61521	8070.375
1506.99934	8370.875
1510.38121	8534.775
1513.76081	8488.875
1517.13816	8289.075
1520.51324	7995.775
1523.88607	7747.575
1527.25665	7577.675
1530.62498	7509.475
1533.99105	7467.175
1537.35488	7456.675
1540.71647	7442.875
1544.07581	7449.775
1547.4329	7436.975
1550.78776	7434.475
1554.14038	7398.475
1557.49077	7395.375
1560.83892	7383.275
1564.18484	7395.575
1567.52853	7441.075
1570.86999	7490.875
1574.20922	7556.175
1577.54624	7516.075
1580.88103	7450.175
1584.2136	7318.875
1587.54395	7266.475
1590.87208	7261.675
1594.19801	7319.175
1597.52172	7383.275
1600.84321	7452.675
1604.16251	7439.375
1607.47959	7396.775
1610.79447	7326.175
1614.10715	7198.275
1617.41763	7076.275
1620.7259	6992.475
1624.03199	6907.175
1627.33587	6865.475
1630.63757	6847.275
1633.93707	6876.375
1637.23439	6953.775
1640.52951	7090.775
1643.82246	7270.875
1647.11321	7485.275
1650.40179	7621.975
1653.68819	7568.275
1656.97241	7354.275
1660.25446	7097.075
1663.53433	6902.475
1666.81203	6778.075
1670.08756	6684.675
1673.36092	6633.575
1676.63211	6599.975
1679.90115	6596.475
1683.16801	6558.575
1686.43272	6511.475
1689.69527	6493.475
1692.95567	6503.275
1696.2139	6489.875
1699.46999	6460.975
1702.72392	6431.675
1705.97571	6433.975
1709.22535	6389.275
1712.47284	6351.375
1715.71819	6333.875
1718.96139	6274.475
1722.20246	6251.475
1725.44139	6216.775
1728.67818	6189.075
1731.91284	6147.475
1735.14537	6123.375
1738.37576	6105.575
1741.60403	6111.275
1744.83017	6076.275
1748.05418	6067.175
1751.27607	6042.075
1754.49584	6033.975
1757.71349	6038.575
1760.92903	6029.075
1764.14244	6025.175
1767.35375	6027.175
1770.56294	6002.775
1773.77002	6009.175
1776.97499	6004.675
1780.17785	5994.475
1783.37861	6007.375
1786.57727	5975.175
1789.77382	5977.375
1792.96828	5978.575
1796.16064	5957.175
1799.3509	5945.175
1802.53907	5943.975
1805.72514	5933.875
1808.90913	5929.175
1812.09102	5886.475
1815.27083	5889.475
1818.44856	5905.075
1821.6242	5892.075
1824.79776	5867.475
1827.96924	5852.675
1831.13864	5848.775
1834.30597	5845.475
1837.47122	5841.875
1840.6344	5828.175
1843.7955	5811.075
1846.95454	5826.275
1850.11151	5816.775
1853.26642	5825.675
1856.41926	5801.575
1859.57004	5802.675
1862.71876	5819.975
1865.86542	5801.775
1869.01003	5796.375
1872.15258	5791.375
1875.29308	5764.975
1878.43152	5778.475
1881.56792	5761.175
1884.70227	5737.275
1887.83457	5742.875
1890.96482	5739.975
1894.09304	5741.075
1897.21921	5726.575
1900.34335	5710.075
1903.46544	5708.575
1906.58551	5718.975
1909.70353	5702.675
1912.81953	5680.375
1915.93349	5677.075
1919.04543	5670.375
1922.15534	5670.875
1925.26322	5655.675
1928.36908	5666.175
1931.47292	5672.375
1934.57473	5647.575
1937.67453	5607.675
1940.77232	5596.275
1943.86808	5582.575
1946.96184	5574.175
1950.05358	5577.275
1953.14331	5540.675
1956.23103	5523.575
1959.31675	5534.575
1962.40046	5502.075
1965.48217	5497.375
1968.56188	5468.075
1971.63959	5454.775
1974.7153	5433.275
1977.78901	5400.475
1980.86073	5388.075
1983.93046	5395.975
1986.99819	5377.275
1990.06394	5351.075
1993.1277	5351.575
1996.18947	5333.075
1999.24925	5313.575
2002.30706	5295.675
2005.36288	5291.975
2008.41672	5287.975
2011.46859	5267.775
2014.51848	5245.475
2017.56639	5233.175
2020.61233	5218.575
2023.6563	5216.075
2026.6983	5170.775
2029.73833	5173.475
2032.7764	5159.975
2035.8125	5144.675
2038.84664	5134.075
2041.87881	5141.875
2044.90903	5135.475
2047.93729	5123.575
2050.96359	5114.875
2053.98794	5102.075
2057.01034	5093.475
2060.03078	5084.875
2063.04927	5087.875
2066.06582	5072.475
2069.08042	5089.375
2072.09307	5087.975
2075.10378	5069.675
2078.11255	5071.075
2081.11938	5062.175
2084.12426	5067.475
2087.12722	5078.475
2090.12824	5056.275
2093.12732	5062.075
2096.12447	5061.575
2099.11969	5057.275
2102.11299	5060.075
2105.10435	5071.475
2108.09379	5074.275
2111.08131	5078.975
2114.0669	5065.875
2117.05057	5070.375
2120.03233	5075.375
2123.01216	5081.375
2125.99008	5072.575
2128.96609	5092.275
2131.94018	5095.475
2134.91236	5094.075
2137.88263	5088.075
2140.851	5108.175
2143.81746	5086.275
2146.78201	5107.275
2149.74466	5096.975
2152.7054	5123.175
2155.66425	5095.875
2158.6212	5097.375
2161.57625	5098.075
2164.52941	5082.075
2167.48067	5091.075
2170.43004	5085.675
2173.37752	5082.875
2176.32311	5103.075
2179.26681	5077.675
2182.20863	5075.075
2185.14856	5088.375
2188.08661	5076.175
2191.02278	5087.575
2193.95707	5077.975
2196.88948	5071.975
2199.82001	5068.375
2202.74867	5066.275
2205.67545	5055.275
2208.60037	5027.475
2211.52341	5036.075
2214.44458	5025.875
2217.36388	5009.675
2220.28132	5009.575
2223.1969	4976.175
2226.11061	4996.075
2229.02246	4970.175
2231.93245	4952.375
2234.84058	4957.075
2237.74686	4938.275
2240.65128	4962.475
2243.55385	4940.075
2246.45456	4946.175
2249.35343	4925.575
2252.25044	4917.375
2255.14561	4914.575
2258.03893	4899.775
2260.93041	4900.475
2263.82004	4876.075
2266.70783	4875.875
2269.59378	4866.975
2272.4779	4854.775
2275.36017	4851.975
2278.24061	4824.075
2281.11922	4837.475
2283.996	4810.175
2286.87094	4817.975
2289.74405	4793.075
2292.61534	4781.175
2295.4848	4784.875
2298.35243	4792.675
2301.21824	4782.675
2304.08223	4781.075
2306.94439	4764.275
2309.80474	4766.175
2312.66327	4763.875
2315.51999	4735.475
2318.37489	4745.775
2321.22797	4736.175
2324.07925	4735.975
2326.92871	4720.675
2329.77637	4712.375
2332.62222	4701.075
2335.46626	4686.075
2338.3085	4668.675
2341.14893	4664.575
2343.98756	4666.575
2346.8244	4660.375
2349.65943	4670.275
2352.49267	4663.875
2355.32411	4672.675
2358.15376	4641.775
2360.98161	4655.675
2363.80768	4646.975
2366.63195	4652.175
2369.45444	4650.775
2372.27514	4629.075
2375.09405	4615.775
2377.91118	4608.175
2380.72652	4613.975
2383.54009	4601.775
2386.35187	4595.375
2389.16188	4580.175
2391.97011	4566.875
2394.77657	4553.375
2397.58125	4553.575
2400.38416	4536.375
2403.18529	4532.475
2405.98466	4530.775
2408.78226	4528.075
2411.57809	4529.775
2414.37216	4514.975
2417.16446	4503.975
2419.955	4507.775
2422.74378	4498.575
2425.5308	4491.675
2428.31606	4468.675
2431.09956	4468.375
2433.88131	4477.375
2436.6613	4478.875
2439.43954	4477.275
2442.21603	4481.275
2444.99077	4466.175
2447.76377	4465.275
2450.53501	4452.475
2453.30451	4441.075
2456.07226	4441.675
2458.83827	4421.875
2461.60254	4432.175
2464.36507	4418.975
2467.12586	4409.275
2469.88492	4418.175
2472.64224	4416.575
2475.39782	4412.775
2478.15167	4385.875
2480.90379	4409.975
2483.65417	4395.075
2486.40283	4397.175
2489.14976	4393.175
2491.89497	4389.575
2494.63845	4392.875
2497.3802	4386.175
2500.12024	4377.575
2502.85855	4370.975
2505.59514	4368.075
2508.33002	4361.975
2511.06318	4355.275
2513.79462	4334.275
2516.52435	4318.575
2519.25237	4336.375
2521.97867	4318.975
2524.70327	4316.575
2527.42616	4300.075
2530.14734	4311.675
2532.86681	4299.075
2535.58458	4292.175
2538.30065	4280.675
2541.01501	4300.175
2543.72768	4282.375
2546.43864	4261.275
2549.14791	4244.375
2551.85548	4237.875
2554.56136	4254.175
2557.26554	4247.675
2559.96803	4227.975
2562.66883	4207.775
2565.36794	4218.875
2568.06536	4191.475
2570.7611	4206.375
2573.45514	4187.575
2576.14751	4192.875
2578.83819	4165.875
2581.52719	4173.075
2584.21451	4151.275
2586.90015	4151.575
2589.58411	4129.675
2592.2664	4138.275
2594.94701	4120.075
2597.62594	4118.675
2600.30321	4110.575
2602.9788	4107.475
2605.65273	4091.475
2608.32498	4102.775
2610.99557	4088.475
2613.66449	4070.375
2616.33175	4072.975
2618.99734	4052.375
2621.66128	4073.075
2624.32355	4055.675
2626.98416	4042.475
2629.64311	4029.575
2632.30041	4029.575
2634.95605	4024.175
2637.61004	4023.475
2640.26238	4024.775
2642.91306	4002.775
2645.56209	3997.075
2648.20948	3988.675
2650.85521	4002.975
2653.4993	3999.075
2656.14175	4002.775
2658.78255	4001.275
2661.42171	3995.075
2664.05923	3992.675
2666.6951	3995.675
2669.32934	3989.375
2671.96194	3980.175
2674.59291	4001.375
2677.22224	3984.275
2679.84993	3980.875
2682.476	3989.575
2685.10043	3978.075
2687.72324	3970.175
2690.34441	3977.175
2692.96396	3974.075
2695.58188	3965.575
2698.19818	3962.175
2700.81285	3971.575
2703.4259	3953.475
2706.03733	3970.175
2708.64714	3953.275
2711.25533	3973.075
2713.86191	3976.675
2716.46687	3957.475
2719.07021	3963.175
2721.67194	3970.075
2724.27206	3950.675
2726.87057	3950.175
2729.46747	3971.075
2732.06276	3966.675
2734.65644	3963.175
2737.24852	3966.975
2739.83899	3952.775
2742.42786	3947.175
2745.01513	3931.575
2747.60079	3943.875
2750.18486	3926.075
2752.76733	3914.475
2755.3482	3913.075
2757.92747	3916.675
2760.50515	3905.275
2763.08123	3897.075
2765.65573	3874.775
2768.22863	3886.675
2770.79994	3884.975
2773.36967	3888.175
2775.9378	3862.275
2778.50435	3858.875
2781.06932	3859.075
2783.6327	3855.975
2786.1945	3851.275
2788.75471	3841.975
2791.31335	3820.875
2793.87041	3839.475
2796.42589	3821.475
2798.97979	3810.275
2801.53212	3801.575
2804.08288	3795.575
2806.63206	3774.175
2809.17967	3764.275
2811.72571	3753.675
2814.27018	3753.075
2816.81308	3746.175
2819.35442	3749.675
2821.89419	3734.275
2824.43239	3736.875
2826.96904	3707.275
2829.50412	3735.275
2832.03763	3709.675
2834.56959	3708.775
2837.1	3702.775
2839.62884	3684.875
2842.15613	3692.975
2844.68186	3701.875
2847.20604	3688.175
2849.72867	3691.775
2852.24974	3673.875
2854.76927	3670.275
2857.28724	3662.375
2859.80367	3668.675
2862.31855	3669.375
2864.83189	3651.475
2867.34368	3639.775
2869.85393	3638.875
2872.36264	3634.075
2874.8698	3639.675
2877.37543	3644.275
2879.87952	3645.275
2882.38207	3647.775
2884.88308	3641.675
2887.38256	3639.475
2889.88051	3616.675
2892.37692	3627.575
2894.8718	3629.275
2897.36515	3637.575
2899.85698	3631.475
2902.34727	3628.475
2904.83604	3637.275
2907.32328	3650.075
2909.809	3652.175
2912.29319	3646.475
2914.77587	3637.575
2917.25702	3626.375
2919.73665	3630.575
2922.21476	3638.075
2924.69136	3625.875
2927.16644	3633.575
2929.64	3631.375
2932.11205	3613.875
2934.58258	3616.975
2937.05161	3636.175
2939.51912	3623.175
2941.98513	3627.375
2944.44962	3616.475
2946.91261	3612.275
2949.37409	3592.475
2951.83407	3605.375
2954.29254	3623.175
2956.74951	3603.275
2959.20498	3615.775
2961.65895	3613.375
2964.11142	3604.975
2966.56239	3606.175
2969.01186	3596.875
2971.45984	3606.775
2973.90632	3604.675
2976.35131	3594.275
2978.7948	3603.875
2981.23681	3595.975
2983.67732	3590.275
2986.11635	3580.375
2988.55388	3562.375
2990.98993	3566.775
2993.4245	3560.175
2995.85758	3542.675
2998.28917	3552.275
3000.71928	3551.075
3003.14791	3527.775
3005.57506	3535.975
3008.00073	3517.175
3010.42493	3522.575
3012.84764	3522.075
3015.26888	3523.875
3017.68865	3502.375
3020.10694	3499.975
3022.52376	3495.875
3024.9391	3512.175
3027.35298	3499.175
3029.76539	3510.975
3032.17632	3499.875
3034.5858	3493.075
3036.9938	3494.075
3039.40034	3491.675
3041.80542	3487.975
3044.20903	3487.375
3046.61118	3470.475
3049.01187	3491.975
3051.4111	3469.875
3053.80888	3480.575
3056.20519	3461.875
3058.60005	3471.275
3060.99345	3466.275
3063.3854	3448.675
3065.7759	3452.575
3068.16494	3437.075
3070.55254	3435.275
3072.93868	3431.975
3075.32338	3434.975
3077.70662	3421.875
3080.08842	3415.775
3082.46878	3432.675
3084.84769	3432.475
3087.22515	3428.775
3089.60118	3450.275
3091.97576	3441.075
3094.3489	3452.675
3096.72061	3457.875
3099.09087	3466.575
3101.4597	3464.875
3103.82709	3462.975
3106.19305	3461.575
3108.55757	3464.375
3110.92066	3455.775
3113.28232	3480.975
3115.64255	3453.075
3118.00134	3467.575
3120.35871	3476.275
3122.71466	3469.575
3125.06917	3451.875
3127.42226	3441.475
3129.77393	3463.075
3132.12417	3465.375
3134.47299	3455.175
3136.82039	3457.875
3139.16636	3472.175
3141.51092	3466.075
3143.85406	3468.575
3146.19579	3481.475
3148.53609	3484.975
3150.87499	3496.875
3153.21246	3501.175
3155.54853	3511.575
3157.88318	3521.875
3160.21642	3507.375
3162.54826	3518.475
3164.87868	3520.175
3167.2077	3532.575
3169.5353	3526.875
3171.86151	3546.875
3174.18631	3556.775
3176.5097	3550.275
3178.83169	3548.975
3181.15228	3560.175
3183.47147	3556.875
3185.78926	3532.075
3188.10565	3529.375
3190.42065	3551.775
3192.73424	3548.175
3195.04645	3564.975
3197.35725	3542.875
3199.66667	3549.975
3201.97469	3551.475
3204.28132	3548.475
3206.58656	3579.475
3208.8904	3565.675
3211.19287	3583.075
3213.49394	3588.975
3215.79363	3578.775
3218.09193	3600.675
3220.38884	3587.375
3222.68438	3614.575
3224.97853	3600.975
3227.2713	3602.575
3229.56269	3589.775
3231.8527	3588.275
3234.14133	3590.075
3236.42858	3583.275
3238.71446	3579.275
