Data from AgNPs_UA_5uM_CRN_0uM_R6G_10uM_Q_RamanShift__24__11-17-15-319.txt Node

Date: Mon Jul 18 11:17:15 BST 2022
User: TCL
Spectrometer: QEP01345
Trigger mode: 4
Integration Time (sec): 7.000000E0
Scans to average: 10
Electric dark correction enabled: true
Nonlinearity correction enabled: false
Boxcar width: 0
XAxis mode: Raman Shifts
Number of Pixels in Spectrum: 1044
>>>>>Begin Spectral Data<<<<<
46.04893	-1.075
50.45542	-2.975
54.85868	-3.375
59.25871	-1.675
63.6555	160.525
68.04907	165.825
72.43941	169.125
76.82654	177.725
81.21044	180.625
85.59113	188.125
89.96862	190.225
94.34289	194.425
98.71396	203.325
103.08183	211.625
107.4465	218.125
111.80798	223.525
116.16626	228.625
120.52136	237.625
124.87327	248.425
129.222	263.025
133.56755	284.625
137.90993	316.025
142.24913	343.125
146.58517	387.725
150.91804	456.625
155.24774	546.325
159.57429	679.425
163.89768	886.525
168.21792	1178.325
172.53501	1618.625
176.84895	2253.325
181.15975	3158.325
185.46741	4436.225
189.77193	6112.825
194.07331	8130.625
198.37157	10454.625
202.6667	12908.025
206.9587	15257.825
211.24758	17654.825
215.53334	20055.025
219.81599	22595.725
224.09553	25502.725
228.37195	28794.525
232.64527	32359.325
236.91549	36055.925
241.18261	39595.225
245.44663	42829.425
249.70755	45645.125
253.96539	48120.325
258.22014	50154.825
262.4718	51925.225
266.72039	53147.825
270.96589	53689.425
275.20832	53674.725
279.44768	53243.925
283.68397	52570.925
287.91719	52133.325
292.14735	51867.025
296.37445	51997.825
300.59849	52578.125
304.81948	53234.825
309.03742	53763.025
313.25231	53532.325
317.46415	52453.825
321.67296	50945.025
325.87872	49684.025
330.08145	49306.925
334.28114	49560.125
338.47781	50187.425
342.67145	51070.325
346.86207	52218.825
351.04966	53693.425
355.23424	55313.225
359.4158	56834.325
363.59435	58027.825
367.76989	58738.225
371.94243	59217.625
376.11196	59560.425
380.27849	59989.125
384.44203	60314.525
388.60257	60515.625
392.76012	60888.425
396.91468	61675.825
401.06626	62783.625
405.21485	63567.725
409.36047	63279.525
413.50311	62276.625
417.64277	61344.025
421.77947	61044.325
425.9132	61217.225
430.04396	61650.725
434.17176	62399.625
438.2966	63598.425
442.41849	65326.425
446.53742	67796.825
450.6534	70373.925
454.76644	72342.725
458.87653	73007.225
462.98368	72268.725
467.08789	70859.625
471.18916	68986.225
475.2875	66952.125
479.38291	65308.125
483.4754	64183.325
487.56496	63177.025
491.6516	62274.125
495.73531	61578.225
499.81612	61416.125
503.89401	61767.025
507.96899	61900.025
512.04106	61978.525
516.11023	62147.525
520.1765	62433.425
524.23987	62533.025
528.30034	62367.225
532.35792	61970.525
536.41261	61311.025
540.46441	60581.425
544.51333	60458.925
548.55936	61029.525
552.60252	62112.525
556.64279	63182.125
560.6802	63691.425
564.71473	64057.125
568.7464	65114.025
572.7752	66109.325
576.80114	66342.225
580.82422	66724.125
584.84444	67986.025
588.86181	69865.725
592.87633	72139.725
596.888	73658.225
600.89682	74651.425
604.9028	79259.625
608.90594	89803.425
612.90624	98501.225
616.90371	90486.825
620.89834	74910.125
624.89015	69455.825
628.87913	69136.725
632.86528	67875.225
636.84862	65935.625
640.82913	64126.125
644.80683	62059.425
648.78172	60810.325
652.75379	60910.225
656.72306	62322.725
660.68952	64011.325
664.65319	63782.725
668.61405	62699.825
672.57211	62340.825
676.52738	62206.925
680.47986	61901.525
684.42955	61599.925
688.37646	61772.125
692.32058	62244.625
696.26192	62895.625
700.20048	63555.825
704.13626	63644.925
708.06928	62868.025
711.99952	62253.825
715.927	62332.325
719.85171	62468.925
723.77365	62136.225
727.69284	61501.825
731.60928	61181.125
735.52295	61388.425
739.43388	61875.125
743.34206	62399.825
747.24749	62829.025
751.15017	63369.125
755.05012	64412.625
758.94733	66488.425
762.8418	70492.725
766.73354	76439.025
770.62254	82190.625
774.50882	83777.025
778.39237	79952.125
782.27321	73597.625
786.15132	68042.125
790.02671	64897.925
793.89938	63505.225
797.76935	63150.025
801.6366	62941.625
805.50115	62655.525
809.36299	62259.625
813.22213	61792.925
817.07857	61618.225
820.93231	61506.625
824.78336	61687.025
828.63172	61878.325
832.47738	62024.925
836.32036	62409.025
840.16066	62951.725
843.99827	63392.225
847.8332	63114.125
851.66546	62423.225
855.49504	62306.025
859.32195	62181.725
863.1462	61790.325
866.96777	61459.925
870.78668	61251.425
874.60293	61247.925
878.41652	61397.725
882.22745	61826.125
886.03573	62092.525
889.84136	62048.425
893.64433	61693.125
897.44466	61356.325
901.24235	61209.125
905.0374	61055.925
908.8298	61005.825
912.61957	61146.025
916.40671	61832.325
920.19121	62979.225
923.97308	64309.725
927.75233	65352.425
931.52895	65585.625
935.30295	64750.525
939.07433	63260.225
942.84309	62399.125
946.60924	62074.525
950.37278	61636.525
954.13371	61020.325
957.89203	60454.525
961.64774	60087.225
965.40086	59895.125
969.15137	59711.525
972.89929	59605.725
976.64461	59682.625
980.38733	60071.425
984.12747	60592.925
987.86502	61427.525
991.59999	62839.425
995.33237	65314.125
999.06217	69398.825
1002.78939	73443.825
1006.51404	74936.525
1010.23611	74982.925
1013.95561	75499.225
1017.67255	76218.225
1021.38692	76028.025
1025.09872	76298.925
1028.80796	78971.125
1032.51465	83751.425
1036.21877	87418.325
1039.92035	86918.825
1043.61937	83704.025
1047.31584	78725.225
1051.00976	73878.625
1054.70114	71410.925
1058.38998	70750.625
1062.07627	70607.625
1065.76003	70340.925
1069.44126	70191.225
1073.11995	70646.925
1076.79611	71276.325
1080.46974	71952.725
1084.14085	72862.925
1087.80943	73806.825
1091.47549	73802.125
1095.13903	72620.925
1098.80005	71145.825
1102.45857	70063.025
1106.11456	69935.925
1109.76805	70491.225
1113.41903	71409.925
1117.06751	72398.825
1120.71348	73335.225
1124.35696	74191.025
1127.99793	74862.225
1131.63641	74786.625
1135.2724	73844.825
1138.90589	72852.425
1142.5369	72084.325
1146.16542	71581.725
1149.79145	71544.525
1153.415	72093.425
1157.03607	72919.925
1160.65467	74362.125
1164.27079	76910.725
1167.88443	80924.025
1171.49561	86576.325
1175.10432	94667.925
1178.71056	104816.525
1182.31434	114175.525
1185.91565	119342.425
1189.51451	118785.125
1193.11091	112879.525
1196.70485	105390.125
1200.29634	99313.625
1203.88538	94860.925
1207.47197	91414.925
1211.05612	88817.225
1214.63782	88100.625
1218.21708	88998.125
1221.79391	90820.425
1225.36829	91882.625
1228.94024	90949.825
1232.50976	88351.025
1236.07685	86349.325
1239.6415	85683.825
1243.20374	85862.725
1246.76355	86607.225
1250.32093	88361.125
1253.8759	91050.725
1257.42845	94306.825
1260.97859	96986.225
1264.52631	99230.625
1268.07163	101725.325
1271.61453	104969.125
1275.15503	108961.425
1278.69312	113327.625
1282.22882	116721.625
1285.76211	118825.625
1289.29301	120315.725
1292.82151	122113.425
1296.34761	125656.725
1299.87133	131648.225
1303.39266	140555.725
1306.9116	152481.125
1310.42815	165035.125
1313.94233	172827.025
1317.45412	172417.325
1320.96354	166123.725
1324.47058	158462.525
1327.97525	151593.425
1331.47754	147510.025
1334.97747	146166.525
1338.47502	146865.125
1341.97022	148416.325
1345.46305	149289.225
1348.95352	149559.525
1352.44163	150602.925
1355.92738	155342.325
1359.41078	164907.825
1362.89183	172648.325
1366.37053	167852.625
1369.84688	150852.225
1373.32088	132849.425
1376.79254	120946.925
1380.26186	115124.225
1383.72883	112999.525
1387.19347	111655.825
1390.65578	109577.025
1394.11575	108571.225
1397.57339	109396.325
1401.0287	111953.025
1404.48168	114573.225
1407.93234	116974.325
1411.38068	118800.725
1414.82669	118649.925
1418.27039	115791.525
1421.71177	111664.525
1425.15083	108413.825
1428.58758	107159.025
1432.02203	108047.925
1435.45416	110076.525
1438.88399	111712.725
1442.31151	112517.725
1445.73673	113004.725
1449.15965	113306.425
1452.58027	112756.525
1455.9986	111521.525
1459.41463	111145.725
1462.82837	112319.025
1466.23982	114665.825
1469.64898	117300.225
1473.05586	119231.125
1476.46045	120682.125
1479.86276	121846.125
1483.26279	122308.125
1486.66054	122864.925
1490.05602	123780.925
1493.44922	124837.325
1496.84016	125862.925
1500.22882	127770.425
1503.61521	130965.325
1506.99934	135372.925
1510.38121	139678.525
1513.76081	140685.125
1517.13816	137249.825
1520.51324	131231.725
1523.88607	125349.725
1527.25665	121445.625
1530.62498	119149.825
1533.99105	117598.325
1537.35488	116668.825
1540.71647	115937.725
1544.07581	115032.725
1547.4329	113339.125
1550.78776	111314.525
1554.14038	109438.125
1557.49077	108270.925
1560.83892	107602.625
1564.18484	107257.525
1567.52853	107051.425
1570.86999	106925.525
1574.20922	107228.125
1577.54624	107431.125
1580.88103	106693.625
1584.2136	106590.625
1587.54395	109426.325
1590.87208	116458.225
1594.19801	127586.425
1597.52172	139915.625
1600.84321	145956.225
1604.16251	141454.525
1607.47959	129827.225
1610.79447	116282.325
1614.10715	104556.925
1617.41763	95904.825
1620.7259	90555.925
1624.03199	88232.325
1627.33587	88874.425
1630.63757	92538.225
1633.93707	98879.725
1637.23439	107343.525
1640.52951	117088.925
1643.82246	126739.625
1647.11321	132664.725
1650.40179	131427.525
1653.68819	121622.525
1656.97241	106568.225
1660.25446	92480.225
1663.53433	82600.725
1666.81203	76258.025
1670.08756	72232.325
1673.36092	69556.325
1676.63211	67796.525
1679.90115	66472.325
1683.16801	65392.325
1686.43272	64688.525
1689.69527	64102.025
1692.95567	63770.925
1696.2139	63398.725
1699.46999	63278.825
1702.72392	63177.425
1705.97571	63137.425
1709.22535	62998.625
1712.47284	63063.425
1715.71819	63101.525
1718.96139	62980.025
1722.20246	62678.125
1725.44139	62337.525
1728.67818	61982.525
1731.91284	61727.925
1735.14537	61436.925
1738.37576	61249.125
1741.60403	61063.825
1744.83017	60841.725
1748.05418	60769.425
1751.27607	60698.325
1754.49584	60588.025
1757.71349	60556.925
1760.92903	60465.525
1764.14244	60440.725
1767.35375	60407.625
1770.56294	60250.125
1773.77002	60293.525
1776.97499	60296.325
1780.17785	60191.625
1783.37861	60082.725
1786.57727	60022.725
1789.77382	60067.825
1792.96828	59966.025
1796.16064	59932.225
1799.3509	59985.525
1802.53907	59833.525
1805.72514	59784.325
1808.90913	59674.025
1812.09102	59596.925
1815.27083	59457.325
1818.44856	59395.625
1821.6242	59334.925
1824.79776	59269.625
1827.96924	59216.325
1831.13864	59066.325
1834.30597	59106.025
1837.47122	59056.325
1840.6344	59075.425
1843.7955	59165.925
1846.95454	59126.225
1850.11151	59029.825
1853.26642	58999.325
1856.41926	58941.125
1859.57004	59081.525
1862.71876	59117.325
1865.86542	59188.825
1869.01003	59204.325
1872.15258	59295.425
1875.29308	59216.525
1878.43152	59166.625
1881.56792	59202.125
1884.70227	59227.125
1887.83457	59132.325
1890.96482	59110.525
1894.09304	59170.125
1897.21921	59170.525
1900.34335	59190.625
1903.46544	59106.025
1906.58551	59146.025
1909.70353	59070.225
1912.81953	59112.325
1915.93349	58982.425
1919.04543	58971.925
1922.15534	58984.125
1925.26322	58886.825
1928.36908	58810.625
1931.47292	58766.725
1934.57473	58661.025
1937.67453	58533.825
1940.77232	58476.225
1943.86808	58216.925
1946.96184	58100.925
1950.05358	57933.125
1953.14331	57739.525
1956.23103	57527.825
1959.31675	57349.125
1962.40046	57298.625
1965.48217	57163.325
1968.56188	56990.125
1971.63959	56931.125
1974.7153	56741.025
1977.78901	56589.125
1980.86073	56387.525
1983.93046	56235.525
1986.99819	56061.225
1990.06394	55923.725
1993.1277	55750.025
1996.18947	55596.225
1999.24925	55534.625
2002.30706	55401.625
2005.36288	55349.825
2008.41672	55280.925
2011.46859	55159.125
2014.51848	54955.825
2017.56639	54948.125
2020.61233	54880.325
2023.6563	54810.325
2026.6983	54602.725
2029.73833	54534.725
2032.7764	54457.625
2035.8125	54415.825
2038.84664	54350.525
2041.87881	54380.725
2044.90903	54255.225
2047.93729	54174.425
2050.96359	54230.925
2053.98794	54197.725
2057.01034	54180.925
2060.03078	54144.825
2063.04927	54091.425
2066.06582	54027.625
2069.08042	53914.425
2072.09307	53907.225
2075.10378	53883.325
2078.11255	53767.625
2081.11938	53807.925
2084.12426	53683.125
2087.12722	53535.525
2090.12824	53528.925
2093.12732	53525.525
2096.12447	53640.625
2099.11969	53661.225
2102.11299	53696.925
2105.10435	53722.025
2108.09379	53738.925
2111.08131	53733.125
2114.0669	53763.425
2117.05057	53745.825
2120.03233	53905.025
2123.01216	53905.825
2125.99008	53924.925
2128.96609	54042.925
2131.94018	54075.725
2134.91236	54071.225
2137.88263	54163.925
2140.851	54201.525
2143.81746	54229.425
2146.78201	54292.125
2149.74466	54388.125
2152.7054	54453.425
2155.66425	54364.325
2158.6212	54408.425
2161.57625	54330.925
2164.52941	54310.025
2167.48067	54333.225
2170.43004	54390.125
2173.37752	54365.725
2176.32311	54255.125
2179.26681	54337.025
2182.20863	54429.525
2185.14856	54514.625
2188.08661	54569.125
2191.02278	54639.925
2193.95707	54675.625
2196.88948	54731.025
2199.82001	54787.325
2202.74867	54765.325
2205.67545	54829.025
2208.60037	54782.825
2211.52341	54776.025
2214.44458	54726.525
2217.36388	54725.725
2220.28132	54746.525
2223.1969	54685.525
2226.11061	54598.925
2229.02246	54551.625
2231.93245	54438.825
2234.84058	54332.425
2237.74686	54175.425
2240.65128	54051.925
2243.55385	53972.225
2246.45456	53962.725
2249.35343	53875.125
2252.25044	53847.425
2255.14561	53785.825
2258.03893	53807.125
2260.93041	53676.325
2263.82004	53563.925
2266.70783	53433.825
2269.59378	53340.025
2272.4779	53330.825
2275.36017	53140.925
2278.24061	52948.725
2281.11922	52975.825
2283.996	52871.325
2286.87094	52903.925
2289.74405	52850.925
2292.61534	52827.725
2295.4848	52832.025
2298.35243	52896.625
2301.21824	52970.925
2304.08223	53032.225
2306.94439	53134.325
2309.80474	53230.625
2312.66327	53415.025
2315.51999	53461.925
2318.37489	53613.025
2321.22797	53579.725
2324.07925	53501.525
2326.92871	53393.125
2329.77637	53507.025
2332.62222	53532.225
2335.46626	53573.925
2338.3085	53703.525
2341.14893	53854.225
2343.98756	53996.025
2346.8244	53991.025
2349.65943	54236.525
2352.49267	54173.625
2355.32411	54188.925
2358.15376	54134.825
2360.98161	53983.025
2363.80768	53919.625
2366.63195	53865.725
2369.45444	53660.225
2372.27514	53494.825
2375.09405	53392.525
2377.91118	53245.525
2380.72652	53020.125
2383.54009	52889.625
2386.35187	52869.825
2389.16188	52833.925
2391.97011	52846.525
2394.77657	52717.925
2397.58125	52703.325
2400.38416	52578.925
2403.18529	52454.025
2405.98466	52469.925
2408.78226	52312.025
2411.57809	52190.525
2414.37216	52043.325
2417.16446	51932.125
2419.955	51768.525
2422.74378	51800.525
2425.5308	51759.025
2428.31606	51672.525
2431.09956	51736.625
2433.88131	51679.225
2436.6613	51740.925
2439.43954	51808.525
2442.21603	51777.325
2444.99077	51762.225
2447.76377	51732.825
2450.53501	51688.125
2453.30451	51677.825
2456.07226	51634.225
2458.83827	51538.725
2461.60254	51517.025
2464.36507	51622.225
2467.12586	51659.525
2469.88492	51701.325
2472.64224	51669.025
2475.39782	51653.525
2478.15167	51770.625
2480.90379	51951.025
2483.65417	52104.125
2486.40283	52211.225
2489.14976	52333.925
2491.89497	52368.325
2494.63845	52432.325
2497.3802	52353.425
2500.12024	52376.925
2502.85855	52396.025
2505.59514	52367.025
2508.33002	52314.325
2511.06318	52203.725
2513.79462	52277.225
2516.52435	52186.925
2519.25237	52174.425
2521.97867	52101.725
2524.70327	52134.925
2527.42616	52126.325
2530.14734	52172.425
2532.86681	52079.925
2535.58458	52167.025
2538.30065	52231.625
2541.01501	52286.725
2543.72768	52271.225
2546.43864	52322.525
2549.14791	52214.325
2551.85548	52298.425
2554.56136	52183.325
2557.26554	52153.625
2559.96803	52031.425
2562.66883	52041.925
2565.36794	52018.725
2568.06536	51960.625
2570.7611	51936.325
2573.45514	51892.725
2576.14751	51942.925
2578.83819	51899.425
2581.52719	52022.725
2584.21451	52059.825
2586.90015	52079.725
2589.58411	52075.325
2592.2664	52142.225
2594.94701	52208.025
2597.62594	52267.225
2600.30321	52188.825
2602.9788	52266.925
2605.65273	52118.125
2608.32498	52118.225
2610.99557	52169.125
2613.66449	52300.025
2616.33175	52340.525
2618.99734	52438.225
2621.66128	52493.225
2624.32355	52568.325
2626.98416	52781.725
2629.64311	52862.725
2632.30041	52861.725
2634.95605	52869.625
2637.61004	52784.225
2640.26238	52716.225
2642.91306	52624.525
2645.56209	52443.625
2648.20948	52373.325
2650.85521	52241.325
2653.4993	52269.325
2656.14175	52149.425
2658.78255	52225.825
2661.42171	52347.325
2664.05923	52583.825
2666.6951	52575.825
2669.32934	52654.825
2671.96194	52655.625
2674.59291	52746.925
2677.22224	52673.625
2679.84993	52651.425
2682.476	52543.425
2685.10043	52496.725
2687.72324	52349.125
2690.34441	52345.525
2692.96396	52229.725
2695.58188	52237.625
2698.19818	52154.425
2700.81285	52193.025
2703.4259	52081.325
2706.03733	52190.525
2708.64714	52179.125
2711.25533	52170.325
2713.86191	52257.625
2716.46687	52432.625
2719.07021	52431.625
2721.67194	52394.025
2724.27206	52431.925
2726.87057	52389.925
2729.46747	52355.725
2732.06276	52446.825
2734.65644	52377.625
2737.24852	52455.925
2739.83899	52416.725
2742.42786	52469.025
2745.01513	52293.425
2747.60079	52221.825
2750.18486	52281.425
2752.76733	52413.925
2755.3482	52493.325
2757.92747	52519.425
2760.50515	52515.025
2763.08123	52446.025
2765.65573	52355.625
2768.22863	52372.925
2770.79994	52423.625
2773.36967	52549.325
2775.9378	52531.325
2778.50435	52483.325
2781.06932	52557.425
2783.6327	52626.125
2786.1945	52532.225
2788.75471	52494.925
2791.31335	52385.725
2793.87041	52221.225
2796.42589	52128.625
2798.97979	52172.025
2801.53212	52089.225
2804.08288	52060.725
2806.63206	51951.225
2809.17967	51970.625
2811.72571	51863.825
2814.27018	51831.525
2816.81308	51682.925
2819.35442	51588.125
2821.89419	51511.625
2824.43239	51581.925
2826.96904	51503.125
2829.50412	51555.325
2832.03763	51567.825
2834.56959	51588.725
2837.1	51539.625
2839.62884	51593.125
2842.15613	51511.325
2844.68186	51467.725
2847.20604	51294.725
2849.72867	51274.825
2852.24974	51255.525
2854.76927	51150.425
2857.28724	51131.925
2859.80367	51144.925
2862.31855	51129.825
2864.83189	51184.425
2867.34368	51183.625
2869.85393	51185.925
2872.36264	51018.425
2874.8698	50946.625
2877.37543	51012.725
2879.87952	51007.925
2882.38207	51008.825
2884.88308	51030.025
2887.38256	51027.425
2889.88051	51013.425
2892.37692	50994.125
2894.8718	51071.025
2897.36515	51253.425
2899.85698	51289.525
2902.34727	51384.325
2904.83604	51464.425
2907.32328	51659.525
2909.809	51747.725
2912.29319	51868.425
2914.77587	51830.125
2917.25702	51769.225
2919.73665	51679.625
2922.21476	51705.125
2924.69136	51601.925
2927.16644	51515.625
2929.64	51461.425
2932.11205	51374.725
2934.58258	51182.225
2937.05161	51126.625
2939.51912	51191.325
2941.98513	51183.725
2944.44962	51143.925
2946.91261	51029.125
2949.37409	51157.525
2951.83407	51043.625
2954.29254	51114.425
2956.74951	51150.325
2959.20498	51030.225
2961.65895	50980.925
2964.11142	51089.225
2966.56239	50947.625
2969.01186	51000.725
2971.45984	50806.825
2973.90632	50796.525
2976.35131	50616.325
2978.7948	50530.125
2981.23681	50343.325
2983.67732	50242.025
2986.11635	50141.325
2988.55388	50069.025
2990.98993	50014.225
2993.4245	49822.625
2995.85758	49728.725
2998.28917	49589.225
3000.71928	49576.125
3003.14791	49470.125
3005.57506	49336.825
3008.00073	49101.525
3010.42493	48994.525
3012.84764	48909.825
3015.26888	48912.925
3017.68865	48769.125
3020.10694	48715.325
3022.52376	48581.425
3024.9391	48518.225
3027.35298	48532.425
3029.76539	48497.725
3032.17632	48507.925
3034.5858	48411.825
3036.9938	48444.125
3039.40034	48451.825
3041.80542	48448.825
3044.20903	48320.425
3046.61118	48251.425
3049.01187	48077.325
3051.4111	48152.525
3053.80888	48019.325
3056.20519	47937.825
3058.60005	47723.325
3060.99345	47588.125
3063.3854	47543.325
3065.7759	47429.525
3068.16494	47209.125
3070.55254	47023.325
3072.93868	46931.725
3075.32338	46813.625
3077.70662	46775.625
3080.08842	46621.625
3082.46878	46638.525
3084.84769	46533.925
3087.22515	46603.525
3089.60118	46578.425
3091.97576	46548.625
3094.3489	46507.125
3096.72061	46432.025
3099.09087	46473.425
3101.4597	46359.725
3103.82709	46308.725
3106.19305	46219.125
3108.55757	46274.225
3110.92066	46152.025
3113.28232	46138.025
3115.64255	46091.425
