Data from AgNPs_UA_50uM_CRN_0uM_R6G_10uM_Q_RamanShift__26__12-41-31-786.txt Node

Date: Tue Jul 26 12:41:31 BST 2022
User: TCL
Spectrometer: QEP01345
Trigger mode: 4
Integration Time (sec): 7.000000E0
Scans to average: 10
Electric dark correction enabled: true
Nonlinearity correction enabled: false
Boxcar width: 0
XAxis mode: Raman Shifts
Number of Pixels in Spectrum: 1044
>>>>>Begin Spectral Data<<<<<
46.04893	0.9125
50.45542	0.6125
54.85868	-0.0875
59.25871	-1.5875
63.6555	79.9125
68.04907	85.9125
72.43941	87.0125
76.82654	96.0125
81.21044	95.4125
85.59113	103.8125
89.96862	104.4125
94.34289	109.6125
98.71396	115.5125
103.08183	121.4125
107.4465	117.0125
111.80798	124.8125
116.16626	124.7125
120.52136	130.7125
124.87327	126.8125
129.222	135.1125
133.56755	143.9125
137.90993	149.2125
142.24913	157.0125
146.58517	176.7125
150.91804	195.2125
155.24774	224.9125
159.57429	272.3125
163.89768	342.2125
168.21792	439.2125
172.53501	585.2125
176.84895	801.4125
181.15975	1120.1125
185.46741	1562.5125
189.77193	2140.7125
194.07331	2849.0125
198.37157	3664.1125
202.6667	4510.6125
206.9587	5386.5125
211.24758	6244.8125
215.53334	7145.8125
219.81599	8124.4125
224.09553	9232.1125
228.37195	10483.3125
232.64527	11841.7125
236.91549	13173.7125
241.18261	14433.9125
245.44663	15469.4125
249.70755	16315.7125
253.96539	17005.3125
258.22014	17632.6125
262.4718	18117.5125
266.72039	18484.6125
270.96589	18565.0125
275.20832	18452.9125
279.44768	18141.0125
283.68397	17855.1125
287.91719	17587.7125
292.14735	17591.2125
296.37445	17897.1125
300.59849	18395.1125
304.81948	19043.3125
309.03742	19522.6125
313.25231	19507.5125
317.46415	18904.3125
321.67296	17933.4125
325.87872	17093.5125
330.08145	16743.6125
334.28114	16781.4125
338.47781	17052.7125
342.67145	17494.1125
346.86207	18084.3125
351.04966	18943.5125
355.23424	19901.2125
359.4158	20659.1125
363.59435	21101.0125
367.76989	21325.4125
371.94243	21348.7125
376.11196	21330.9125
380.27849	21288.4125
384.44203	21252.6125
388.60257	21164.8125
392.76012	21179.8125
396.91468	21388.7125
401.06626	21816.4125
405.21485	22144.7125
409.36047	21919.4125
413.50311	21121.9125
417.64277	20344.2125
421.77947	19886.7125
425.9132	19695.0125
430.04396	19703.1125
434.17176	19917.8125
438.2966	20183.9125
442.41849	20731.8125
446.53742	21373.2125
450.6534	21960.2125
454.76644	22482.5125
458.87653	22608.4125
462.98368	22430.3125
467.08789	22083.7125
471.18916	21565.6125
475.2875	20969.2125
479.38291	20475.0125
483.4754	20167.0125
487.56496	19929.3125
491.6516	19752.8125
495.73531	19658.6125
499.81612	19705.7125
503.89401	19879.8125
507.96899	20042.2125
512.04106	20202.3125
516.11023	20450.0125
520.1765	20650.8125
524.23987	20695.0125
528.30034	20579.8125
532.35792	20411.8125
536.41261	20174.0125
540.46441	19872.2125
544.51333	19745.8125
548.55936	19849.6125
552.60252	20151.6125
556.64279	20525.5125
560.6802	20723.0125
564.71473	20967.9125
568.7464	21490.7125
572.7752	21710.3125
576.80114	21268.1125
580.82422	20902.2125
584.84444	20970.3125
588.86181	21294.0125
592.87633	21683.5125
596.888	22176.5125
600.89682	22996.3125
604.9028	25531.5125
608.90594	31357.8125
612.90624	37311.7125
616.90371	34714.6125
620.89834	26304.9125
624.89015	22803.8125
628.87913	22364.5125
632.86528	22288.4125
636.84862	22127.1125
640.82913	21576.0125
644.80683	20636.1125
648.78172	19978.4125
652.75379	19970.9125
656.72306	20670.5125
660.68952	21464.1125
664.65319	21274.4125
668.61405	20699.8125
672.57211	20487.0125
676.52738	20400.4125
680.47986	20291.0125
684.42955	20136.8125
688.37646	20081.4125
692.32058	20198.5125
696.26192	20372.7125
700.20048	20611.4125
704.13626	20654.6125
708.06928	20479.3125
711.99952	20262.5125
715.927	20267.4125
719.85171	20334.1125
723.77365	20358.7125
727.69284	20153.1125
731.60928	20058.2125
735.52295	20092.2125
739.43388	20212.4125
743.34206	20375.7125
747.24749	20501.8125
751.15017	20559.5125
755.05012	20908.9125
758.94733	21785.8125
762.8418	23798.4125
766.73354	26931.7125
770.62254	29888.4125
774.50882	31235.9125
778.39237	29918.6125
782.27321	26705.8125
786.15132	23598.7125
790.02671	21738.3125
793.89938	20936.4125
797.76935	20645.1125
801.6366	20524.9125
805.50115	20412.0125
809.36299	20334.7125
813.22213	20115.9125
817.07857	20100.9125
820.93231	20093.3125
824.78336	20142.2125
828.63172	20214.6125
832.47738	20329.8125
836.32036	20354.1125
840.16066	20436.8125
843.99827	20468.9125
847.8332	20443.3125
851.66546	20326.7125
855.49504	20290.7125
859.32195	20270.4125
863.1462	20192.1125
866.96777	20060.2125
870.78668	20039.8125
874.60293	20104.7125
878.41652	20175.7125
882.22745	20283.6125
886.03573	20412.1125
889.84136	20370.2125
893.64433	20249.8125
897.44466	20142.1125
901.24235	20100.0125
905.0374	20068.2125
908.8298	19978.0125
912.61957	19976.7125
916.40671	20094.0125
920.19121	20362.2125
923.97308	20722.1125
927.75233	21061.5125
931.52895	21277.8125
935.30295	21102.4125
939.07433	20536.1125
942.84309	20196.8125
946.60924	20039.8125
950.37278	19926.2125
954.13371	19777.7125
957.89203	19587.3125
961.64774	19459.5125
965.40086	19422.4125
969.15137	19340.4125
972.89929	19280.7125
976.64461	19294.8125
980.38733	19347.0125
984.12747	19486.2125
987.86502	19678.5125
991.59999	20060.8125
995.33237	20680.1125
999.06217	21667.7125
1002.78939	22667.2125
1006.51404	23205.7125
1010.23611	23380.3125
1013.95561	23699.8125
1017.67255	23831.5125
1021.38692	23837.8125
1025.09872	23919.8125
1028.80796	24592.7125
1032.51465	25714.8125
1036.21877	26599.0125
1039.92035	26551.9125
1043.61937	25792.4125
1047.31584	24621.6125
1051.00976	23458.9125
1054.70114	22818.2125
1058.38998	22617.0125
1062.07627	22596.3125
1065.76003	22480.4125
1069.44126	22493.9125
1073.11995	22630.2125
1076.79611	22934.8125
1080.46974	23294.7125
1084.14085	23789.7125
1087.80943	24139.0125
1091.47549	24110.9125
1095.13903	23677.8125
1098.80005	23118.2125
1102.45857	22708.3125
1106.11456	22703.7125
1109.76805	22913.4125
1113.41903	23341.7125
1117.06751	23965.5125
1120.71348	24718.5125
1124.35696	25507.5125
1127.99793	26010.8125
1131.63641	25770.7125
1135.2724	24865.6125
1138.90589	24170.9125
1142.5369	23633.2125
1146.16542	23156.9125
1149.79145	22933.4125
1153.415	22912.2125
1157.03607	23123.2125
1160.65467	23523.5125
1164.27079	24253.1125
1167.88443	25381.9125
1171.49561	27246.7125
1175.10432	29992.1125
1178.71056	33628.0125
1182.31434	36823.6125
1185.91565	38288.7125
1189.51451	37789.9125
1193.11091	35678.7125
1196.70485	33208.1125
1200.29634	31247.9125
1203.88538	29796.0125
1207.47197	28290.9125
1211.05612	27108.1125
1214.63782	26476.4125
1218.21708	26459.2125
1221.79391	26761.3125
1225.36829	27071.9125
1228.94024	26931.7125
1232.50976	26481.9125
1236.07685	26144.8125
1239.6415	26065.0125
1243.20374	26209.5125
1246.76355	26495.9125
1250.32093	26908.5125
1253.8759	27601.7125
1257.42845	28488.0125
1260.97859	29398.8125
1264.52631	30185.0125
1268.07163	31004.4125
1271.61453	31936.6125
1275.15503	32891.3125
1278.69312	33903.1125
1282.22882	34767.4125
1285.76211	35511.3125
1289.29301	36156.3125
1292.82151	36894.0125
1296.34761	38016.6125
1299.87133	40106.2125
1303.39266	43393.3125
1306.9116	48081.3125
1310.42815	52813.3125
1313.94233	55054.9125
1317.45412	53456.2125
1320.96354	49794.5125
1324.47058	45970.9125
1327.97525	42961.5125
1331.47754	41138.7125
1334.97747	40605.4125
1338.47502	40940.4125
1341.97022	41943.7125
1345.46305	43240.1125
1348.95352	44900.1125
1352.44163	47002.7125
1355.92738	50437.3125
1359.41078	56006.6125
1362.89183	60522.9125
1366.37053	57902.3125
1369.84688	49651.2125
1373.32088	42208.7125
1376.79254	37619.5125
1380.26186	35232.4125
1383.72883	33890.0125
1387.19347	32892.4125
1390.65578	31927.2125
1394.11575	31199.2125
1397.57339	31026.2125
1401.0287	31305.4125
1404.48168	31671.5125
1407.93234	32200.6125
1411.38068	32619.4125
1414.82669	32884.6125
1418.27039	32617.0125
1421.71177	31987.7125
1425.15083	31355.3125
1428.58758	31144.3125
1432.02203	31435.1125
1435.45416	31837.8125
1438.88399	31966.3125
1442.31151	32007.8125
1445.73673	32027.5125
1449.15965	32122.3125
1452.58027	31983.9125
1455.9986	31684.5125
1459.41463	31570.2125
1462.82837	31875.7125
1466.23982	32496.5125
1469.64898	33176.1125
1473.05586	33694.6125
1476.46045	34137.0125
1479.86276	34594.6125
1483.26279	35119.4125
1486.66054	35710.5125
1490.05602	36531.2125
1493.44922	37723.1125
1496.84016	39542.0125
1500.22882	42138.3125
1503.61521	45931.9125
1506.99934	50045.4125
1510.38121	53063.8125
1513.76081	53130.2125
1517.13816	49813.9125
1520.51324	44797.1125
1523.88607	40495.8125
1527.25665	37608.0125
1530.62498	36018.4125
1533.99105	35106.4125
1537.35488	34406.3125
1540.71647	34079.8125
1544.07581	33883.5125
1547.4329	33662.4125
1550.78776	33458.7125
1554.14038	33306.4125
1557.49077	33331.6125
1560.83892	33505.6125
1564.18484	33942.0125
1567.52853	34354.7125
1570.86999	34712.3125
1574.20922	34889.4125
1577.54624	34614.0125
1580.88103	33618.3125
1584.2136	32481.3125
1587.54395	32387.4125
1590.87208	33644.4125
1594.19801	36355.7125
1597.52172	39493.6125
1600.84321	41072.7125
1604.16251	39925.3125
1607.47959	37202.8125
1610.79447	33981.7125
1614.10715	31095.2125
1617.41763	28894.2125
1620.7259	27447.0125
1624.03199	26873.9125
1627.33587	27042.5125
1630.63757	27964.3125
1633.93707	29611.6125
1637.23439	31915.3125
1640.52951	34735.0125
1643.82246	38232.7125
1647.11321	41332.1125
1650.40179	42358.3125
1653.68819	39908.8125
1656.97241	34858.9125
1660.25446	29954.8125
1663.53433	26549.5125
1666.81203	24488.3125
1670.08756	23224.4125
1673.36092	22437.9125
1676.63211	21879.7125
1679.90115	21465.4125
1683.16801	21144.6125
1686.43272	20926.7125
1689.69527	20722.7125
1692.95567	20641.9125
1696.2139	20542.3125
1699.46999	20507.5125
1702.72392	20464.8125
1705.97571	20455.2125
1709.22535	20424.4125
1712.47284	20421.6125
1715.71819	20423.4125
1718.96139	20337.4125
1722.20246	20260.6125
1725.44139	20177.4125
1728.67818	20105.7125
1731.91284	19994.4125
1735.14537	19920.2125
1738.37576	19827.9125
1741.60403	19756.4125
1744.83017	19669.8125
1748.05418	19619.9125
1751.27607	19597.6125
1754.49584	19555.6125
1757.71349	19526.6125
1760.92903	19505.3125
1764.14244	19499.5125
1767.35375	19488.0125
1770.56294	19475.0125
1773.77002	19451.7125
1776.97499	19401.1125
1780.17785	19409.2125
1783.37861	19385.8125
1786.57727	19381.6125
1789.77382	19367.1125
1792.96828	19363.0125
1796.16064	19375.4125
1799.3509	19331.1125
1802.53907	19342.4125
1805.72514	19273.6125
1808.90913	19239.8125
1812.09102	19158.2125
1815.27083	19099.1125
1818.44856	19112.0125
1821.6242	19081.1125
1824.79776	19025.0125
1827.96924	19034.4125
1831.13864	19011.5125
1834.30597	19009.5125
1837.47122	19013.9125
1840.6344	19002.4125
1843.7955	19042.3125
1846.95454	19009.3125
1850.11151	18955.6125
1853.26642	18984.1125
1856.41926	18979.3125
1859.57004	19008.2125
1862.71876	18977.9125
1865.86542	18993.4125
1869.01003	18968.3125
1872.15258	18982.5125
1875.29308	19011.5125
1878.43152	18984.3125
1881.56792	18980.5125
1884.70227	18992.0125
1887.83457	19004.2125
1890.96482	18973.8125
1894.09304	18933.4125
1897.21921	18922.7125
1900.34335	18894.5125
1903.46544	18934.3125
1906.58551	18915.4125
1909.70353	18889.1125
1912.81953	18934.7125
1915.93349	18932.7125
1919.04543	18894.3125
1922.15534	18873.5125
1925.26322	18846.2125
1928.36908	18822.0125
1931.47292	18812.4125
1934.57473	18730.8125
1937.67453	18741.6125
1940.77232	18695.2125
1943.86808	18681.1125
1946.96184	18618.3125
1950.05358	18575.1125
1953.14331	18524.1125
1956.23103	18474.1125
1959.31675	18410.4125
1962.40046	18364.4125
1965.48217	18338.9125
1968.56188	18304.7125
1971.63959	18283.2125
1974.7153	18246.0125
1977.78901	18179.7125
1980.86073	18149.8125
1983.93046	18080.9125
1986.99819	18037.2125
1990.06394	17994.5125
1993.1277	17949.2125
1996.18947	17884.0125
1999.24925	17884.1125
2002.30706	17829.7125
2005.36288	17761.1125
2008.41672	17749.1125
2011.46859	17668.0125
2014.51848	17637.2125
2017.56639	17590.4125
2020.61233	17570.2125
2023.6563	17521.3125
2026.6983	17529.1125
2029.73833	17520.2125
2032.7764	17502.0125
2035.8125	17435.9125
2038.84664	17459.5125
2041.87881	17482.4125
2044.90903	17441.0125
2047.93729	17399.4125
2050.96359	17368.9125
2053.98794	17349.7125
2057.01034	17379.8125
2060.03078	17387.6125
2063.04927	17382.3125
2066.06582	17354.7125
2069.08042	17348.4125
2072.09307	17313.4125
2075.10378	17294.4125
2078.11255	17251.7125
2081.11938	17212.6125
2084.12426	17241.9125
2087.12722	17219.8125
2090.12824	17233.5125
2093.12732	17232.4125
2096.12447	17220.4125
2099.11969	17226.7125
2102.11299	17206.6125
2105.10435	17269.1125
2108.09379	17259.1125
2111.08131	17265.7125
2114.0669	17278.5125
2117.05057	17287.8125
2120.03233	17334.9125
2123.01216	17368.5125
2125.99008	17376.7125
2128.96609	17382.1125
2131.94018	17382.5125
2134.91236	17399.4125
2137.88263	17384.5125
2140.851	17420.9125
2143.81746	17445.6125
2146.78201	17436.2125
2149.74466	17449.8125
2152.7054	17491.4125
2155.66425	17470.0125
2158.6212	17484.9125
2161.57625	17472.7125
2164.52941	17485.6125
2167.48067	17467.9125
2170.43004	17493.7125
2173.37752	17458.7125
2176.32311	17478.5125
2179.26681	17482.0125
2182.20863	17463.7125
2185.14856	17522.4125
2188.08661	17532.7125
2191.02278	17496.7125
2193.95707	17582.0125
2196.88948	17556.2125
2199.82001	17604.1125
2202.74867	17530.3125
2205.67545	17585.9125
2208.60037	17606.8125
2211.52341	17587.8125
2214.44458	17603.7125
2217.36388	17574.9125
2220.28132	17589.1125
2223.1969	17565.3125
2226.11061	17508.7125
2229.02246	17537.5125
2231.93245	17475.3125
2234.84058	17455.6125
2237.74686	17402.5125
2240.65128	17365.7125
2243.55385	17348.9125
2246.45456	17332.2125
2249.35343	17351.9125
2252.25044	17350.4125
2255.14561	17360.3125
2258.03893	17360.4125
2260.93041	17308.9125
2263.82004	17275.5125
2266.70783	17274.8125
2269.59378	17217.2125
2272.4779	17190.6125
2275.36017	17162.7125
2278.24061	17103.7125
2281.11922	17071.5125
2283.996	17045.3125
2286.87094	17026.3125
2289.74405	17021.9125
2292.61534	17013.1125
2295.4848	17014.8125
2298.35243	17001.0125
2301.21824	17054.4125
2304.08223	17065.8125
2306.94439	17081.0125
2309.80474	17157.7125
2312.66327	17135.4125
2315.51999	17173.1125
2318.37489	17201.3125
2321.22797	17212.3125
2324.07925	17199.5125
2326.92871	17133.1125
2329.77637	17152.6125
2332.62222	17204.0125
2335.46626	17183.6125
2338.3085	17209.4125
2341.14893	17218.7125
2343.98756	17250.7125
2346.8244	17302.9125
2349.65943	17361.3125
2352.49267	17334.1125
2355.32411	17338.2125
2358.15376	17326.6125
2360.98161	17329.0125
2363.80768	17296.2125
2366.63195	17277.4125
2369.45444	17205.3125
2372.27514	17194.8125
2375.09405	17194.8125
2377.91118	17147.7125
2380.72652	17065.0125
2383.54009	17027.8125
2386.35187	17003.1125
2389.16188	16945.3125
2391.97011	16927.1125
2394.77657	16938.9125
2397.58125	16906.8125
2400.38416	16901.3125
2403.18529	16852.9125
2405.98466	16800.3125
2408.78226	16751.4125
2411.57809	16708.9125
2414.37216	16676.1125
2417.16446	16692.3125
2419.955	16650.9125
2422.74378	16671.2125
2425.5308	16615.9125
2428.31606	16644.3125
2431.09956	16628.1125
2433.88131	16621.8125
2436.6613	16680.2125
2439.43954	16661.7125
2442.21603	16635.2125
2444.99077	16617.2125
2447.76377	16619.3125
2450.53501	16596.3125
2453.30451	16609.5125
2456.07226	16563.6125
2458.83827	16619.1125
2461.60254	16575.5125
2464.36507	16558.5125
2467.12586	16564.9125
2469.88492	16576.3125
2472.64224	16583.7125
2475.39782	16626.4125
2478.15167	16673.9125
2480.90379	16660.8125
2483.65417	16693.7125
2486.40283	16713.5125
2489.14976	16764.4125
2491.89497	16802.0125
2494.63845	16815.9125
2497.3802	16784.4125
2500.12024	16792.7125
2502.85855	16753.0125
2505.59514	16751.7125
2508.33002	16750.3125
2511.06318	16692.4125
2513.79462	16696.2125
2516.52435	16649.1125
2519.25237	16613.1125
2521.97867	16583.3125
2524.70327	16602.1125
2527.42616	16578.1125
2530.14734	16598.4125
2532.86681	16608.3125
2535.58458	16586.7125
2538.30065	16580.9125
2541.01501	16589.9125
2543.72768	16614.7125
2546.43864	16620.9125
2549.14791	16581.5125
2551.85548	16555.0125
2554.56136	16579.2125
2557.26554	16569.0125
2559.96803	16564.1125
2562.66883	16530.4125
2565.36794	16506.7125
2568.06536	16511.6125
2570.7611	16509.7125
2573.45514	16477.5125
2576.14751	16522.7125
2578.83819	16522.2125
2581.52719	16535.2125
2584.21451	16508.2125
2586.90015	16510.8125
2589.58411	16515.4125
2592.2664	16553.4125
2594.94701	16534.9125
2597.62594	16530.5125
2600.30321	16471.4125
2602.9788	16497.5125
2605.65273	16513.3125
2608.32498	16506.7125
2610.99557	16522.9125
2613.66449	16566.4125
2616.33175	16556.9125
2618.99734	16619.6125
2621.66128	16631.5125
2624.32355	16603.3125
2626.98416	16656.0125
2629.64311	16656.8125
2632.30041	16669.3125
2634.95605	16696.7125
2637.61004	16697.8125
2640.26238	16640.0125
2642.91306	16608.8125
2645.56209	16586.1125
2648.20948	16544.2125
2650.85521	16511.7125
2653.4993	16502.2125
2656.14175	16494.5125
2658.78255	16490.5125
2661.42171	16476.7125
2664.05923	16508.4125
2666.6951	16542.6125
2669.32934	16606.5125
2671.96194	16615.5125
2674.59291	16627.4125
2677.22224	16578.1125
2679.84993	16599.1125
2682.476	16576.9125
2685.10043	16550.5125
2687.72324	16563.6125
2690.34441	16534.2125
2692.96396	16509.7125
2695.58188	16493.5125
2698.19818	16461.3125
2700.81285	16463.8125
2703.4259	16479.2125
2706.03733	16487.1125
2708.64714	16474.3125
2711.25533	16472.4125
2713.86191	16479.3125
2716.46687	16498.4125
2719.07021	16507.6125
2721.67194	16543.3125
2724.27206	16490.5125
2726.87057	16529.5125
2729.46747	16533.5125
2732.06276	16542.4125
2734.65644	16516.5125
2737.24852	16527.8125
2739.83899	16521.2125
2742.42786	16546.1125
2745.01513	16525.6125
2747.60079	16483.9125
2750.18486	16435.8125
2752.76733	16458.9125
2755.3482	16472.0125
2757.92747	16448.5125
2760.50515	16454.2125
2763.08123	16451.3125
2765.65573	16455.7125
2768.22863	16476.6125
2770.79994	16484.5125
2773.36967	16488.3125
2775.9378	16445.1125
2778.50435	16483.4125
2781.06932	16472.6125
2783.6327	16505.1125
2786.1945	16486.3125
2788.75471	16465.4125
2791.31335	16406.1125
2793.87041	16391.6125
2796.42589	16354.6125
2798.97979	16349.9125
2801.53212	16344.5125
2804.08288	16300.7125
2806.63206	16264.1125
2809.17967	16255.2125
2811.72571	16246.4125
2814.27018	16243.3125
2816.81308	16241.9125
2819.35442	16227.6125
2821.89419	16261.8125
2824.43239	16252.3125
2826.96904	16250.3125
2829.50412	16237.7125
2832.03763	16181.3125
2834.56959	16185.4125
2837.1	16183.1125
2839.62884	16175.2125
2842.15613	16174.7125
2844.68186	16164.0125
2847.20604	16157.3125
2849.72867	16151.5125
2852.24974	16106.1125
2854.76927	16100.2125
2857.28724	16102.1125
2859.80367	16141.4125
2862.31855	16117.6125
2864.83189	16081.1125
2867.34368	16034.4125
2869.85393	16081.4125
2872.36264	16081.1125
2874.8698	16110.7125
2877.37543	16043.9125
2879.87952	16082.5125
2882.38207	16063.5125
2884.88308	16081.1125
2887.38256	16079.7125
2889.88051	16094.3125
2892.37692	16074.6125
2894.8718	16102.6125
2897.36515	16086.2125
2899.85698	16093.0125
2902.34727	16153.6125
2904.83604	16183.3125
2907.32328	16255.0125
2909.809	16257.9125
2912.29319	16227.8125
2914.77587	16201.8125
2917.25702	16220.2125
2919.73665	16192.2125
2922.21476	16202.1125
2924.69136	16153.1125
2927.16644	16155.6125
2929.64	16128.8125
2932.11205	16102.7125
2934.58258	16040.5125
2937.05161	16083.7125
2939.51912	16085.4125
2941.98513	16058.8125
2944.44962	16072.3125
2946.91261	16029.5125
2949.37409	16039.7125
2951.83407	16057.8125
2954.29254	16022.8125
2956.74951	16063.6125
2959.20498	16050.5125
2961.65895	16034.8125
2964.11142	16009.0125
2966.56239	15957.1125
2969.01186	15979.8125
2971.45984	15938.5125
2973.90632	15943.0125
2976.35131	15895.8125
2978.7948	15865.0125
2981.23681	15862.0125
2983.67732	15821.5125
2986.11635	15781.3125
2988.55388	15751.2125
2990.98993	15721.6125
2993.4245	15668.1125
2995.85758	15680.1125
2998.28917	15658.6125
3000.71928	15654.4125
3003.14791	15619.8125
3005.57506	15596.8125
3008.00073	15553.4125
3010.42493	15528.8125
3012.84764	15490.4125
3015.26888	15512.6125
3017.68865	15447.3125
3020.10694	15439.5125
3022.52376	15411.2125
3024.9391	15387.5125
3027.35298	15361.0125
