Data from AgNPs_UA_10uM_CRN_0uM_R6G_10uM_Q_RamanShift__13__12-03-52-639.txt Node

Date: Mon Jul 18 12:03:52 BST 2022
User: TCL
Spectrometer: QEP01345
Trigger mode: 4
Integration Time (sec): 7.000000E0
Scans to average: 10
Electric dark correction enabled: true
Nonlinearity correction enabled: false
Boxcar width: 0
XAxis mode: Raman Shifts
Number of Pixels in Spectrum: 1044
>>>>>Begin Spectral Data<<<<<
46.04893	-0.425
50.45542	-2.825
54.85868	-1.825
59.25871	-1.925
63.6555	147.675
68.04907	156.575
72.43941	163.275
76.82654	163.975
81.21044	170.275
85.59113	176.175
89.96862	184.975
94.34289	190.175
98.71396	194.575
103.08183	202.475
107.4465	209.975
111.80798	208.475
116.16626	219.275
120.52136	226.875
124.87327	242.475
129.222	253.175
133.56755	271.775
137.90993	291.175
142.24913	313.875
146.58517	365.975
150.91804	424.775
155.24774	505.375
159.57429	631.875
163.89768	819.075
168.21792	1082.075
172.53501	1489.175
176.84895	2091.775
181.15975	2947.275
185.46741	4131.175
189.77193	5734.775
194.07331	7701.175
198.37157	9904.875
202.6667	12236.375
206.9587	14564.575
211.24758	16808.675
215.53334	19044.875
219.81599	21403.775
224.09553	24034.975
228.37195	26947.075
232.64527	30063.575
236.91549	33368.875
241.18261	36759.875
245.44663	39998.575
249.70755	43013.875
253.96539	45686.275
258.22014	47914.875
262.4718	49656.475
266.72039	50760.075
270.96589	51354.175
275.20832	51556.575
279.44768	51208.375
283.68397	50667.375
287.91719	50227.575
292.14735	49951.375
296.37445	49756.475
300.59849	49787.875
304.81948	49836.675
309.03742	49854.775
313.25231	49644.275
317.46415	49105.675
321.67296	48423.675
325.87872	47774.275
330.08145	47616.275
334.28114	47840.575
338.47781	48243.775
342.67145	48861.375
346.86207	49572.775
351.04966	50339.875
355.23424	51132.375
359.4158	51882.075
363.59435	52481.775
367.76989	52958.175
371.94243	53311.375
376.11196	53502.775
380.27849	53848.875
384.44203	54166.375
388.60257	54539.275
392.76012	55026.675
396.91468	55599.775
401.06626	56319.775
405.21485	56709.775
409.36047	56652.675
413.50311	56269.475
417.64277	55922.675
421.77947	55925.475
425.9132	56158.475
430.04396	56477.375
434.17176	56789.875
438.2966	57101.775
442.41849	57634.275
446.53742	58314.175
450.6534	59097.475
454.76644	59749.575
458.87653	60128.075
462.98368	60337.175
467.08789	60409.675
471.18916	60227.075
475.2875	60085.275
479.38291	59899.475
483.4754	59742.675
487.56496	59686.975
491.6516	59479.775
495.73531	59401.775
499.81612	59400.575
503.89401	59720.675
507.96899	59906.775
512.04106	60003.275
516.11023	60098.975
520.1765	60123.275
524.23987	59920.075
528.30034	59716.175
532.35792	59601.375
536.41261	59522.775
540.46441	59350.275
544.51333	59510.275
548.55936	59920.975
552.60252	60568.075
556.64279	61201.975
560.6802	61712.075
564.71473	62040.975
568.7464	62543.875
572.7752	63153.975
576.80114	63799.775
580.82422	64498.875
584.84444	65013.575
588.86181	65234.475
592.87633	65302.575
596.888	65393.375
600.89682	65976.675
604.9028	67696.875
608.90594	71460.875
612.90624	74665.675
616.90371	71213.175
620.89834	64884.075
624.89015	62488.775
628.87913	62333.975
632.86528	62922.575
636.84862	63264.675
640.82913	62990.875
644.80683	62254.875
648.78172	61763.075
652.75379	61809.175
656.72306	62384.175
660.68952	62973.375
664.65319	63005.875
668.61405	62709.775
672.57211	62813.275
676.52738	62993.075
680.47986	62979.775
684.42955	62719.975
688.37646	62685.475
692.32058	62953.875
696.26192	63329.175
700.20048	63843.875
704.13626	64141.075
708.06928	64181.475
711.99952	64050.975
715.927	63988.775
719.85171	63988.575
723.77365	63879.475
727.69284	63566.275
731.60928	63378.075
735.52295	63328.775
739.43388	63399.575
743.34206	63554.375
747.24749	63720.675
751.15017	63990.275
755.05012	64424.975
758.94733	65467.775
762.8418	67380.575
766.73354	70238.775
770.62254	72563.375
774.50882	72863.875
778.39237	71411.075
782.27321	69116.175
786.15132	66939.175
790.02671	65433.275
793.89938	64474.575
797.76935	64102.475
801.6366	63975.075
805.50115	63862.375
809.36299	63706.675
813.22213	63586.975
817.07857	63669.475
820.93231	63801.775
824.78336	63885.775
828.63172	63944.475
832.47738	63893.275
836.32036	63948.775
840.16066	64033.975
843.99827	64088.875
847.8332	64142.875
851.66546	64156.375
855.49504	64137.175
859.32195	64253.175
863.1462	64355.675
866.96777	64451.775
870.78668	64479.975
874.60293	64576.775
878.41652	64696.275
882.22745	64948.975
886.03573	65009.275
889.84136	65007.275
893.64433	64877.475
897.44466	64898.575
901.24235	64864.975
905.0374	64821.875
908.8298	64710.975
912.61957	64691.975
916.40671	64901.575
920.19121	65131.575
923.97308	65402.675
927.75233	65438.375
931.52895	65426.675
935.30295	65057.375
939.07433	64599.475
942.84309	64126.875
946.60924	63873.375
950.37278	63772.375
954.13371	63749.375
957.89203	63706.575
961.64774	63748.675
965.40086	63778.375
969.15137	63655.275
972.89929	63514.675
976.64461	63532.175
980.38733	63474.775
984.12747	63618.475
987.86502	63788.475
991.59999	63894.175
995.33237	64035.775
999.06217	64316.775
1002.78939	64800.475
1006.51404	65256.075
1010.23611	65566.975
1013.95561	65861.075
1017.67255	65929.075
1021.38692	65771.975
1025.09872	65465.675
1028.80796	65164.975
1032.51465	65120.275
1036.21877	65229.775
1039.92035	65379.275
1043.61937	65550.975
1047.31584	65603.975
1051.00976	65727.775
1054.70114	66049.675
1058.38998	66206.175
1062.07627	66495.275
1065.76003	66901.875
1069.44126	67470.875
1073.11995	68145.875
1076.79611	68771.375
1080.46974	69024.675
1084.14085	69107.775
1087.80943	69386.975
1091.47549	69585.375
1095.13903	69588.875
1098.80005	69379.775
1102.45857	68989.175
1106.11456	68479.875
1109.76805	67927.275
1113.41903	67719.475
1117.06751	67804.875
1120.71348	68278.675
1124.35696	68652.275
1127.99793	69032.375
1131.63641	68986.875
1135.2724	68585.075
1138.90589	68178.675
1142.5369	68007.475
1146.16542	67954.475
1149.79145	67939.875
1153.415	68010.875
1157.03607	68251.375
1160.65467	68726.875
1164.27079	69609.075
1167.88443	70883.775
1171.49561	72589.075
1175.10432	74795.275
1178.71056	77648.275
1182.31434	79961.375
1185.91565	81262.975
1189.51451	81648.375
1193.11091	81129.675
1196.70485	79992.475
1200.29634	78592.875
1203.88538	77040.775
1207.47197	75558.375
1211.05612	74406.275
1214.63782	73505.375
1218.21708	72683.475
1221.79391	71867.875
1225.36829	71362.575
1228.94024	71143.075
1232.50976	71112.275
1236.07685	71175.675
1239.6415	71202.275
1243.20374	71293.875
1246.76355	71540.675
1250.32093	71835.475
1253.8759	72438.175
1257.42845	73289.275
1260.97859	74153.675
1264.52631	75105.675
1268.07163	76010.775
1271.61453	76679.875
1275.15503	77384.875
1278.69312	78096.175
1282.22882	78598.975
1285.76211	79377.875
1289.29301	80314.875
1292.82151	81297.375
1296.34761	82412.875
1299.87133	83908.075
1303.39266	85852.375
1306.9116	88354.875
1310.42815	90786.275
1313.94233	92013.575
1317.45412	91559.375
1320.96354	90607.175
1324.47058	89922.175
1327.97525	89150.875
1331.47754	88558.975
1334.97747	88330.175
1338.47502	88621.875
1341.97022	89522.875
1345.46305	90764.675
1348.95352	91946.475
1352.44163	92788.875
1355.92738	93266.475
1359.41078	94203.175
1362.89183	95377.075
1366.37053	93584.375
1369.84688	88716.675
1373.32088	83699.775
1376.79254	80111.075
1380.26186	78253.875
1383.72883	77003.675
1387.19347	76080.675
1390.65578	75158.275
1394.11575	74450.075
1397.57339	73922.475
1401.0287	73608.675
1404.48168	73242.075
1407.93234	72777.975
1411.38068	72555.075
1414.82669	72035.275
1418.27039	71278.075
1421.71177	70528.875
1425.15083	69789.875
1428.58758	69492.475
1432.02203	69635.975
1435.45416	69892.575
1438.88399	70224.575
1442.31151	70547.675
1445.73673	70829.375
1449.15965	71096.575
1452.58027	71482.875
1455.9986	71785.075
1459.41463	71971.975
1462.82837	72510.675
1466.23982	73160.275
1469.64898	73917.575
1473.05586	74392.975
1476.46045	74770.175
1479.86276	75012.375
1483.26279	75368.975
1486.66054	75802.275
1490.05602	76637.175
1493.44922	78096.875
1496.84016	80043.675
1500.22882	82803.075
1503.61521	86134.175
1506.99934	89450.575
1510.38121	91543.175
1513.76081	91280.475
1517.13816	88997.575
1520.51324	85710.075
1523.88607	82941.875
1527.25665	81141.775
1530.62498	79940.275
1533.99105	79181.975
1537.35488	78355.775
1540.71647	77503.575
1544.07581	76754.975
1547.4329	76073.175
1550.78776	75483.975
1554.14038	75137.175
1557.49077	74966.575
1560.83892	75155.675
1564.18484	75673.675
1567.52853	76228.275
1570.86999	76615.275
1574.20922	77065.375
1577.54624	77074.275
1580.88103	76211.875
1584.2136	75288.075
1587.54395	74881.275
1590.87208	75412.975
1594.19801	76640.275
1597.52172	77802.975
1600.84321	77950.975
1604.16251	77001.775
1607.47959	75560.875
1610.79447	73823.275
1614.10715	71626.175
1617.41763	69592.775
1620.7259	68110.575
1624.03199	67278.775
1627.33587	66993.275
1630.63757	67461.275
1633.93707	68598.675
1637.23439	70834.675
1640.52951	74061.275
1643.82246	77979.575
1647.11321	81734.375
1650.40179	83393.575
1653.68819	81620.475
1656.97241	76921.575
1660.25446	71955.475
1663.53433	67984.075
1666.81203	65253.875
1670.08756	63475.275
1673.36092	62398.275
1676.63211	61727.375
1679.90115	61124.775
1683.16801	60647.775
1686.43272	60289.375
1689.69527	60046.775
1692.95567	59781.475
1696.2139	59651.075
1699.46999	59486.275
1702.72392	59507.675
1705.97571	59414.475
1709.22535	59400.375
1712.47284	59340.475
1715.71819	59403.675
1718.96139	59303.775
1722.20246	59170.075
1725.44139	59052.675
1728.67818	58881.175
1731.91284	58592.575
1735.14537	58405.575
1738.37576	58311.875
1741.60403	58295.775
1744.83017	58212.275
1748.05418	58064.575
1751.27607	57957.075
1754.49584	57968.575
1757.71349	57873.375
1760.92903	57806.175
1764.14244	57803.075
1767.35375	57829.575
1770.56294	57647.875
1773.77002	57546.575
1776.97499	57649.075
1780.17785	57556.175
1783.37861	57451.775
1786.57727	57388.275
1789.77382	57310.275
1792.96828	57168.275
1796.16064	57142.975
1799.3509	57038.375
1802.53907	56881.875
1805.72514	56657.075
1808.90913	56548.875
1812.09102	56485.275
1815.27083	56431.875
1818.44856	56380.975
1821.6242	56309.075
1824.79776	56242.675
1827.96924	56207.075
1831.13864	56171.275
1834.30597	55967.675
1837.47122	55903.775
1840.6344	56039.075
1843.7955	55971.675
1846.95454	55820.275
1850.11151	55882.475
1853.26642	55817.775
1856.41926	55808.375
1859.57004	55753.275
1862.71876	55716.875
1865.86542	55654.575
1869.01003	55649.375
1872.15258	55597.375
1875.29308	55482.475
1878.43152	55349.075
1881.56792	55253.975
1884.70227	55119.075
1887.83457	55152.875
1890.96482	55115.075
1894.09304	54979.175
1897.21921	54971.375
1900.34335	54902.075
1903.46544	54763.875
1906.58551	54681.275
1909.70353	54603.075
1912.81953	54557.275
1915.93349	54568.875
1919.04543	54433.575
1922.15534	54334.875
1925.26322	54165.975
1928.36908	54097.375
1931.47292	53989.175
1934.57473	53818.075
1937.67453	53646.675
1940.77232	53577.975
1943.86808	53514.675
1946.96184	53428.475
1950.05358	53186.875
1953.14331	52993.575
1956.23103	52861.975
1959.31675	52708.175
1962.40046	52679.775
1965.48217	52451.075
1968.56188	52344.475
1971.63959	52227.175
1974.7153	52022.775
1977.78901	51926.075
1980.86073	51698.275
1983.93046	51538.775
1986.99819	51381.075
1990.06394	51296.275
1993.1277	51124.475
1996.18947	50960.975
1999.24925	50901.375
2002.30706	50727.975
2005.36288	50657.475
2008.41672	50544.775
2011.46859	50345.775
2014.51848	50218.075
2017.56639	50180.175
2020.61233	50006.875
2023.6563	49821.375
2026.6983	49554.475
2029.73833	49369.875
2032.7764	49269.875
2035.8125	49208.875
2038.84664	49080.275
2041.87881	48994.975
2044.90903	48857.275
2047.93729	48722.775
2050.96359	48683.975
2053.98794	48568.275
2057.01034	48525.175
2060.03078	48502.575
2063.04927	48506.275
2066.06582	48455.775
2069.08042	48416.575
2072.09307	48371.675
2075.10378	48336.075
2078.11255	48307.975
2081.11938	48317.075
2084.12426	48352.975
2087.12722	48297.575
2090.12824	48253.075
2093.12732	48229.175
2096.12447	48261.775
2099.11969	48273.375
2102.11299	48334.275
2105.10435	48267.475
2108.09379	48253.875
2111.08131	48368.375
2114.0669	48213.875
2117.05057	48233.875
2120.03233	48340.075
2123.01216	48422.975
2125.99008	48437.475
2128.96609	48450.075
2131.94018	48652.775
2134.91236	48654.075
2137.88263	48662.975
2140.851	48664.675
2143.81746	48596.675
2146.78201	48652.575
2149.74466	48706.075
2152.7054	48724.075
2155.66425	48710.575
2158.6212	48687.575
2161.57625	48588.275
2164.52941	48509.675
2167.48067	48504.475
2170.43004	48499.975
2173.37752	48464.075
2176.32311	48391.175
2179.26681	48452.175
2182.20863	48469.575
2185.14856	48505.775
2188.08661	48422.075
2191.02278	48381.975
2193.95707	48381.875
2196.88948	48331.475
2199.82001	48252.975
2202.74867	48148.575
2205.67545	48084.475
2208.60037	47972.675
2211.52341	47842.875
2214.44458	47852.275
2217.36388	47789.475
2220.28132	47675.475
2223.1969	47563.675
2226.11061	47382.575
2229.02246	47313.675
2231.93245	47324.175
2234.84058	47136.275
2237.74686	47092.375
2240.65128	47022.675
2243.55385	46924.175
2246.45456	46948.075
2249.35343	46861.675
2252.25044	46798.175
2255.14561	46702.075
2258.03893	46634.075
2260.93041	46536.975
2263.82004	46460.375
2266.70783	46413.775
2269.59378	46336.175
2272.4779	46211.375
2275.36017	46072.875
2278.24061	46011.475
2281.11922	45872.475
2283.996	45783.575
2286.87094	45644.475
2289.74405	45553.375
2292.61534	45506.975
2295.4848	45434.575
2298.35243	45487.175
2301.21824	45427.475
2304.08223	45345.275
2306.94439	45333.375
2309.80474	45300.875
2312.66327	45208.675
2315.51999	45142.275
2318.37489	45088.775
2321.22797	45064.475
2324.07925	44945.175
2326.92871	44775.075
2329.77637	44710.075
2332.62222	44669.375
2335.46626	44632.975
2338.3085	44658.175
2341.14893	44514.375
2343.98756	44467.375
2346.8244	44428.575
2349.65943	44515.975
2352.49267	44447.675
2355.32411	44374.375
2358.15376	44338.675
2360.98161	44323.775
2363.80768	44287.775
2366.63195	44310.375
2369.45444	44224.075
2372.27514	44135.975
2375.09405	44066.675
2377.91118	43981.975
2380.72652	43848.375
2383.54009	43698.475
2386.35187	43656.875
2389.16188	43554.775
2391.97011	43565.375
2394.77657	43439.075
2397.58125	43340.675
2400.38416	43306.775
2403.18529	43230.475
2405.98466	43241.175
2408.78226	43129.175
2411.57809	43096.975
2414.37216	43061.775
2417.16446	43054.075
2419.955	42911.575
2422.74378	42903.275
2425.5308	42834.275
2428.31606	42654.475
2431.09956	42744.075
2433.88131	42650.375
2436.6613	42636.975
2439.43954	42592.775
2442.21603	42550.075
2444.99077	42503.875
2447.76377	42415.575
2450.53501	42308.175
2453.30451	42283.575
2456.07226	42173.975
2458.83827	42078.875
2461.60254	42124.475
2464.36507	42030.775
2467.12586	41879.175
2469.88492	41936.275
2472.64224	41843.975
2475.39782	41784.575
2478.15167	41834.775
2480.90379	41813.775
2483.65417	41864.075
2486.40283	41856.275
2489.14976	41872.875
2491.89497	41836.875
2494.63845	41804.075
2497.3802	41729.375
2500.12024	41649.875
2502.85855	41540.675
2505.59514	41488.675
2508.33002	41380.375
2511.06318	41317.975
2513.79462	41275.175
2516.52435	41180.675
2519.25237	41113.575
2521.97867	41102.275
2524.70327	41101.975
2527.42616	40975.275
2530.14734	40969.175
2532.86681	40907.575
2535.58458	40852.175
2538.30065	40790.175
2541.01501	40766.075
2543.72768	40641.475
2546.43864	40567.175
2549.14791	40429.875
2551.85548	40392.975
2554.56136	40255.575
2557.26554	40242.675
2559.96803	40192.575
2562.66883	40078.075
2565.36794	40003.275
2568.06536	39987.975
2570.7611	40003.975
2573.45514	39857.475
2576.14751	39800.275
2578.83819	39691.975
2581.52719	39595.175
2584.21451	39568.275
2586.90015	39509.075
2589.58411	39412.275
2592.2664	39483.975
2594.94701	39343.175
2597.62594	39271.275
2600.30321	39206.975
2602.9788	39092.175
2605.65273	38911.675
2608.32498	38912.175
2610.99557	38878.775
2613.66449	38896.075
2616.33175	38712.475
2618.99734	38694.175
2621.66128	38614.875
2624.32355	38648.575
2626.98416	38558.975
2629.64311	38448.075
2632.30041	38392.275
2634.95605	38258.375
2637.61004	38225.675
2640.26238	38244.375
2642.91306	38255.475
2645.56209	38198.675
2648.20948	38124.375
2650.85521	38042.175
2653.4993	37993.575
2656.14175	38018.275
2658.78255	38057.875
2661.42171	38032.675
2664.05923	38085.175
2666.6951	38003.775
2669.32934	37952.575
2671.96194	37947.775
2674.59291	37957.975
2677.22224	37931.475
2679.84993	37951.375
2682.476	37864.275
2685.10043	37856.975
2687.72324	37795.175
2690.34441	37766.875
2692.96396	37770.075
2695.58188	37767.875
2698.19818	37659.975
2700.81285	37667.875
2703.4259	37673.075
2706.03733	37765.875
2708.64714	37785.475
2711.25533	37789.475
2713.86191	37711.875
2716.46687	37743.675
2719.07021	37673.675
2721.67194	37690.975
2724.27206	37693.875
2726.87057	37662.275
2729.46747	37657.775
2732.06276	37683.575
2734.65644	37635.475
2737.24852	37607.375
2739.83899	37478.375
2742.42786	37431.375
2745.01513	37348.675
2747.60079	37347.075
2750.18486	37313.375
2752.76733	37270.575
2755.3482	37230.575
2757.92747	37173.775
2760.50515	37129.475
2763.08123	37050.675
2765.65573	36952.175
2768.22863	36947.575
2770.79994	36874.375
2773.36967	36887.875
2775.9378	36780.475
2778.50435	36703.675
2781.06932	36633.375
2783.6327	36602.275
2786.1945	36580.875
2788.75471	36493.375
2791.31335	36352.875
2793.87041	36245.975
2796.42589	36158.675
2798.97979	36171.375
2801.53212	36097.075
2804.08288	36085.275
2806.63206	35974.175
2809.17967	35870.075
2811.72571	35767.275
2814.27018	35622.875
2816.81308	35558.175
2819.35442	35488.475
2821.89419	35390.775
2824.43239	35356.675
2826.96904	35296.275
2829.50412	35245.275
2832.03763	35188.575
2834.56959	35142.975
2837.1	35103.675
2839.62884	35108.975
2842.15613	35014.675
2844.68186	34959.375
2847.20604	34839.575
2849.72867	34832.375
2852.24974	34798.975
2854.76927	34766.875
2857.28724	34679.875
2859.80367	34680.875
2862.31855	34635.975
2864.83189	34611.075
2867.34368	34557.475
2869.85393	34517.075
2872.36264	34377.175
2874.8698	34315.675
2877.37543	34284.275
2879.87952	34291.575
2882.38207	34288.875
2884.88308	34254.375
2887.38256	34286.375
2889.88051	34246.275
2892.37692	34270.875
2894.8718	34215.575
2897.36515	34245.475
2899.85698	34126.075
2902.34727	34197.475
2904.83604	34169.075
2907.32328	34245.775
2909.809	34220.075
2912.29319	34212.375
2914.77587	34162.375
2917.25702	34158.875
2919.73665	34149.075
2922.21476	34119.675
2924.69136	34016.275
2927.16644	34046.975
2929.64	34006.275
2932.11205	33989.775
2934.58258	33822.675
2937.05161	33826.775
2939.51912	33810.875
2941.98513	33837.975
2944.44962	33787.075
2946.91261	33652.175
2949.37409	33756.675
2951.83407	33688.275
2954.29254	33736.775
2956.74951	33716.375
2959.20498	33687.175
2961.65895	33630.175
2964.11142	33727.475
2966.56239	33691.175
2969.01186	33603.075
2971.45984	33585.075
2973.90632	33533.675
2976.35131	33414.075
2978.7948	33387.775
2981.23681	33360.775
2983.67732	33327.875
2986.11635	33332.075
2988.55388	33272.875
2990.98993	33189.375
2993.4245	33079.475
2995.85758	33003.975
2998.28917	32912.175
3000.71928	32830.375
3003.14791	32813.275
3005.57506	32747.375
3008.00073	32571.375
3010.42493	32612.975
3012.84764	32514.175
3015.26888	32504.275
3017.68865	32480.075
3020.10694	32417.075
3022.52376	32307.375
3024.9391	32255.275
3027.35298	32249.375
3029.76539	32220.975
3032.17632	32205.475
3034.5858	32199.775
3036.9938	32192.175
3039.40034	32078.575
3041.80542	32046.275
3044.20903	31936.775
3046.61118	31941.075
3049.01187	31794.175
3051.4111	31775.575
3053.80888	31677.375
3056.20519	31710.675
3058.60005	31609.375
3060.99345	31520.575
3063.3854	31410.175
3065.7759	31280.075
3068.16494	31267.175
3070.55254	31166.975
3072.93868	31155.975
3075.32338	31030.575
3077.70662	30978.275
3080.08842	30905.475
3082.46878	30842.275
3084.84769	30800.675
3087.22515	30852.875
3089.60118	30819.875
3091.97576	30783.175
3094.3489	30764.075
3096.72061	30737.575
3099.09087	30745.175
3101.4597	30689.275
3103.82709	30780.675
3106.19305	30740.775
3108.55757	30674.075
3110.92066	30545.175
3113.28232	30515.375
3115.64255	30487.575
3118.00134	30393.875
3120.35871	30376.875
3122.71466	30286.975
3125.06917	30201.975
3127.42226	30075.875
3129.77393	30081.775
