Data from AgNPs_UA_5uM_CRN_0uM_R6G_10uM_Q_RamanShift__33__11-27-45-331.txt Node

Date: Mon Jul 18 11:27:45 BST 2022
User: TCL
Spectrometer: QEP01345
Trigger mode: 4
Integration Time (sec): 7.000000E0
Scans to average: 10
Electric dark correction enabled: true
Nonlinearity correction enabled: false
Boxcar width: 0
XAxis mode: Raman Shifts
Number of Pixels in Spectrum: 1044
>>>>>Begin Spectral Data<<<<<
46.04893	0.0625
50.45542	-1.7375
54.85868	-0.5375
59.25871	-1.3375
63.6555	86.8625
68.04907	88.4625
72.43941	95.4625
76.82654	98.1625
81.21044	103.5625
85.59113	103.0625
89.96862	109.7625
94.34289	114.2625
98.71396	121.3625
103.08183	121.5625
107.4465	123.5625
111.80798	125.3625
116.16626	133.4625
120.52136	138.8625
124.87327	138.1625
129.222	152.9625
133.56755	158.3625
137.90993	174.5625
142.24913	189.6625
146.58517	206.9625
150.91804	239.7625
155.24774	286.3625
159.57429	358.0625
163.89768	462.2625
168.21792	613.0625
172.53501	836.8625
176.84895	1155.6625
181.15975	1610.9625
185.46741	2247.4625
189.77193	3079.1625
194.07331	4121.7625
198.37157	5283.1625
202.6667	6496.1625
206.9587	7704.4625
211.24758	8960.3625
215.53334	10213.1625
219.81599	11587.2625
224.09553	13212.0625
228.37195	15003.2625
232.64527	16933.0625
236.91549	18885.3625
241.18261	20678.6625
245.44663	22164.6625
249.70755	23399.2625
253.96539	24413.0625
258.22014	25283.4625
262.4718	26051.5625
266.72039	26631.0625
270.96589	26874.6625
275.20832	26817.1625
279.44768	26502.2625
283.68397	26052.4625
287.91719	25800.1625
292.14735	25842.5625
296.37445	26327.0625
300.59849	27337.8625
304.81948	28403.8625
309.03742	29159.6625
313.25231	29026.8625
317.46415	27784.5625
321.67296	25922.8625
325.87872	24511.1625
330.08145	23892.7625
334.28114	23915.1625
338.47781	24342.2625
342.67145	25024.8625
346.86207	26076.1625
351.04966	27509.6625
355.23424	29187.6625
359.4158	30508.3625
363.59435	31326.9625
367.76989	31649.7625
371.94243	31734.7625
376.11196	31662.8625
380.27849	31648.4625
384.44203	31506.1625
388.60257	31226.8625
392.76012	31131.0625
396.91468	31530.4625
401.06626	32396.4625
405.21485	32939.3625
409.36047	32361.5625
413.50311	30929.1625
417.64277	29670.9625
421.77947	28927.9625
425.9132	28752.4625
430.04396	28902.2625
434.17176	29375.8625
438.2966	30255.3625
442.41849	31543.9625
446.53742	33087.2625
450.6534	34674.0625
454.76644	35701.0625
458.87653	35812.4625
462.98368	35129.3625
467.08789	33966.4625
471.18916	32635.2625
475.2875	31315.3625
479.38291	30141.6625
483.4754	29277.0625
487.56496	28617.2625
491.6516	28008.6625
495.73531	27655.6625
499.81612	27550.5625
503.89401	27874.8625
507.96899	28187.5625
512.04106	28563.2625
516.11023	29087.8625
520.1765	29442.1625
524.23987	29503.2625
528.30034	29270.9625
532.35792	28854.2625
536.41261	28302.8625
540.46441	27705.1625
544.51333	27500.7625
548.55936	27731.6625
552.60252	28347.8625
556.64279	28835.2625
560.6802	28939.8625
564.71473	29348.4625
568.7464	30401.1625
572.7752	30979.4625
576.80114	30344.5625
580.82422	29773.7625
584.84444	29992.0625
588.86181	30814.3625
592.87633	31788.0625
596.888	32677.6625
600.89682	34144.7625
604.9028	38725.3625
608.90594	48966.9625
612.90624	58854.2625
616.90371	52806.5625
620.89834	37589.9625
624.89015	31363.8625
628.87913	30151.1625
632.86528	30005.6625
636.84862	29784.6625
640.82913	28989.7625
644.80683	27698.1625
648.78172	26971.2625
652.75379	27365.9625
656.72306	28746.9625
660.68952	30059.7625
664.65319	29516.7625
668.61405	28226.2625
672.57211	27727.9625
676.52738	27586.0625
680.47986	27436.5625
684.42955	27132.2625
688.37646	27077.1625
692.32058	27192.9625
696.26192	27543.6625
700.20048	27930.1625
704.13626	28007.9625
708.06928	27697.6625
711.99952	27409.4625
715.927	27452.6625
719.85171	27531.5625
723.77365	27386.7625
727.69284	27015.5625
731.60928	26870.1625
735.52295	27032.4625
739.43388	27314.9625
743.34206	27645.8625
747.24749	27934.2625
751.15017	28266.7625
755.05012	28960.9625
758.94733	30581.5625
762.8418	34017.7625
766.73354	39289.1625
770.62254	44585.8625
774.50882	46962.1625
778.39237	44298.3625
782.27321	38228.0625
786.15132	32720.5625
790.02671	29610.1625
793.89938	28297.3625
797.76935	27817.7625
801.6366	27562.1625
805.50115	27354.4625
809.36299	27238.8625
813.22213	27055.9625
817.07857	26938.0625
820.93231	26984.6625
824.78336	27088.1625
828.63172	27280.8625
832.47738	27341.7625
836.32036	27336.0625
840.16066	27225.0625
843.99827	27152.8625
847.8332	26979.4625
851.66546	26842.0625
855.49504	26850.0625
859.32195	26738.5625
863.1462	26552.1625
866.96777	26480.8625
870.78668	26472.7625
874.60293	26553.8625
878.41652	26653.7625
882.22745	26922.6625
886.03573	27025.8625
889.84136	26901.1625
893.64433	26695.9625
897.44466	26640.5625
901.24235	26625.4625
905.0374	26583.1625
908.8298	26457.2625
912.61957	26515.3625
916.40671	26711.0625
920.19121	27051.4625
923.97308	27487.3625
927.75233	27967.0625
931.52895	28160.7625
935.30295	27754.8625
939.07433	26912.2625
942.84309	26294.6625
946.60924	25961.7625
950.37278	25728.6625
954.13371	25481.1625
957.89203	25356.2625
961.64774	25311.3625
965.40086	25204.7625
969.15137	25084.0625
972.89929	25100.7625
976.64461	25178.1625
980.38733	25282.7625
984.12747	25489.7625
987.86502	25757.6625
991.59999	26168.5625
995.33237	26962.7625
999.06217	28342.4625
1002.78939	29840.6625
1006.51404	30762.1625
1010.23611	31383.1625
1013.95561	32074.7625
1017.67255	32415.3625
1021.38692	31974.5625
1025.09872	31282.6625
1028.80796	31199.1625
1032.51465	31834.5625
1036.21877	32475.9625
1039.92035	32516.1625
1043.61937	31969.4625
1047.31584	31006.8625
1051.00976	30052.6625
1054.70114	29508.4625
1058.38998	29457.4625
1062.07627	29618.5625
1065.76003	29679.9625
1069.44126	29811.9625
1073.11995	30058.3625
1076.79611	30398.9625
1080.46974	30854.6625
1084.14085	31618.3625
1087.80943	32407.7625
1091.47549	32574.5625
1095.13903	31844.5625
1098.80005	30705.8625
1102.45857	29936.5625
1106.11456	29752.0625
1109.76805	30100.6625
1113.41903	30866.8625
1117.06751	31937.2625
1120.71348	33186.7625
1124.35696	34474.1625
1127.99793	35500.5625
1131.63641	35208.4625
1135.2724	33729.3625
1138.90589	32385.3625
1142.5369	31524.9625
1146.16542	31003.1625
1149.79145	30720.5625
1153.415	30970.9625
1157.03607	31352.7625
1160.65467	32151.7625
1164.27079	33466.7625
1167.88443	35517.9625
1171.49561	38797.6625
1175.10432	43952.2625
1178.71056	50686.1625
1182.31434	56470.2625
1185.91565	59248.6625
1189.51451	58875.6625
1193.11091	55349.1625
1196.70485	50227.3625
1200.29634	45978.5625
1203.88538	42801.4625
1207.47197	40056.3625
1211.05612	38144.2625
1214.63782	37342.3625
1218.21708	37377.2625
1221.79391	37805.1625
1225.36829	38114.5625
1228.94024	38231.4625
1232.50976	38281.7625
1236.07685	38446.7625
1239.6415	38783.7625
1243.20374	38952.9625
1246.76355	39028.8625
1250.32093	39531.1625
1253.8759	40647.7625
1257.42845	42272.6625
1260.97859	43803.1625
1264.52631	45109.3625
1268.07163	46342.0625
1271.61453	47457.9625
1275.15503	48529.7625
1278.69312	49574.0625
1282.22882	50574.4625
1285.76211	52127.1625
1289.29301	53908.3625
1292.82151	55641.9625
1296.34761	57410.0625
1299.87133	59937.2625
1303.39266	64132.6625
1306.9116	70489.7625
1310.42815	77456.6625
1313.94233	81362.4625
1317.45412	80321.4625
1320.96354	76498.5625
1324.47058	72806.7625
1327.97525	70431.8625
1331.47754	70146.1625
1334.97747	70950.5625
1338.47502	71799.5625
1341.97022	72483.3625
1345.46305	73423.2625
1348.95352	75513.8625
1352.44163	78751.9625
1355.92738	84112.5625
1359.41078	92348.9625
1362.89183	99285.0625
1366.37053	95671.5625
1369.84688	82585.4625
1373.32088	69448.7625
1376.79254	61151.7625
1380.26186	57227.9625
1383.72883	55679.8625
1387.19347	54289.9625
1390.65578	51986.5625
1394.11575	49954.2625
1397.57339	49194.1625
1401.0287	50016.0625
1404.48168	52013.6625
1407.93234	54515.6625
1411.38068	56728.3625
1414.82669	57050.0625
1418.27039	55246.2625
1421.71177	53000.3625
1425.15083	51583.7625
1428.58758	51536.1625
1432.02203	52501.0625
1435.45416	53572.5625
1438.88399	54136.9625
1442.31151	54134.4625
1445.73673	54219.9625
1449.15965	54017.7625
1452.58027	53104.4625
1455.9986	51790.2625
1459.41463	51206.6625
1462.82837	51589.1625
1466.23982	52920.5625
1469.64898	54572.1625
1473.05586	55766.7625
1476.46045	56836.0625
1479.86276	57840.3625
1483.26279	58816.7625
1486.66054	59873.6625
1490.05602	61258.2625
1493.44922	63122.1625
1496.84016	65612.2625
1500.22882	69555.6625
1503.61521	74923.7625
1506.99934	81142.5625
1510.38121	86024.9625
1513.76081	86735.3625
1517.13816	81862.0625
1520.51324	73848.3625
1523.88607	66586.1625
1527.25665	62137.9625
1530.62498	59839.8625
1533.99105	58517.9625
1537.35488	57637.4625
1540.71647	57057.3625
1544.07581	56424.4625
1547.4329	55405.6625
1550.78776	54065.6625
1554.14038	52652.8625
1557.49077	51806.9625
1560.83892	51538.9625
1564.18484	51913.2625
1567.52853	52636.9625
1570.86999	53425.7625
1574.20922	54011.0625
1577.54624	53697.8625
1580.88103	51772.7625
1584.2136	49758.8625
1587.54395	49663.3625
1590.87208	52358.1625
1594.19801	57953.5625
1597.52172	64825.8625
1600.84321	69402.6625
1604.16251	68490.6625
1607.47959	63081.3625
1610.79447	55734.3625
1614.10715	48919.6625
1617.41763	44151.5625
1620.7259	41320.7625
1624.03199	40073.7625
1627.33587	40351.5625
1630.63757	41943.2625
1633.93707	44962.6625
1637.23439	49320.2625
1640.52951	55155.3625
1643.82246	61821.2625
1647.11321	67247.3625
1650.40179	68815.7625
1653.68819	63963.1625
1656.97241	54478.7625
1660.25446	45291.1625
1663.53433	38765.8625
1666.81203	34784.8625
1670.08756	32360.2625
1673.36092	30763.1625
1676.63211	29738.9625
1679.90115	28979.5625
1683.16801	28423.8625
1686.43272	28008.7625
1689.69527	27742.5625
1692.95567	27506.3625
1696.2139	27329.4625
1699.46999	27248.5625
1702.72392	27180.1625
1705.97571	27154.7625
1709.22535	27164.2625
1712.47284	27148.1625
1715.71819	27174.7625
1718.96139	27127.7625
1722.20246	26970.5625
1725.44139	26809.8625
1728.67818	26560.5625
1731.91284	26391.2625
1735.14537	26218.1625
1738.37576	26088.7625
1741.60403	26004.0625
1744.83017	25890.7625
1748.05418	25803.7625
1751.27607	25759.4625
1754.49584	25715.4625
1757.71349	25656.0625
1760.92903	25618.1625
1764.14244	25574.8625
1767.35375	25540.6625
1770.56294	25472.5625
1773.77002	25504.1625
1776.97499	25463.8625
1780.17785	25418.9625
1783.37861	25369.7625
1786.57727	25359.4625
1789.77382	25329.9625
1792.96828	25309.4625
1796.16064	25268.9625
1799.3509	25294.4625
1802.53907	25233.6625
1805.72514	25146.3625
1808.90913	25117.8625
1812.09102	25048.4625
1815.27083	24970.5625
1818.44856	24885.1625
1821.6242	24897.4625
1824.79776	24871.6625
1827.96924	24795.3625
1831.13864	24759.3625
1834.30597	24716.0625
1837.47122	24697.9625
1840.6344	24712.9625
1843.7955	24725.5625
1846.95454	24738.7625
1850.11151	24678.0625
1853.26642	24596.7625
1856.41926	24672.4625
1859.57004	24691.5625
1862.71876	24723.8625
1865.86542	24752.4625
1869.01003	24798.8625
1872.15258	24798.7625
1875.29308	24807.4625
1878.43152	24773.8625
1881.56792	24784.3625
1884.70227	24768.5625
1887.83457	24725.1625
1890.96482	24769.7625
1894.09304	24778.9625
1897.21921	24801.5625
1900.34335	24769.2625
1903.46544	24732.3625
1906.58551	24710.0625
1909.70353	24726.9625
1912.81953	24686.5625
1915.93349	24665.0625
1919.04543	24654.1625
1922.15534	24656.2625
1925.26322	24629.8625
1928.36908	24634.7625
1931.47292	24548.3625
1934.57473	24493.4625
1937.67453	24435.3625
1940.77232	24385.4625
1943.86808	24307.3625
1946.96184	24235.1625
1950.05358	24143.2625
1953.14331	24066.4625
1956.23103	23991.2625
1959.31675	23907.1625
1962.40046	23846.7625
1965.48217	23772.2625
1968.56188	23722.1625
1971.63959	23629.0625
1974.7153	23576.6625
1977.78901	23501.6625
1980.86073	23453.3625
1983.93046	23344.6625
1986.99819	23221.6625
1990.06394	23158.1625
1993.1277	23153.6625
1996.18947	23066.2625
1999.24925	23025.3625
2002.30706	22949.7625
2005.36288	22904.7625
2008.41672	22866.4625
2011.46859	22811.1625
2014.51848	22747.3625
2017.56639	22739.4625
2020.61233	22672.3625
2023.6563	22625.2625
2026.6983	22490.0625
2029.73833	22453.2625
2032.7764	22384.9625
2035.8125	22394.8625
2038.84664	22309.1625
2041.87881	22288.6625
2044.90903	22280.2625
2047.93729	22197.7625
2050.96359	22266.1625
2053.98794	22177.7625
2057.01034	22218.0625
2060.03078	22195.9625
2063.04927	22119.4625
2066.06582	22064.1625
2069.08042	22025.8625
2072.09307	22050.2625
2075.10378	21991.8625
2078.11255	21986.5625
2081.11938	21981.5625
2084.12426	21930.2625
2087.12722	21886.2625
2090.12824	21885.9625
2093.12732	21932.0625
2096.12447	21907.4625
2099.11969	21893.4625
2102.11299	21913.8625
2105.10435	21889.6625
2108.09379	21901.0625
2111.08131	21897.5625
2114.0669	21868.3625
2117.05057	21876.6625
2120.03233	21896.6625
2123.01216	21880.6625
2125.99008	21876.4625
2128.96609	21923.1625
2131.94018	21913.4625
2134.91236	21910.6625
2137.88263	21902.4625
2140.851	21940.2625
2143.81746	21911.7625
2146.78201	21921.8625
2149.74466	21920.3625
2152.7054	21901.1625
2155.66425	21873.5625
2158.6212	21845.3625
2161.57625	21841.4625
2164.52941	21819.9625
2167.48067	21793.6625
2170.43004	21839.2625
2173.37752	21779.3625
2176.32311	21748.6625
2179.26681	21792.0625
2182.20863	21816.2625
2185.14856	21857.1625
2188.08661	21871.5625
2191.02278	21865.1625
2193.95707	21851.9625
2196.88948	21838.1625
2199.82001	21823.5625
2202.74867	21838.0625
2205.67545	21832.8625
2208.60037	21778.4625
2211.52341	21731.2625
2214.44458	21744.3625
2217.36388	21651.2625
2220.28132	21659.7625
2223.1969	21566.5625
2226.11061	21565.9625
2229.02246	21497.8625
2231.93245	21509.4625
2234.84058	21430.0625
2237.74686	21371.8625
2240.65128	21334.6625
2243.55385	21310.2625
2246.45456	21307.6625
2249.35343	21295.6625
2252.25044	21253.9625
2255.14561	21296.4625
2258.03893	21241.6625
2260.93041	21186.3625
2263.82004	21154.3625
2266.70783	21104.7625
2269.59378	21050.2625
2272.4779	21023.6625
2275.36017	20947.5625
2278.24061	20896.8625
2281.11922	20834.7625
2283.996	20754.4625
2286.87094	20750.2625
2289.74405	20721.8625
2292.61534	20698.8625
2295.4848	20664.2625
2298.35243	20666.6625
2301.21824	20634.8625
2304.08223	20678.5625
2306.94439	20670.8625
2309.80474	20686.5625
2312.66327	20725.3625
2315.51999	20730.7625
2318.37489	20745.5625
2321.22797	20734.8625
2324.07925	20729.6625
2326.92871	20701.3625
2329.77637	20662.3625
2332.62222	20668.6625
2335.46626	20646.6625
2338.3085	20721.9625
2341.14893	20761.2625
2343.98756	20734.5625
2346.8244	20781.5625
2349.65943	20820.1625
2352.49267	20861.4625
2355.32411	20854.4625
2358.15376	20862.5625
2360.98161	20824.4625
2363.80768	20829.1625
2366.63195	20797.4625
2369.45444	20762.6625
2372.27514	20722.4625
2375.09405	20692.9625
2377.91118	20616.7625
2380.72652	20496.6625
2383.54009	20459.2625
2386.35187	20430.6625
2389.16188	20369.3625
2391.97011	20303.6625
2394.77657	20251.0625
2397.58125	20226.7625
2400.38416	20181.8625
2403.18529	20106.1625
2405.98466	20092.8625
2408.78226	20048.5625
2411.57809	20034.7625
2414.37216	19966.3625
2417.16446	19904.9625
2419.955	19862.8625
2422.74378	19895.1625
2425.5308	19885.5625
2428.31606	19837.3625
2431.09956	19893.8625
2433.88131	19885.9625
2436.6613	19851.8625
2439.43954	19869.1625
2442.21603	19890.6625
2444.99077	19805.9625
2447.76377	19807.1625
2450.53501	19810.2625
2453.30451	19803.8625
2456.07226	19787.0625
2458.83827	19762.7625
2461.60254	19773.5625
2464.36507	19776.4625
2467.12586	19780.7625
2469.88492	19770.7625
2472.64224	19767.1625
2475.39782	19742.1625
2478.15167	19795.9625
2480.90379	19884.0625
2483.65417	19956.6625
2486.40283	19974.1625
2489.14976	20056.5625
2491.89497	20075.3625
2494.63845	20055.4625
2497.3802	20055.9625
2500.12024	20072.0625
2502.85855	20025.6625
2505.59514	20042.1625
2508.33002	19967.4625
2511.06318	19941.3625
2513.79462	19905.1625
2516.52435	19834.5625
2519.25237	19812.4625
2521.97867	19786.3625
2524.70327	19818.2625
2527.42616	19746.0625
2530.14734	19757.5625
2532.86681	19747.9625
2535.58458	19764.7625
2538.30065	19780.6625
2541.01501	19758.8625
2543.72768	19752.6625
2546.43864	19781.3625
2549.14791	19748.8625
2551.85548	19748.0625
2554.56136	19720.5625
2557.26554	19701.5625
2559.96803	19677.3625
2562.66883	19664.5625
2565.36794	19625.4625
2568.06536	19627.7625
2570.7611	19574.5625
2573.45514	19564.2625
2576.14751	19562.3625
2578.83819	19527.5625
2581.52719	19560.4625
2584.21451	19567.2625
2586.90015	19547.8625
2589.58411	19559.2625
2592.2664	19561.6625
2594.94701	19554.7625
2597.62594	19608.4625
2600.30321	19573.6625
2602.9788	19579.1625
2605.65273	19563.9625
2608.32498	19579.4625
2610.99557	19571.5625
2613.66449	19630.1625
2616.33175	19652.9625
2618.99734	19674.5625
2621.66128	19657.4625
2624.32355	19697.1625
2626.98416	19726.8625
2629.64311	19771.1625
2632.30041	19767.8625
2634.95605	19759.1625
2637.61004	19692.7625
2640.26238	19714.0625
2642.91306	19651.1625
2645.56209	19609.8625
2648.20948	19606.4625
2650.85521	19588.7625
2653.4993	19571.7625
2656.14175	19616.5625
2658.78255	19628.0625
2661.42171	19666.1625
2664.05923	19795.9625
2666.6951	19815.0625
2669.32934	19864.2625
2671.96194	19871.4625
2674.59291	19918.2625
2677.22224	19851.9625
2679.84993	19901.9625
2682.476	19861.7625
2685.10043	19863.5625
2687.72324	19825.4625
2690.34441	19858.4625
2692.96396	19837.4625
2695.58188	19848.4625
2698.19818	19794.3625
2700.81285	19822.8625
2703.4259	19777.7625
2706.03733	19837.6625
2708.64714	19839.1625
2711.25533	19849.4625
2713.86191	19851.6625
2716.46687	19937.0625
2719.07021	19914.8625
2721.67194	19931.6625
2724.27206	19941.0625
2726.87057	19963.3625
2729.46747	19942.9625
2732.06276	19975.4625
2734.65644	19926.9625
2737.24852	19976.7625
2739.83899	19984.4625
2742.42786	19961.6625
2745.01513	19885.7625
2747.60079	19903.7625
2750.18486	19892.1625
2752.76733	19924.0625
2755.3482	19885.1625
2757.92747	19975.1625
2760.50515	19930.6625
2763.08123	19911.5625
2765.65573	19923.4625
2768.22863	19887.7625
2770.79994	19895.1625
2773.36967	19945.1625
2775.9378	19941.7625
2778.50435	19933.4625
2781.06932	19948.4625
2783.6327	19997.3625
2786.1945	19987.5625
2788.75471	19958.6625
2791.31335	19907.3625
2793.87041	19896.0625
2796.42589	19855.5625
2798.97979	19891.5625
2801.53212	19845.0625
2804.08288	19816.2625
2806.63206	19768.6625
2809.17967	19775.4625
2811.72571	19761.5625
2814.27018	19746.5625
2816.81308	19677.6625
2819.35442	19694.5625
2821.89419	19703.1625
2824.43239	19719.1625
2826.96904	19728.7625
2829.50412	19748.6625
2832.03763	19721.0625
2834.56959	19764.2625
2837.1	19745.1625
2839.62884	19781.6625
2842.15613	19732.8625
2844.68186	19725.8625
2847.20604	19713.0625
2849.72867	19715.7625
2852.24974	19702.7625
2854.76927	19643.3625
2857.28724	19635.7625
2859.80367	19658.8625
2862.31855	19677.2625
2864.83189	19655.3625
2867.34368	19631.2625
2869.85393	19643.2625
2872.36264	19597.8625
2874.8698	19591.4625
2877.37543	19562.0625
2879.87952	19502.5625
2882.38207	19470.8625
2884.88308	19470.8625
2887.38256	19489.6625
2889.88051	19441.2625
2892.37692	19400.7625
2894.8718	19458.6625
2897.36515	19513.2625
2899.85698	19470.8625
2902.34727	19465.8625
2904.83604	19523.4625
2907.32328	19558.2625
2909.809	19621.7625
2912.29319	19613.2625
2914.77587	19586.0625
2917.25702	19616.0625
2919.73665	19549.7625
2922.21476	19588.2625
2924.69136	19548.5625
2927.16644	19534.2625
2929.64	19495.8625
2932.11205	19464.6625
2934.58258	19387.3625
2937.05161	19382.8625
2939.51912	19374.5625
2941.98513	19346.5625
2944.44962	19305.8625
2946.91261	19240.9625
2949.37409	19239.6625
2951.83407	19182.2625
2954.29254	19155.3625
2956.74951	19144.9625
2959.20498	19086.5625
2961.65895	19055.1625
2964.11142	19045.7625
2966.56239	18992.2625
2969.01186	18967.7625
2971.45984	18930.4625
2973.90632	18878.3625
2976.35131	18837.8625
2978.7948	18778.4625
2981.23681	18705.4625
2983.67732	18694.9625
2986.11635	18629.0625
2988.55388	18541.9625
2990.98993	18511.5625
2993.4245	18417.1625
2995.85758	18354.4625
2998.28917	18277.3625
3000.71928	18265.8625
3003.14791	18192.6625
3005.57506	18126.3625
3008.00073	18055.4625
3010.42493	17976.7625
3012.84764	17963.1625
3015.26888	17943.4625
3017.68865	17903.9625
3020.10694	17856.4625
3022.52376	17747.4625
3024.9391	17734.1625
