Data from AgNPs_UA_100uM_CRN_0uM_R6G_10uM_Q_RamanShift__13__13-27-35-324.txt Node

Date: Tue Jul 26 13:27:35 BST 2022
User: TCL
Spectrometer: QEP01345
Trigger mode: 4
Integration Time (sec): 7.000000E0
Scans to average: 10
Electric dark correction enabled: true
Nonlinearity correction enabled: false
Boxcar width: 0
XAxis mode: Raman Shifts
Number of Pixels in Spectrum: 1044
>>>>>Begin Spectral Data<<<<<
46.04893	-0.625
50.45542	0.575
54.85868	-0.425
59.25871	-0.125
63.6555	65.675
68.04907	70.575
72.43941	76.175
76.82654	76.975
81.21044	81.175
85.59113	83.175
89.96862	86.975
94.34289	92.075
98.71396	94.475
103.08183	95.875
107.4465	96.175
111.80798	98.275
116.16626	100.975
120.52136	102.475
124.87327	104.575
129.222	110.675
133.56755	111.675
137.90993	115.975
142.24913	121.075
146.58517	128.975
150.91804	137.875
155.24774	162.475
159.57429	188.275
163.89768	231.675
168.21792	296.075
172.53501	385.975
176.84895	531.075
181.15975	745.475
185.46741	1036.275
189.77193	1430.375
194.07331	1899.075
198.37157	2442.075
202.6667	3007.875
206.9587	3558.175
211.24758	4089.975
215.53334	4630.275
219.81599	5207.575
224.09553	5805.575
228.37195	6474.975
232.64527	7219.675
236.91549	8062.175
241.18261	8891.875
245.44663	9714.275
249.70755	10505.475
253.96539	11198.175
258.22014	11764.575
262.4718	12196.575
266.72039	12444.575
270.96589	12624.875
275.20832	12566.575
279.44768	12475.375
283.68397	12303.775
287.91719	12144.675
292.14735	12012.175
296.37445	11869.775
300.59849	11809.075
304.81948	11772.575
309.03742	11742.975
313.25231	11693.175
317.46415	11650.075
321.67296	11617.475
325.87872	11580.575
330.08145	11626.175
334.28114	11722.575
338.47781	11844.575
342.67145	11995.775
346.86207	12147.075
351.04966	12350.375
355.23424	12541.675
359.4158	12699.375
363.59435	12874.375
367.76989	13060.775
371.94243	13194.475
376.11196	13339.375
380.27849	13487.975
384.44203	13577.075
388.60257	13692.975
392.76012	13811.675
396.91468	13963.275
401.06626	14080.375
405.21485	14245.375
409.36047	14311.775
413.50311	14293.975
417.64277	14301.375
421.77947	14331.275
425.9132	14382.475
430.04396	14500.175
434.17176	14606.675
438.2966	14727.975
442.41849	14873.775
446.53742	15002.075
450.6534	15158.775
454.76644	15292.175
458.87653	15381.875
462.98368	15470.675
467.08789	15481.875
471.18916	15526.675
475.2875	15536.575
479.38291	15525.375
483.4754	15502.775
487.56496	15535.975
491.6516	15524.175
495.73531	15596.175
499.81612	15609.775
503.89401	15720.175
507.96899	15799.375
512.04106	15788.075
516.11023	15828.975
520.1765	15868.675
524.23987	15924.275
528.30034	15948.375
532.35792	15990.175
536.41261	15948.875
540.46441	15976.275
544.51333	15976.075
548.55936	16052.675
552.60252	16132.275
556.64279	16261.675
560.6802	16318.175
564.71473	16368.375
568.7464	16366.875
572.7752	16385.975
576.80114	16458.075
580.82422	16507.175
584.84444	16595.175
588.86181	16644.875
592.87633	16687.075
596.888	16781.375
600.89682	16945.875
604.9028	17292.675
608.90594	17953.175
612.90624	18512.375
616.90371	18191.675
620.89834	17337.775
624.89015	17009.775
628.87913	16999.575
632.86528	17104.375
636.84862	17218.675
640.82913	17230.775
644.80683	17167.575
648.78172	17164.775
652.75379	17176.775
656.72306	17291.875
660.68952	17424.075
664.65319	17424.575
668.61405	17447.575
672.57211	17520.775
676.52738	17548.675
680.47986	17553.275
684.42955	17552.175
688.37646	17559.775
692.32058	17626.875
696.26192	17713.575
700.20048	17815.075
704.13626	17918.575
708.06928	17928.275
711.99952	17922.475
715.927	17881.975
719.85171	17888.175
723.77365	17904.575
727.69284	17939.575
731.60928	17901.775
735.52295	17917.075
739.43388	17951.875
743.34206	18014.775
747.24749	18082.675
751.15017	18109.075
755.05012	18188.075
758.94733	18286.275
762.8418	18474.075
766.73354	18811.675
770.62254	19149.775
774.50882	19381.475
778.39237	19257.875
782.27321	18989.675
786.15132	18684.675
790.02671	18474.675
793.89938	18382.875
797.76935	18323.275
801.6366	18334.675
805.50115	18313.975
809.36299	18329.975
813.22213	18315.875
817.07857	18369.775
820.93231	18379.875
824.78336	18424.975
828.63172	18476.475
832.47738	18458.575
836.32036	18472.975
840.16066	18519.675
843.99827	18519.275
847.8332	18568.975
851.66546	18604.575
855.49504	18604.375
859.32195	18666.575
863.1462	18682.475
866.96777	18709.875
870.78668	18719.375
874.60293	18785.475
878.41652	18828.375
882.22745	18866.475
886.03573	18921.275
889.84136	18955.775
893.64433	18931.175
897.44466	18902.075
901.24235	18949.775
905.0374	18944.575
908.8298	18947.275
912.61957	18919.075
916.40671	18908.975
920.19121	18966.275
923.97308	18957.975
927.75233	18940.575
931.52895	18968.675
935.30295	18932.875
939.07433	18901.875
942.84309	18845.475
946.60924	18841.175
950.37278	18839.775
954.13371	18775.775
957.89203	18771.175
961.64774	18790.775
965.40086	18785.075
969.15137	18798.075
972.89929	18802.975
976.64461	18762.375
980.38733	18731.275
984.12747	18785.475
987.86502	18828.975
991.59999	18872.975
995.33237	18909.075
999.06217	18969.975
1002.78939	19060.075
1006.51404	19152.075
1010.23611	19241.875
1013.95561	19322.375
1017.67255	19358.275
1021.38692	19358.675
1025.09872	19333.075
1028.80796	19238.875
1032.51465	19250.175
1036.21877	19245.375
1039.92035	19234.875
1043.61937	19283.175
1047.31584	19287.375
1051.00976	19339.775
1054.70114	19369.175
1058.38998	19391.275
1062.07627	19475.075
1065.76003	19552.675
1069.44126	19627.475
1073.11995	19737.675
1076.79611	19850.975
1080.46974	19950.975
1084.14085	19968.475
1087.80943	19934.675
1091.47549	19972.275
1095.13903	19988.575
1098.80005	20024.775
1102.45857	19973.975
1106.11456	19917.275
1109.76805	19846.475
1113.41903	19821.175
1117.06751	19852.575
1120.71348	19884.275
1124.35696	19921.175
1127.99793	19964.175
1131.63641	19946.275
1135.2724	19935.375
1138.90589	19901.275
1142.5369	19834.275
1146.16542	19792.875
1149.79145	19755.875
1153.415	19711.875
1157.03607	19678.675
1160.65467	19668.375
1164.27079	19732.975
1167.88443	19881.075
1171.49561	20066.375
1175.10432	20319.875
1178.71056	20713.975
1182.31434	21049.275
1185.91565	21280.275
1189.51451	21414.075
1193.11091	21453.675
1196.70485	21414.375
1200.29634	21276.375
1203.88538	21111.175
1207.47197	20929.675
1211.05612	20735.075
1214.63782	20624.675
1218.21708	20478.075
1221.79391	20369.775
1225.36829	20314.675
1228.94024	20295.775
1232.50976	20289.175
1236.07685	20344.975
1239.6415	20356.175
1243.20374	20438.075
1246.76355	20457.675
1250.32093	20533.675
1253.8759	20618.275
1257.42845	20733.475
1260.97859	20948.875
1264.52631	21057.675
1268.07163	21120.775
1271.61453	21179.675
1275.15503	21196.475
1278.69312	21266.875
1282.22882	21209.975
1285.76211	21228.875
1289.29301	21246.275
1292.82151	21324.975
1296.34761	21421.375
1299.87133	21612.975
1303.39266	21789.675
1306.9116	22111.675
1310.42815	22408.275
1313.94233	22588.475
1317.45412	22567.675
1320.96354	22440.775
1324.47058	22300.075
1327.97525	22031.575
1331.47754	21902.075
1334.97747	21857.775
1338.47502	21939.875
1341.97022	22132.075
1345.46305	22437.675
1348.95352	22781.575
1352.44163	23082.575
1355.92738	23255.275
1359.41078	23422.175
1362.89183	23530.475
1366.37053	23167.575
1369.84688	22474.475
1373.32088	21732.975
1376.79254	21195.475
1380.26186	20862.175
1383.72883	20657.475
1387.19347	20443.275
1390.65578	20228.675
1394.11575	20084.175
1397.57339	19889.575
1401.0287	19811.875
1404.48168	19782.275
1407.93234	19791.875
1411.38068	19774.175
1414.82669	19793.775
1418.27039	19728.875
1421.71177	19678.275
1425.15083	19593.175
1428.58758	19549.175
1432.02203	19558.475
1435.45416	19506.675
1438.88399	19518.575
1442.31151	19493.575
1445.73673	19532.575
1449.15965	19506.375
1452.58027	19528.175
1455.9986	19532.375
1459.41463	19601.075
1462.82837	19715.475
1466.23982	19826.575
1469.64898	19984.075
1473.05586	20087.775
1476.46045	20193.575
1479.86276	20264.875
1483.26279	20324.175
1486.66054	20388.175
1490.05602	20475.475
1493.44922	20622.775
1496.84016	20835.175
1500.22882	21242.475
1503.61521	21671.875
1506.99934	22082.875
1510.38121	22310.775
1513.76081	22191.475
1517.13816	21908.875
1520.51324	21485.975
1523.88607	21148.275
1527.25665	20867.375
1530.62498	20780.775
1533.99105	20734.775
1537.35488	20694.375
1540.71647	20708.475
1544.07581	20708.775
1547.4329	20744.275
1550.78776	20710.075
1554.14038	20654.475
1557.49077	20661.075
1560.83892	20655.975
1564.18484	20651.875
1567.52853	20707.375
1570.86999	20765.575
1574.20922	20835.575
1577.54624	20811.775
1580.88103	20670.275
1584.2136	20516.375
1587.54395	20437.475
1590.87208	20449.875
1594.19801	20647.075
1597.52172	20870.075
1600.84321	21023.775
1604.16251	21021.775
1607.47959	20864.275
1610.79447	20653.075
1614.10715	20336.975
1617.41763	20005.475
1620.7259	19744.475
1624.03199	19587.675
1627.33587	19473.475
1630.63757	19435.775
1633.93707	19534.875
1637.23439	19691.175
1640.52951	19993.175
1643.82246	20369.275
1647.11321	20766.575
1650.40179	20937.875
1653.68819	20747.975
1656.97241	20333.875
1660.25446	19770.975
1663.53433	19366.375
1666.81203	19044.375
1670.08756	18886.875
1673.36092	18768.875
1676.63211	18686.675
1679.90115	18600.175
1683.16801	18526.775
1686.43272	18453.775
1689.69527	18407.575
1692.95567	18347.575
1696.2139	18337.675
1699.46999	18357.575
1702.72392	18288.975
1705.97571	18287.375
1709.22535	18279.475
1712.47284	18300.375
1715.71819	18270.675
1718.96139	18270.775
1722.20246	18281.675
1725.44139	18263.375
1728.67818	18187.875
1731.91284	18210.275
1735.14537	18143.475
1738.37576	18086.975
1741.60403	18058.375
1744.83017	18028.175
1748.05418	17998.675
1751.27607	17974.575
1754.49584	17980.275
1757.71349	17960.975
1760.92903	17914.275
1764.14244	17935.175
1767.35375	17942.175
1770.56294	17888.975
1773.77002	17929.375
1776.97499	17874.175
1780.17785	17858.775
1783.37861	17829.175
1786.57727	17854.275
1789.77382	17826.875
1792.96828	17839.875
1796.16064	17822.275
1799.3509	17787.575
1802.53907	17784.775
1805.72514	17719.575
1808.90913	17671.875
1812.09102	17635.475
1815.27083	17640.275
1818.44856	17638.975
1821.6242	17603.775
1824.79776	17563.175
1827.96924	17525.175
1831.13864	17510.475
1834.30597	17518.475
1837.47122	17478.875
1840.6344	17481.975
1843.7955	17427.275
1846.95454	17460.575
1850.11151	17435.275
1853.26642	17445.375
1856.41926	17439.775
1859.57004	17424.275
1862.71876	17409.575
1865.86542	17396.775
1869.01003	17379.175
1872.15258	17374.575
1875.29308	17352.275
1878.43152	17333.375
1881.56792	17300.375
1884.70227	17279.975
1887.83457	17228.375
1890.96482	17220.275
1894.09304	17208.075
1897.21921	17188.775
1900.34335	17139.075
1903.46544	17151.675
1906.58551	17128.975
1909.70353	17109.075
1912.81953	17104.175
1915.93349	17114.775
1919.04543	17086.775
1922.15534	17087.775
1925.26322	17040.275
1928.36908	17015.975
1931.47292	16963.575
1934.57473	16929.375
1937.67453	16892.875
1940.77232	16876.575
1943.86808	16824.875
1946.96184	16772.975
1950.05358	16728.475
1953.14331	16696.675
1956.23103	16650.175
1959.31675	16565.775
1962.40046	16566.175
1965.48217	16520.275
1968.56188	16466.775
1971.63959	16412.775
1974.7153	16330.275
1977.78901	16325.775
1980.86073	16272.475
1983.93046	16229.575
1986.99819	16181.875
1990.06394	16137.575
1993.1277	16118.675
1996.18947	16030.275
1999.24925	15984.175
2002.30706	15963.775
2005.36288	15914.775
2008.41672	15863.075
2011.46859	15825.475
2014.51848	15782.075
2017.56639	15732.675
2020.61233	15700.475
2023.6563	15681.575
2026.6983	15622.975
2029.73833	15590.975
2032.7764	15516.375
2035.8125	15490.075
2038.84664	15467.875
2041.87881	15460.075
2044.90903	15426.675
2047.93729	15396.975
2050.96359	15415.575
2053.98794	15403.475
2057.01034	15355.175
2060.03078	15354.775
2063.04927	15307.975
2066.06582	15305.275
2069.08042	15300.775
2072.09307	15284.175
2075.10378	15315.175
2078.11255	15287.675
2081.11938	15291.375
2084.12426	15266.675
2087.12722	15283.775
2090.12824	15247.175
2093.12732	15257.775
2096.12447	15254.875
2099.11969	15235.875
2102.11299	15256.875
2105.10435	15283.275
2108.09379	15265.675
2111.08131	15273.275
2114.0669	15266.375
2117.05057	15293.075
2120.03233	15301.575
2123.01216	15331.975
2125.99008	15322.375
2128.96609	15341.475
2131.94018	15387.575
2134.91236	15342.675
2137.88263	15382.075
2140.851	15390.175
2143.81746	15409.175
2146.78201	15434.175
2149.74466	15411.175
2152.7054	15411.775
2155.66425	15419.775
2158.6212	15429.375
2161.57625	15391.375
2164.52941	15409.375
2167.48067	15395.075
2170.43004	15359.775
2173.37752	15361.175
2176.32311	15352.175
2179.26681	15362.475
2182.20863	15346.975
2185.14856	15356.875
2188.08661	15363.975
2191.02278	15345.275
2193.95707	15312.475
2196.88948	15344.775
2199.82001	15341.975
2202.74867	15330.175
2205.67545	15297.075
2208.60037	15253.275
2211.52341	15258.775
2214.44458	15248.275
2217.36388	15187.075
2220.28132	15142.775
2223.1969	15107.575
2226.11061	15051.375
2229.02246	15053.875
2231.93245	15023.775
2234.84058	15038.975
2237.74686	15002.975
2240.65128	14956.675
2243.55385	14940.375
2246.45456	14932.075
2249.35343	14904.775
2252.25044	14902.175
2255.14561	14872.075
2258.03893	14839.275
2260.93041	14841.875
2263.82004	14766.275
2266.70783	14750.975
2269.59378	14749.975
2272.4779	14692.675
2275.36017	14672.575
2278.24061	14649.275
2281.11922	14626.575
2283.996	14575.875
2286.87094	14559.475
2289.74405	14517.075
2292.61534	14510.675
2295.4848	14488.075
2298.35243	14496.775
2301.21824	14477.375
2304.08223	14465.975
2306.94439	14459.575
2309.80474	14454.375
2312.66327	14433.175
2315.51999	14392.675
2318.37489	14404.075
2321.22797	14391.075
2324.07925	14325.575
2326.92871	14313.075
2329.77637	14290.675
2332.62222	14250.575
2335.46626	14214.575
2338.3085	14217.175
2341.14893	14156.775
2343.98756	14161.975
2346.8244	14128.175
2349.65943	14137.875
2352.49267	14116.975
2355.32411	14085.675
2358.15376	14043.075
2360.98161	14063.075
2363.80768	14031.475
2366.63195	14032.175
2369.45444	14043.475
2372.27514	14011.675
2375.09405	14012.875
2377.91118	13970.775
2380.72652	13965.375
2383.54009	13908.775
2386.35187	13902.975
2389.16188	13860.975
2391.97011	13869.075
2394.77657	13818.975
2397.58125	13787.275
2400.38416	13768.575
2403.18529	13763.875
2405.98466	13722.575
2408.78226	13702.775
2411.57809	13680.075
2414.37216	13678.675
2417.16446	13649.575
2419.955	13629.975
2422.74378	13603.575
2425.5308	13640.575
2428.31606	13606.975
2431.09956	13609.875
2433.88131	13575.175
2436.6613	13575.375
2439.43954	13539.675
2442.21603	13534.875
2444.99077	13521.075
2447.76377	13540.975
2450.53501	13500.575
2453.30451	13471.975
2456.07226	13385.875
2458.83827	13388.175
2461.60254	13425.975
2464.36507	13394.375
2467.12586	13364.775
2469.88492	13361.975
2472.64224	13368.475
2475.39782	13319.575
2478.15167	13304.075
2480.90379	13296.775
2483.65417	13248.675
2486.40283	13275.675
2489.14976	13260.075
2491.89497	13273.275
2494.63845	13234.575
2497.3802	13207.475
2500.12024	13207.675
2502.85855	13197.275
2505.59514	13179.475
2508.33002	13136.275
2511.06318	13136.575
2513.79462	13125.675
2516.52435	13117.275
2519.25237	13093.975
2521.97867	13080.575
2524.70327	13041.175
2527.42616	13012.375
2530.14734	13027.875
2532.86681	12989.475
2535.58458	12954.475
2538.30065	12940.775
2541.01501	12951.075
2543.72768	12917.675
2546.43864	12886.375
2549.14791	12865.975
2551.85548	12852.375
2554.56136	12811.175
2557.26554	12803.075
2559.96803	12791.775
2562.66883	12756.775
2565.36794	12743.975
2568.06536	12679.075
2570.7611	12631.675
2573.45514	12608.975
2576.14751	12648.375
2578.83819	12599.975
2581.52719	12597.375
2584.21451	12557.775
2586.90015	12543.475
2589.58411	12499.675
2592.2664	12484.575
2594.94701	12478.275
2597.62594	12444.175
2600.30321	12415.775
2602.9788	12363.575
2605.65273	12360.875
2608.32498	12380.975
2610.99557	12340.275
2613.66449	12324.475
2616.33175	12303.575
2618.99734	12258.475
2621.66128	12260.575
2624.32355	12244.775
2626.98416	12222.975
2629.64311	12206.475
2632.30041	12182.575
2634.95605	12153.075
2637.61004	12145.475
2640.26238	12124.775
2642.91306	12106.175
2645.56209	12089.675
2648.20948	12069.075
2650.85521	12071.175
2653.4993	12045.075
2656.14175	12022.675
2658.78255	12002.975
2661.42171	12013.175
2664.05923	12041.075
2666.6951	12016.075
2669.32934	12025.875
2671.96194	12007.975
2674.59291	12004.575
2677.22224	11996.575
2679.84993	12019.975
2682.476	11974.275
2685.10043	11983.975
2687.72324	11941.575
2690.34441	11985.375
2692.96396	11957.275
2695.58188	11941.275
2698.19818	11914.275
2700.81285	11937.375
2703.4259	11910.175
2706.03733	11913.575
2708.64714	11930.175
2711.25533	11921.775
2713.86191	11926.175
2716.46687	11923.975
2719.07021	11909.575
2721.67194	11919.375
2724.27206	11902.875
2726.87057	11902.975
2729.46747	11907.675
2732.06276	11899.675
2734.65644	11880.175
2737.24852	11892.175
2739.83899	11883.875
2742.42786	11858.275
2745.01513	11812.875
2747.60079	11798.675
2750.18486	11766.175
2752.76733	11760.375
2755.3482	11744.875
2757.92747	11714.875
2760.50515	11726.275
2763.08123	11716.875
2765.65573	11694.875
2768.22863	11661.975
2770.79994	11679.675
2773.36967	11624.475
2775.9378	11600.275
2778.50435	11609.575
2781.06932	11581.475
2783.6327	11563.075
2786.1945	11538.475
2788.75471	11531.475
2791.31335	11521.775
2793.87041	11468.575
2796.42589	11434.875
2798.97979	11430.875
2801.53212	11415.775
2804.08288	11402.675
2806.63206	11345.275
2809.17967	11316.475
2811.72571	11308.675
2814.27018	11230.675
2816.81308	11229.975
2819.35442	11198.375
2821.89419	11201.175
2824.43239	11170.375
2826.96904	11141.975
2829.50412	11141.475
2832.03763	11078.075
2834.56959	11068.375
2837.1	11056.675
2839.62884	11060.975
2842.15613	11046.275
2844.68186	11043.275
2847.20604	11030.375
2849.72867	11015.675
2852.24974	10958.675
2854.76927	10970.375
2857.28724	10942.375
2859.80367	10948.975
2862.31855	10925.775
2864.83189	10902.375
2867.34368	10863.975
2869.85393	10862.075
2872.36264	10844.975
2874.8698	10816.575
2877.37543	10793.675
2879.87952	10820.675
2882.38207	10785.875
2884.88308	10772.375
2887.38256	10813.475
2889.88051	10782.275
2892.37692	10794.475
2894.8718	10777.875
2897.36515	10801.575
2899.85698	10780.575
2902.34727	10784.075
2904.83604	10781.275
2907.32328	10809.275
2909.809	10794.875
2912.29319	10789.175
2914.77587	10757.175
2917.25702	10779.475
2919.73665	10753.675
2922.21476	10738.575
2924.69136	10754.175
2927.16644	10710.875
2929.64	10730.175
2932.11205	10706.575
2934.58258	10663.375
2937.05161	10682.275
2939.51912	10702.175
2941.98513	10713.675
2944.44962	10688.675
2946.91261	10643.875
2949.37409	10674.275
2951.83407	10636.975
2954.29254	10639.475
2956.74951	10636.575
2959.20498	10622.175
2961.65895	10616.775
2964.11142	10640.175
2966.56239	10612.075
2969.01186	10617.675
2971.45984	10620.275
2973.90632	10613.775
2976.35131	10598.075
2978.7948	10588.375
2981.23681	10542.675
2983.67732	10551.975
2986.11635	10521.875
2988.55388	10490.275
2990.98993	10484.575
2993.4245	10467.175
2995.85758	10473.475
2998.28917	10425.975
3000.71928	10436.075
3003.14791	10392.675
3005.57506	10361.875
3008.00073	10355.175
3010.42493	10331.475
3012.84764	10304.975
3015.26888	10316.175
3017.68865	10279.075
3020.10694	10263.975
3022.52376	10254.275
3024.9391	10235.275
3027.35298	10249.075
3029.76539	10228.175
3032.17632	10230.875
3034.5858	10187.675
3036.9938	10184.675
3039.40034	10166.275
3041.80542	10160.375
3044.20903	10128.075
3046.61118	10137.675
3049.01187	10101.875
3051.4111	10112.075
3053.80888	10086.575
3056.20519	10061.875
3058.60005	10035.775
3060.99345	10020.375
3063.3854	10007.775
3065.7759	9973.675
3068.16494	9981.375
3070.55254	9943.775
3072.93868	9964.975
3075.32338	9903.075
3077.70662	9884.975
3080.08842	9855.775
3082.46878	9857.975
3084.84769	9829.875
3087.22515	9836.675
3089.60118	9846.175
3091.97576	9838.575
3094.3489	9816.475
3096.72061	9864.975
3099.09087	9850.575
3101.4597	9836.875
3103.82709	9876.575
3106.19305	9878.675
3108.55757	9867.475
3110.92066	9838.775
3113.28232	9822.575
3115.64255	9817.975
3118.00134	9767.475
3120.35871	9778.075
3122.71466	9757.975
3125.06917	9768.075
3127.42226	9694.675
3129.77393	9731.275
3132.12417	9689.975
3134.47299	9683.375
