Data from AgNPs_UA_20uM_CRN_0uM_R6G_10uM_Q_RamanShift__6__12-43-22-009.txt Node

Date: Mon Jul 18 12:43:22 BST 2022
User: TCL
Spectrometer: QEP01345
Trigger mode: 4
Integration Time (sec): 7.000000E0
Scans to average: 10
Electric dark correction enabled: true
Nonlinearity correction enabled: false
Boxcar width: 0
XAxis mode: Raman Shifts
Number of Pixels in Spectrum: 1044
>>>>>Begin Spectral Data<<<<<
46.04893	-1.925
50.45542	-1.325
54.85868	0.075
59.25871	-0.525
63.6555	131.775
68.04907	137.975
72.43941	145.275
76.82654	152.275
81.21044	155.275
85.59113	159.375
89.96862	165.875
94.34289	175.475
98.71396	179.875
103.08183	185.975
107.4465	190.375
111.80798	198.675
116.16626	202.475
120.52136	209.475
124.87327	221.575
129.222	231.975
133.56755	251.475
137.90993	273.175
142.24913	298.875
146.58517	340.975
150.91804	400.075
155.24774	479.875
159.57429	595.575
163.89768	775.975
168.21792	1040.475
172.53501	1424.975
176.84895	1983.475
181.15975	2783.375
185.46741	3910.975
189.77193	5413.675
194.07331	7240.575
198.37157	9276.975
202.6667	11392.575
206.9587	13517.775
211.24758	15629.175
215.53334	17732.975
219.81599	20008.375
224.09553	22548.375
228.37195	25321.175
232.64527	28403.675
236.91549	31588.075
241.18261	34586.775
245.44663	37253.075
249.70755	39583.975
253.96539	41565.975
258.22014	43237.675
262.4718	44604.475
266.72039	45622.275
270.96589	46067.975
275.20832	46027.875
279.44768	45682.075
283.68397	45251.175
287.91719	44934.775
292.14735	44870.175
296.37445	45178.075
300.59849	45698.375
304.81948	46388.475
309.03742	46902.275
313.25231	46946.575
317.46415	46296.175
321.67296	45062.675
325.87872	44083.275
330.08145	43674.675
334.28114	43604.775
338.47781	44007.375
342.67145	44672.275
346.86207	45475.975
351.04966	46521.375
355.23424	47525.975
359.4158	48280.075
363.59435	48716.775
367.76989	48960.175
371.94243	48998.775
376.11196	49046.675
380.27849	49155.375
384.44203	49346.875
388.60257	49650.675
392.76012	50084.175
396.91468	50610.075
401.06626	51291.175
405.21485	51603.075
409.36047	51157.875
413.50311	50291.675
417.64277	49760.975
421.77947	49719.275
425.9132	49803.375
430.04396	50044.375
434.17176	50328.475
438.2966	50902.875
442.41849	52027.675
446.53742	53682.375
450.6534	55407.675
454.76644	56242.875
458.87653	56301.375
462.98368	55730.775
467.08789	54970.875
471.18916	53909.775
475.2875	52800.075
479.38291	51999.275
483.4754	51229.975
487.56496	50641.075
491.6516	50147.975
495.73531	49856.475
499.81612	49868.275
503.89401	50242.875
507.96899	50401.975
512.04106	50423.175
516.11023	50322.975
520.1765	50234.875
524.23987	50177.775
528.30034	50104.875
532.35792	49794.275
536.41261	49249.775
540.46441	48723.275
544.51333	48794.175
548.55936	49300.675
552.60252	50423.875
556.64279	51776.275
560.6802	52685.275
564.71473	53094.675
568.7464	53799.575
572.7752	55075.575
576.80114	56283.675
580.82422	57552.175
584.84444	59346.775
588.86181	61758.575
592.87633	63989.075
596.888	63826.475
600.89682	62022.275
604.9028	62724.275
608.90594	68363.175
612.90624	73463.375
616.90371	67212.075
620.89834	55880.675
624.89015	51504.675
628.87913	51147.875
632.86528	51549.675
636.84862	51487.675
640.82913	50520.375
644.80683	49140.575
648.78172	48400.475
652.75379	48513.375
656.72306	49506.575
660.68952	50397.175
664.65319	49816.975
668.61405	48892.875
672.57211	48848.175
676.52738	49107.375
680.47986	48848.475
684.42955	48363.275
688.37646	48306.275
692.32058	48720.175
696.26192	49457.775
700.20048	50184.775
704.13626	50554.975
708.06928	50374.475
711.99952	50106.175
715.927	50093.575
719.85171	50301.275
723.77365	50089.675
727.69284	49451.975
731.60928	48888.175
735.52295	48862.775
739.43388	49013.175
743.34206	49200.275
747.24749	49387.675
751.15017	49910.775
755.05012	50802.575
758.94733	52640.975
762.8418	56265.075
766.73354	61388.275
770.62254	65336.875
774.50882	65302.775
778.39237	61803.575
782.27321	57256.975
786.15132	53452.075
790.02671	51179.075
793.89938	49865.975
797.76935	49381.875
801.6366	49108.275
805.50115	48871.475
809.36299	48608.475
813.22213	48306.975
817.07857	48073.675
820.93231	48010.775
824.78336	47876.275
828.63172	47877.075
832.47738	47809.075
836.32036	47926.275
840.16066	47911.675
843.99827	47945.675
847.8332	47975.675
851.66546	48073.075
855.49504	48194.175
859.32195	48140.975
863.1462	48010.775
866.96777	47960.075
870.78668	47903.475
874.60293	47956.375
878.41652	48084.175
882.22745	48308.175
886.03573	48495.675
889.84136	48427.275
893.64433	48206.175
897.44466	48016.875
901.24235	47878.775
905.0374	47741.875
908.8298	47604.875
912.61957	47662.375
916.40671	48020.475
920.19121	48612.475
923.97308	49189.775
927.75233	49402.575
931.52895	49159.575
935.30295	48415.175
939.07433	47537.975
942.84309	46913.275
946.60924	46636.075
950.37278	46545.675
954.13371	46450.475
957.89203	46512.475
961.64774	46489.675
965.40086	46472.675
969.15137	46397.475
972.89929	46404.675
976.64461	46405.175
980.38733	46422.975
984.12747	46564.275
987.86502	46804.975
991.59999	47172.475
995.33237	47771.375
999.06217	48769.875
1002.78939	49946.175
1006.51404	50922.875
1010.23611	51659.875
1013.95561	52199.975
1017.67255	52301.375
1021.38692	51698.175
1025.09872	50857.575
1028.80796	50407.575
1032.51465	50787.075
1036.21877	51262.575
1039.92035	51469.475
1043.61937	51262.575
1047.31584	50835.875
1051.00976	50314.575
1054.70114	50169.775
1058.38998	50263.875
1062.07627	50666.275
1065.76003	51150.175
1069.44126	51820.275
1073.11995	52726.775
1076.79611	53534.575
1080.46974	54083.875
1084.14085	54666.275
1087.80943	55372.475
1091.47549	55672.775
1095.13903	55322.975
1098.80005	54199.975
1102.45857	53132.475
1106.11456	52396.475
1109.76805	52234.275
1113.41903	52547.875
1117.06751	53209.475
1120.71348	54047.075
1124.35696	54879.575
1127.99793	55431.675
1131.63641	55433.275
1135.2724	54793.475
1138.90589	54293.175
1142.5369	54165.875
1146.16542	54241.175
1149.79145	54546.775
1153.415	54974.875
1157.03607	55597.975
1160.65467	56882.375
1164.27079	59175.175
1167.88443	62104.575
1171.49561	65929.675
1175.10432	71099.575
1178.71056	77348.075
1182.31434	82553.175
1185.91565	84342.075
1189.51451	83097.975
1193.11091	80250.875
1196.70485	77003.775
1200.29634	73934.775
1203.88538	71426.975
1207.47197	69385.275
1211.05612	67620.675
1214.63782	66188.475
1218.21708	65175.175
1221.79391	64580.575
1225.36829	64333.075
1228.94024	63859.075
1232.50976	62795.575
1236.07685	61596.575
1239.6415	60907.875
1243.20374	60756.175
1246.76355	61123.775
1250.32093	62058.975
1253.8759	63221.375
1257.42845	64938.475
1260.97859	66824.775
1264.52631	68879.175
1268.07163	70924.075
1271.61453	72768.875
1275.15503	74677.375
1278.69312	76494.175
1282.22882	78151.175
1285.76211	80303.275
1289.29301	83102.975
1292.82151	86443.575
1296.34761	90558.875
1299.87133	95785.575
1303.39266	101850.375
1306.9116	108436.275
1310.42815	114424.275
1313.94233	117361.575
1317.45412	115908.575
1320.96354	112079.275
1324.47058	108108.575
1327.97525	104452.275
1331.47754	101842.875
1334.97747	100314.075
1338.47502	99622.975
1341.97022	99552.775
1345.46305	100041.375
1348.95352	100950.075
1352.44163	102589.875
1355.92738	106025.875
1359.41078	111910.975
1362.89183	116652.175
1366.37053	113868.275
1369.84688	103076.975
1373.32088	91057.575
1376.79254	83294.375
1380.26186	80249.475
1383.72883	79613.175
1387.19347	79226.175
1390.65578	78231.775
1394.11575	77665.375
1397.57339	77812.775
1401.0287	78154.875
1404.48168	78356.275
1407.93234	77968.175
1411.38068	76853.675
1414.82669	75190.575
1418.27039	72948.275
1421.71177	70900.175
1425.15083	69214.075
1428.58758	68648.175
1432.02203	69532.275
1435.45416	71408.875
1438.88399	72974.075
1442.31151	73860.975
1445.73673	74318.575
1449.15965	74528.175
1452.58027	74227.075
1455.9986	74005.175
1459.41463	74222.375
1462.82837	75328.675
1466.23982	76532.575
1469.64898	77777.575
1473.05586	78637.275
1476.46045	78908.275
1479.86276	78738.175
1483.26279	78559.475
1486.66054	78931.775
1490.05602	80097.875
1493.44922	81694.775
1496.84016	84016.575
1500.22882	87484.675
1503.61521	92280.175
1506.99934	97322.575
1510.38121	100569.175
1513.76081	100207.675
1517.13816	95976.675
1520.51324	90410.675
1523.88607	86070.875
1527.25665	83997.075
1530.62498	83388.475
1533.99105	82739.975
1537.35488	81541.075
1540.71647	79910.075
1544.07581	78036.675
1547.4329	76023.475
1550.78776	74349.975
1554.14038	73380.075
1557.49077	72878.975
1560.83892	72902.075
1564.18484	73471.275
1567.52853	74308.275
1570.86999	75300.175
1574.20922	76267.375
1577.54624	76559.575
1580.88103	75686.475
1584.2136	75049.575
1587.54395	76034.375
1590.87208	79125.775
1594.19801	83757.275
1597.52172	88255.275
1600.84321	89285.975
1604.16251	85917.675
1607.47959	80187.075
1610.79447	73927.575
1614.10715	68215.375
1617.41763	63648.475
1620.7259	60571.875
1624.03199	59092.175
1627.33587	59281.775
1630.63757	61172.975
1633.93707	65088.175
1637.23439	71705.175
1640.52951	81226.375
1643.82246	91984.775
1647.11321	100066.675
1650.40179	100724.375
1653.68819	92558.875
1656.97241	79869.275
1660.25446	68215.175
1663.53433	60018.875
1666.81203	54935.775
1670.08756	51811.975
1673.36092	49787.375
1676.63211	48547.975
1679.90115	47676.575
1683.16801	46880.575
1686.43272	46351.475
1689.69527	45955.075
1692.95567	45569.875
1696.2139	45375.675
1699.46999	45219.075
1702.72392	45126.375
1705.97571	45077.575
1709.22535	45046.575
1712.47284	44957.775
1715.71819	44904.175
1718.96139	44827.175
1722.20246	44653.575
1725.44139	44419.775
1728.67818	44144.175
1731.91284	43953.675
1735.14537	43745.375
1738.37576	43624.975
1741.60403	43427.175
1744.83017	43230.975
1748.05418	43132.175
1751.27607	43086.875
1754.49584	43059.175
1757.71349	42929.375
1760.92903	42956.775
1764.14244	42877.275
1767.35375	42842.275
1770.56294	42748.175
1773.77002	42700.175
1776.97499	42682.675
1780.17785	42558.075
1783.37861	42477.475
1786.57727	42382.175
1789.77382	42299.075
1792.96828	42231.875
1796.16064	42152.775
1799.3509	42072.575
1802.53907	41983.975
1805.72514	41837.975
1808.90913	41793.575
1812.09102	41719.375
1815.27083	41672.375
1818.44856	41603.675
1821.6242	41542.875
1824.79776	41518.075
1827.96924	41456.075
1831.13864	41299.475
1834.30597	41392.775
1837.47122	41338.975
1840.6344	41319.175
1843.7955	41275.475
1846.95454	41180.075
1850.11151	41319.775
1853.26642	41250.475
1856.41926	41266.275
1859.57004	41227.575
1862.71876	41186.775
1865.86542	41199.075
1869.01003	41209.275
1872.15258	41121.775
1875.29308	41073.275
1878.43152	40998.275
1881.56792	40979.375
1884.70227	40919.475
1887.83457	40923.175
1890.96482	40862.975
1894.09304	40819.675
1897.21921	40772.475
1900.34335	40764.175
1903.46544	40663.175
1906.58551	40573.975
1909.70353	40535.475
1912.81953	40589.475
1915.93349	40477.275
1919.04543	40381.575
1922.15534	40313.075
1925.26322	40274.775
1928.36908	40214.275
1931.47292	40092.675
1934.57473	40034.375
1937.67453	39936.775
1940.77232	39806.975
1943.86808	39631.675
1946.96184	39525.075
1950.05358	39442.075
1953.14331	39267.575
1956.23103	39134.475
1959.31675	39023.275
1962.40046	38941.575
1965.48217	38835.775
1968.56188	38758.575
1971.63959	38643.975
1974.7153	38559.975
1977.78901	38422.175
1980.86073	38325.575
1983.93046	38210.775
1986.99819	38122.275
1990.06394	38034.775
1993.1277	37893.575
1996.18947	37812.275
1999.24925	37764.875
2002.30706	37628.075
2005.36288	37562.475
2008.41672	37478.475
2011.46859	37406.675
2014.51848	37250.575
2017.56639	37201.975
2020.61233	37105.375
2023.6563	37032.575
2026.6983	36946.475
2029.73833	36816.775
2032.7764	36737.975
2035.8125	36706.375
2038.84664	36607.875
2041.87881	36566.475
2044.90903	36470.975
2047.93729	36380.175
2050.96359	36388.375
2053.98794	36319.375
2057.01034	36350.875
2060.03078	36299.375
2063.04927	36304.275
2066.06582	36257.175
2069.08042	36270.675
2072.09307	36255.575
2075.10378	36248.475
2078.11255	36222.975
2081.11938	36255.775
2084.12426	36126.775
2087.12722	36149.075
2090.12824	36124.375
2093.12732	36133.175
2096.12447	36161.275
2099.11969	36181.275
2102.11299	36148.575
2105.10435	36188.975
2108.09379	36197.175
2111.08131	36186.175
2114.0669	36263.575
2117.05057	36208.575
2120.03233	36171.975
2123.01216	36231.675
2125.99008	36285.275
2128.96609	36402.975
2131.94018	36518.775
2134.91236	36541.375
2137.88263	36532.675
2140.851	36504.775
2143.81746	36546.475
2146.78201	36569.975
2149.74466	36565.375
2152.7054	36555.275
2155.66425	36502.575
2158.6212	36458.175
2161.57625	36425.375
2164.52941	36435.975
2167.48067	36456.775
2170.43004	36493.675
2173.37752	36433.175
2176.32311	36452.275
2179.26681	36405.475
2182.20863	36427.375
2185.14856	36454.475
2188.08661	36395.875
2191.02278	36444.875
2193.95707	36431.475
2196.88948	36372.575
2199.82001	36381.975
2202.74867	36338.675
2205.67545	36338.075
2208.60037	36207.675
2211.52341	36176.075
2214.44458	36204.775
2217.36388	36109.975
2220.28132	36041.375
2223.1969	35951.675
2226.11061	35929.575
2229.02246	35816.475
2231.93245	35781.175
2234.84058	35746.475
2237.74686	35720.175
2240.65128	35692.775
2243.55385	35603.875
2246.45456	35548.475
2249.35343	35469.775
2252.25044	35432.975
2255.14561	35423.575
2258.03893	35407.375
2260.93041	35301.675
2263.82004	35272.675
2266.70783	35196.675
2269.59378	35067.275
2272.4779	35054.075
2275.36017	35048.575
2278.24061	35033.175
2281.11922	34901.675
2283.996	34915.075
2286.87094	34851.775
2289.74405	34762.675
2292.61534	34753.275
2295.4848	34727.875
2298.35243	34751.875
2301.21824	34797.675
2304.08223	34768.775
2306.94439	34657.875
2309.80474	34627.475
2312.66327	34688.775
2315.51999	34660.575
2318.37489	34689.975
2321.22797	34711.775
2324.07925	34609.675
2326.92871	34516.075
2329.77637	34555.875
2332.62222	34510.675
2335.46626	34426.675
2338.3085	34350.075
2341.14893	34343.575
2343.98756	34357.175
2346.8244	34419.675
2349.65943	34485.575
2352.49267	34487.375
2355.32411	34482.675
2358.15376	34401.775
2360.98161	34334.575
2363.80768	34396.575
2366.63195	34391.875
2369.45444	34343.975
2372.27514	34365.675
2375.09405	34258.275
2377.91118	34178.175
2380.72652	34027.675
2383.54009	33949.875
2386.35187	33968.275
2389.16188	33885.675
2391.97011	33854.075
2394.77657	33815.575
2397.58125	33744.775
2400.38416	33741.175
2403.18529	33672.275
2405.98466	33674.675
2408.78226	33591.075
2411.57809	33511.275
2414.37216	33491.075
2417.16446	33447.775
2419.955	33377.875
2422.74378	33411.875
2425.5308	33365.175
2428.31606	33351.675
2431.09956	33339.775
2433.88131	33323.375
2436.6613	33280.975
2439.43954	33284.275
2442.21603	33289.575
2444.99077	33248.875
2447.76377	33282.175
2450.53501	33238.375
2453.30451	33276.875
2456.07226	33211.675
2458.83827	33221.975
2461.60254	33283.375
2464.36507	33240.875
2467.12586	33196.375
2469.88492	33153.875
2472.64224	33183.475
2475.39782	33186.175
2478.15167	33253.875
2480.90379	33225.775
2483.65417	33289.975
2486.40283	33307.375
2489.14976	33333.275
2491.89497	33315.075
2494.63845	33301.775
2497.3802	33315.775
2500.12024	33279.675
2502.85855	33277.675
2505.59514	33201.875
2508.33002	33147.475
2511.06318	33085.375
2513.79462	32979.875
2516.52435	33011.475
2519.25237	32985.575
2521.97867	32972.575
2524.70327	32971.975
2527.42616	32890.875
2530.14734	32919.775
2532.86681	32823.575
2535.58458	32867.875
2538.30065	32893.375
2541.01501	32924.775
2543.72768	32869.075
2546.43864	32807.675
2549.14791	32744.675
2551.85548	32806.375
2554.56136	32699.875
2557.26554	32663.575
2559.96803	32610.075
2562.66883	32501.275
2565.36794	32542.075
2568.06536	32568.675
2570.7611	32505.075
2573.45514	32402.275
2576.14751	32432.275
2578.83819	32391.475
2581.52719	32372.875
2584.21451	32342.675
2586.90015	32318.575
2589.58411	32303.475
2592.2664	32291.575
2594.94701	32250.475
2597.62594	32274.675
2600.30321	32204.075
2602.9788	32160.575
2605.65273	32119.775
2608.32498	32095.575
2610.99557	32111.075
2613.66449	32146.575
2616.33175	32141.475
2618.99734	32134.375
2621.66128	32101.275
2624.32355	32067.775
2626.98416	32013.975
2629.64311	31929.975
2632.30041	31906.875
2634.95605	31897.875
2637.61004	31840.575
2640.26238	31845.375
2642.91306	31855.275
2645.56209	31781.975
2648.20948	31800.075
2650.85521	31791.775
2653.4993	31799.975
2656.14175	31847.575
2658.78255	31864.275
2661.42171	31886.775
2664.05923	31923.075
2666.6951	31926.975
2669.32934	31981.075
2671.96194	31944.375
2674.59291	31942.275
2677.22224	31880.375
2679.84993	31918.675
2682.476	31913.275
2685.10043	31928.175
2687.72324	31846.875
2690.34441	31827.975
2692.96396	31851.075
2695.58188	31858.875
2698.19818	31816.375
2700.81285	31831.075
2703.4259	31774.975
2706.03733	31804.975
2708.64714	31821.375
2711.25533	31873.875
2713.86191	31872.975
2716.46687	31865.175
2719.07021	31917.975
2721.67194	31941.675
2724.27206	31989.675
2726.87057	31998.275
2729.46747	32029.475
2732.06276	32040.775
2734.65644	32025.875
2737.24852	32056.075
2739.83899	31952.375
2742.42786	31908.675
2745.01513	31874.775
2747.60079	31899.375
2750.18486	31935.275
2752.76733	31921.375
2755.3482	31904.175
2757.92747	31818.475
2760.50515	31806.175
2763.08123	31778.275
2765.65573	31730.375
2768.22863	31736.975
2770.79994	31727.675
2773.36967	31766.075
2775.9378	31701.775
2778.50435	31663.275
2781.06932	31630.475
2783.6327	31594.275
2786.1945	31575.975
2788.75471	31563.975
2791.31335	31505.475
2793.87041	31485.275
2796.42589	31434.075
2798.97979	31411.475
2801.53212	31355.975
2804.08288	31408.775
2806.63206	31341.475
2809.17967	31239.075
2811.72571	31170.375
2814.27018	31097.175
2816.81308	31030.175
2819.35442	31009.375
2821.89419	30937.475
2824.43239	30917.375
2826.96904	30909.175
2829.50412	30936.575
2832.03763	30852.375
2834.56959	30829.075
2837.1	30768.975
2839.62884	30733.475
2842.15613	30695.375
2844.68186	30702.075
2847.20604	30635.175
2849.72867	30658.875
2852.24974	30678.375
2854.76927	30663.875
2857.28724	30557.475
2859.80367	30586.975
2862.31855	30527.375
2864.83189	30467.475
2867.34368	30454.175
2869.85393	30410.575
2872.36264	30388.975
2874.8698	30355.875
2877.37543	30329.175
2879.87952	30336.675
2882.38207	30310.175
2884.88308	30314.375
2887.38256	30346.075
2889.88051	30405.975
2892.37692	30373.175
2894.8718	30301.975
2897.36515	30377.475
2899.85698	30390.075
2902.34727	30475.375
2904.83604	30476.275
2907.32328	30585.375
2909.809	30587.975
2912.29319	30626.975
2914.77587	30600.675
2917.25702	30630.875
2919.73665	30640.075
2922.21476	30626.675
2924.69136	30561.875
2927.16644	30491.275
2929.64	30443.275
2932.11205	30410.175
2934.58258	30253.675
2937.05161	30257.875
2939.51912	30297.075
2941.98513	30289.175
2944.44962	30255.775
2946.91261	30144.575
2949.37409	30293.975
2951.83407	30213.575
2954.29254	30265.575
2956.74951	30249.075
2959.20498	30262.375
2961.65895	30194.675
2964.11142	30268.475
2966.56239	30184.075
2969.01186	30147.775
2971.45984	30109.775
2973.90632	30129.375
2976.35131	30080.875
2978.7948	30054.375
2981.23681	29980.275
2983.67732	29956.075
2986.11635	29895.175
2988.55388	29814.675
2990.98993	29781.475
2993.4245	29709.475
2995.85758	29590.475
2998.28917	29518.575
3000.71928	29473.275
3003.14791	29340.475
3005.57506	29314.075
3008.00073	29205.075
3010.42493	29231.175
3012.84764	29127.675
3015.26888	29111.075
3017.68865	29048.175
3020.10694	28998.475
3022.52376	28981.075
3024.9391	28959.375
3027.35298	28975.575
3029.76539	28980.375
3032.17632	28880.675
3034.5858	28876.975
3036.9938	28850.175
3039.40034	28834.975
3041.80542	28777.975
3044.20903	28731.175
3046.61118	28716.375
3049.01187	28633.175
3051.4111	28611.575
3053.80888	28595.075
3056.20519	28563.775
3058.60005	28493.675
3060.99345	28419.375
3063.3854	28346.075
3065.7759	28276.675
3068.16494	28221.075
3070.55254	28104.075
3072.93868	28048.975
3075.32338	27947.975
3077.70662	27893.475
3080.08842	27801.175
3082.46878	27777.975
3084.84769	27817.775
3087.22515	27867.275
3089.60118	27792.175
3091.97576	27801.775
3094.3489	27688.275
3096.72061	27713.675
3099.09087	27680.275
3101.4597	27698.375
3103.82709	27680.275
3106.19305	27666.575
3108.55757	27697.775
3110.92066	27649.975
3113.28232	27650.975
3115.64255	27588.375
3118.00134	27475.175
3120.35871	27440.475
3122.71466	27356.775
3125.06917	27308.975
3127.42226	27232.975
