Data from AgNPs_UA_10uM_CRN_0uM_R6G_10uM_Q_RamanShift__9__11-59-12-633.txt Node

Date: Mon Jul 18 11:59:12 BST 2022
User: TCL
Spectrometer: QEP01345
Trigger mode: 4
Integration Time (sec): 7.000000E0
Scans to average: 10
Electric dark correction enabled: true
Nonlinearity correction enabled: false
Boxcar width: 0
XAxis mode: Raman Shifts
Number of Pixels in Spectrum: 1044
>>>>>Begin Spectral Data<<<<<
46.04893	-0.2
50.45542	-1.3
54.85868	0.3
59.25871	-0.9
63.6555	109
68.04907	110.8
72.43941	116.5
76.82654	123.6
81.21044	124
85.59113	127
89.96862	133.9
94.34289	137.3
98.71396	144.5
103.08183	148.4
107.4465	152.7
111.80798	155.1
116.16626	157.9
120.52136	168.9
124.87327	178
129.222	185.1
133.56755	198.4
137.90993	215.8
142.24913	228.3
146.58517	262.5
150.91804	308.1
155.24774	365.8
159.57429	453.7
163.89768	595
168.21792	773.3
172.53501	1067.8
176.84895	1483.1
181.15975	2089.3
185.46741	2938.5
189.77193	4058
194.07331	5446.4
198.37157	7028.1
202.6667	8675.7
206.9587	10310.5
211.24758	11966.6
215.53334	13593
219.81599	15330.7
224.09553	17330.9
228.37195	19503.3
232.64527	21787.7
236.91549	24151.8
241.18261	26407.2
245.44663	28363.3
249.70755	30086.2
253.96539	31628.1
258.22014	32955.1
262.4718	33987.9
266.72039	34725.9
270.96589	35085.6
275.20832	35160.5
279.44768	34991.3
283.68397	34580.1
287.91719	34412.5
292.14735	34450.1
296.37445	34731.7
300.59849	35259.4
304.81948	35851.2
309.03742	36341.7
313.25231	36271.7
317.46415	35577.1
321.67296	34336
325.87872	33219.1
330.08145	32684.1
334.28114	32600.9
338.47781	32988
342.67145	33509.9
346.86207	34170.6
351.04966	35080.7
355.23424	35969.7
359.4158	36697.9
363.59435	37052.8
367.76989	37189
371.94243	37127.1
376.11196	37013
380.27849	36950.5
384.44203	36973
388.60257	37062
392.76012	37338.3
396.91468	37863.7
401.06626	38545
405.21485	38857.4
409.36047	38442.8
413.50311	37645.2
417.64277	36905.5
421.77947	36650.8
425.9132	36625.4
430.04396	36760.3
434.17176	36825
438.2966	37052.8
442.41849	37436
446.53742	38094.2
450.6534	38758.3
454.76644	39292.1
458.87653	39439.5
462.98368	39420.9
467.08789	39233.8
471.18916	38945.2
475.2875	38505.1
479.38291	38148
483.4754	37830.7
487.56496	37517.5
491.6516	37323.7
495.73531	37228.2
499.81612	37239.2
503.89401	37524.5
507.96899	37670.9
512.04106	37682.4
516.11023	37776.5
520.1765	37721.2
524.23987	37501
528.30034	37249.1
532.35792	37021.8
536.41261	36736.2
540.46441	36429.7
544.51333	36475.2
548.55936	36865.9
552.60252	37585.6
556.64279	38328.5
560.6802	38649.8
564.71473	39021.2
568.7464	39790.4
572.7752	40484.4
576.80114	40861.7
580.82422	41355.7
584.84444	41910.8
588.86181	42194.4
592.87633	42245.9
596.888	42234.6
600.89682	42566.2
604.9028	44868.6
608.90594	50589.2
612.90624	55844.3
616.90371	51430.3
620.89834	41990.2
624.89015	38216.1
628.87913	37867.7
632.86528	38477.1
636.84862	38864.5
640.82913	38339.9
644.80683	37315.4
648.78172	36593.7
652.75379	36651.3
656.72306	37405.9
660.68952	38204.6
664.65319	37931.3
668.61405	37264.6
672.57211	37164
676.52738	37243.3
680.47986	37065.6
684.42955	36742.1
688.37646	36544.7
692.32058	36776
696.26192	37250
700.20048	37685.9
704.13626	37972.7
708.06928	37947.3
711.99952	37703.8
715.927	37592.7
719.85171	37640
723.77365	37544.5
727.69284	37120.1
731.60928	36803
735.52295	36696.6
739.43388	36673
743.34206	36811.5
747.24749	36956.4
751.15017	37216.5
755.05012	37789.2
758.94733	39067.7
762.8418	41839.5
766.73354	46006.6
770.62254	49195.4
774.50882	49338.5
778.39237	46970.2
782.27321	43730.7
786.15132	40566.1
790.02671	38497.1
793.89938	37431.7
797.76935	36931.4
801.6366	36772.2
805.50115	36598.1
809.36299	36376.9
813.22213	36193.6
817.07857	36152.8
820.93231	36206.9
824.78336	36180.9
828.63172	36251
832.47738	36159.3
836.32036	36096.2
840.16066	36041.7
843.99827	36040.2
847.8332	36030.6
851.66546	36030.2
855.49504	36122.8
859.32195	36098.1
863.1462	36081.9
866.96777	36083.7
870.78668	36079.4
874.60293	36099.1
878.41652	36177.2
882.22745	36342.5
886.03573	36489
889.84136	36436.6
893.64433	36370.7
897.44466	36226.5
901.24235	36222.9
905.0374	36091
908.8298	35980.4
912.61957	36003.9
916.40671	36163.6
920.19121	36494.6
923.97308	36766.2
927.75233	36923.3
931.52895	36890.9
935.30295	36506
939.07433	35787.6
942.84309	35327.6
946.60924	35056.7
950.37278	34966
954.13371	34938.4
957.89203	34923.9
961.64774	34941.4
965.40086	34958.6
969.15137	34909.8
972.89929	34830.5
976.64461	34816.4
980.38733	34803.4
984.12747	34857
987.86502	34948.1
991.59999	35080.1
995.33237	35223
999.06217	35526.2
1002.78939	35911
1006.51404	36418.7
1010.23611	36907.2
1013.95561	37164.7
1017.67255	37163.1
1021.38692	36929.3
1025.09872	36530.3
1028.80796	36160.8
1032.51465	36062.4
1036.21877	36195.3
1039.92035	36343.9
1043.61937	36486.4
1047.31584	36608.8
1051.00976	36703.7
1054.70114	36874.1
1058.38998	37108.8
1062.07627	37394.1
1065.76003	37832.5
1069.44126	38368.1
1073.11995	39026.6
1076.79611	39642.4
1080.46974	40079
1084.14085	40445.9
1087.80943	40871.1
1091.47549	41027
1095.13903	40858.7
1098.80005	40312
1102.45857	39662.5
1106.11456	39012.1
1109.76805	38620.4
1113.41903	38546.3
1117.06751	38957.9
1120.71348	39577.1
1124.35696	40309
1127.99793	41004.4
1131.63641	40869.3
1135.2724	40089.6
1138.90589	39491.1
1142.5369	39206.7
1146.16542	39053.4
1149.79145	39024.2
1153.415	39064.9
1157.03607	39371.2
1160.65467	40011.7
1164.27079	41103
1167.88443	42634.2
1171.49561	44786.1
1175.10432	47694.1
1178.71056	51500.6
1182.31434	54619.7
1185.91565	55951.4
1189.51451	55786
1193.11091	54620.4
1196.70485	52702.7
1200.29634	50760.3
1203.88538	48877.4
1207.47197	47068.4
1211.05612	45575
1214.63782	44417.7
1218.21708	43459.8
1221.79391	42681.4
1225.36829	42277.8
1228.94024	42035.7
1232.50976	42045.5
1236.07685	41983.5
1239.6415	41996.8
1243.20374	42030.8
1246.76355	42229.6
1250.32093	42618
1253.8759	43238.6
1257.42845	44205.4
1260.97859	45333.3
1264.52631	46490.7
1268.07163	47581.7
1271.61453	48478.1
1275.15503	49222.4
1278.69312	49923.1
1282.22882	50553.8
1285.76211	51560.6
1289.29301	52865
1292.82151	54259
1296.34761	55795.1
1299.87133	57839.9
1303.39266	60601.4
1306.9116	64367.9
1310.42815	68081
1313.94233	69616.3
1317.45412	68258.7
1320.96354	66001.1
1324.47058	64079.9
1327.97525	62709.1
1331.47754	61892.4
1334.97747	61631.6
1338.47502	61878.7
1341.97022	62660.2
1345.46305	64100.7
1348.95352	65786.2
1352.44163	67471.4
1355.92738	69399.3
1359.41078	72622.3
1362.89183	75831.8
1366.37053	73969.4
1369.84688	66455.1
1373.32088	58845.2
1376.79254	53929.8
1380.26186	51478.5
1383.72883	50215.1
1387.19347	49227
1390.65578	48234.6
1394.11575	47423.1
1397.57339	46891.8
1401.0287	46516.6
1404.48168	46207.6
1407.93234	45936.9
1411.38068	45634.4
1414.82669	45151.1
1418.27039	44507.8
1421.71177	43745.2
1425.15083	43064.6
1428.58758	42768.4
1432.02203	42978.4
1435.45416	43610.1
1438.88399	44015.1
1442.31151	44310.2
1445.73673	44575.6
1449.15965	44859
1452.58027	45119.6
1455.9986	45197.9
1459.41463	45490.4
1462.82837	45968.3
1466.23982	46745.2
1469.64898	47503.7
1473.05586	48098.1
1476.46045	48470
1479.86276	48749.9
1483.26279	49148.8
1486.66054	49865.1
1490.05602	50994
1493.44922	52823.1
1496.84016	55457.2
1500.22882	59341.9
1503.61521	64425.1
1506.99934	69688.4
1510.38121	73244.2
1513.76081	73073.9
1517.13816	69080.7
1520.51324	63469.7
1523.88607	58790.4
1527.25665	55850
1530.62498	54198.1
1533.99105	53075.8
1537.35488	52047.8
1540.71647	51006.3
1544.07581	49928.9
1547.4329	49016.1
1550.78776	48286.4
1554.14038	47847.8
1557.49077	47849.2
1560.83892	48199.1
1564.18484	48977.5
1567.52853	49857.6
1570.86999	50545.4
1574.20922	51178.1
1577.54624	51076.5
1580.88103	49753.6
1584.2136	48198.6
1587.54395	47446.1
1590.87208	47946.1
1594.19801	49425.1
1597.52172	51121
1600.84321	51422.1
1604.16251	50205.2
1607.47959	48439.1
1610.79447	46374.9
1614.10715	44041.2
1617.41763	41801.5
1620.7259	40204.1
1624.03199	39306.7
1627.33587	39129.6
1630.63757	39700.4
1633.93707	41205.6
1637.23439	43818.9
1640.52951	47837.5
1643.82246	53043.9
1647.11321	58176.7
1650.40179	60725.5
1653.68819	58649.4
1656.97241	52601.1
1660.25446	46079.6
1663.53433	41078.8
1666.81203	37840.6
1670.08756	35825.4
1673.36092	34606.6
1676.63211	33860.5
1679.90115	33236.6
1683.16801	32810.3
1686.43272	32482.9
1689.69527	32196.2
1692.95567	32016.9
1696.2139	31845.6
1699.46999	31705.6
1702.72392	31678.4
1705.97571	31600.3
1709.22535	31589.9
1712.47284	31571.2
1715.71819	31533
1718.96139	31461.2
1722.20246	31318
1725.44139	31205.6
1728.67818	31046.3
1731.91284	30845.3
1735.14537	30705.2
1738.37576	30605.8
1741.60403	30585.7
1744.83017	30485.6
1748.05418	30428.9
1751.27607	30327.9
1754.49584	30281.2
1757.71349	30234.3
1760.92903	30185.7
1764.14244	30104.6
1767.35375	30129.6
1770.56294	30045.6
1773.77002	29976.1
1776.97499	29958.2
1780.17785	29925.4
1783.37861	29846.7
1786.57727	29766.8
1789.77382	29690.1
1792.96828	29671.7
1796.16064	29607.4
1799.3509	29582
1802.53907	29472.1
1805.72514	29366.8
1808.90913	29274.8
1812.09102	29221.9
1815.27083	29159.9
1818.44856	29126.5
1821.6242	29131.9
1824.79776	29071.7
1827.96924	29047.7
1831.13864	28974.9
1834.30597	28969.2
1837.47122	28908
1840.6344	28967.5
1843.7955	28930.1
1846.95454	28865.5
1850.11151	28858.3
1853.26642	28843.1
1856.41926	28828.9
1859.57004	28791.2
1862.71876	28753.6
1865.86542	28709.2
1869.01003	28712.2
1872.15258	28687.6
1875.29308	28616.2
1878.43152	28534.2
1881.56792	28476.4
1884.70227	28440.9
1887.83457	28384.8
1890.96482	28353.8
1894.09304	28328.8
1897.21921	28265.7
1900.34335	28272
1903.46544	28225.3
1906.58551	28198
1909.70353	28106.6
1912.81953	28103.7
1915.93349	28044.2
1919.04543	27965.4
1922.15534	27964.9
1925.26322	27859.8
1928.36908	27792.1
1931.47292	27721.1
1934.57473	27674.7
1937.67453	27567.1
1940.77232	27539.1
1943.86808	27455.4
1946.96184	27377.3
1950.05358	27313.6
1953.14331	27160.9
1956.23103	27100.2
1959.31675	27017.2
1962.40046	26991.3
1965.48217	26959.9
1968.56188	26841.8
1971.63959	26780.5
1974.7153	26718.9
1977.78901	26611.7
1980.86073	26535.4
1983.93046	26400
1986.99819	26377.6
1990.06394	26299.9
1993.1277	26185.3
1996.18947	26108.8
1999.24925	26069
2002.30706	25960.8
2005.36288	25921.2
2008.41672	25843.2
2011.46859	25734.8
2014.51848	25717.1
2017.56639	25643.7
2020.61233	25551.1
2023.6563	25457.6
2026.6983	25386.9
2029.73833	25271.8
2032.7764	25232.3
2035.8125	25178.3
2038.84664	25119.4
2041.87881	25077.6
2044.90903	24991.5
2047.93729	24929.1
2050.96359	24892.2
2053.98794	24854.4
2057.01034	24810.1
2060.03078	24813.2
2063.04927	24785.8
2066.06582	24782.8
2069.08042	24749.7
2072.09307	24682.8
2075.10378	24705.3
2078.11255	24698.1
2081.11938	24708.6
2084.12426	24652.8
2087.12722	24638.7
2090.12824	24662.6
2093.12732	24665.6
2096.12447	24661
2099.11969	24667
2102.11299	24685.9
2105.10435	24684.7
2108.09379	24688
2111.08131	24733.5
2114.0669	24685
2117.05057	24693.9
2120.03233	24735
2123.01216	24772.9
2125.99008	24757.9
2128.96609	24814
2131.94018	24844.1
2134.91236	24888.1
2137.88263	24850.8
2140.851	24850.8
2143.81746	24877.5
2146.78201	24878.2
2149.74466	24877.5
2152.7054	24909.9
2155.66425	24840.4
2158.6212	24831.4
2161.57625	24801.5
2164.52941	24780.1
2167.48067	24769.1
2170.43004	24760.8
2173.37752	24721.1
2176.32311	24723.3
2179.26681	24731.3
2182.20863	24715
2185.14856	24757.3
2188.08661	24689.8
2191.02278	24727.4
2193.95707	24698.1
2196.88948	24661
2199.82001	24622.5
2202.74867	24572.7
2205.67545	24525.8
2208.60037	24498.3
2211.52341	24429
2214.44458	24408.2
2217.36388	24379.3
2220.28132	24357.6
2223.1969	24297.1
2226.11061	24198.1
2229.02246	24122.6
2231.93245	24161.2
2234.84058	24063.7
2237.74686	24040
2240.65128	24001.7
2243.55385	23939.1
2246.45456	23928.8
2249.35343	23919.9
2252.25044	23927.1
2255.14561	23856.4
2258.03893	23827.5
2260.93041	23789.5
2263.82004	23767.3
2266.70783	23747.1
2269.59378	23617.2
2272.4779	23618.6
2275.36017	23524.7
2278.24061	23514.3
2281.11922	23475
2283.996	23427.7
2286.87094	23377.1
2289.74405	23304.4
2292.61534	23287.5
2295.4848	23265.3
2298.35243	23236.6
2301.21824	23228.7
2304.08223	23151.9
2306.94439	23211.9
2309.80474	23158.8
2312.66327	23108.5
2315.51999	23093.1
2318.37489	23086.6
2321.22797	23085.9
2324.07925	23060.9
2326.92871	22950.9
2329.77637	22956.3
2332.62222	22923.8
2335.46626	22923
2338.3085	22901.9
2341.14893	22831.9
2343.98756	22778.8
2346.8244	22836.1
2349.65943	22857.4
2352.49267	22846.1
2355.32411	22840.1
2358.15376	22793.6
2360.98161	22814.3
2363.80768	22816.5
2366.63195	22837.9
2369.45444	22832.6
2372.27514	22766
2375.09405	22742.1
2377.91118	22661.8
2380.72652	22634
2383.54009	22574.7
2386.35187	22505.8
2389.16188	22489
2391.97011	22448.8
2394.77657	22365.8
2397.58125	22287.5
2400.38416	22299.5
2403.18529	22256.8
2405.98466	22303.5
2408.78226	22174.7
2411.57809	22189.5
2414.37216	22171.8
2417.16446	22173.5
2419.955	22133.2
2422.74378	22121.4
2425.5308	22069.5
2428.31606	22005.7
2431.09956	22031.1
2433.88131	22015.2
2436.6613	21968
2439.43954	22002.5
2442.21603	21948.7
2444.99077	21971.2
2447.76377	21935.1
2450.53501	21910.4
2453.30451	21877.6
2456.07226	21842.6
2458.83827	21813.8
2461.60254	21828.9
2464.36507	21809.3
2467.12586	21777.6
2469.88492	21781.5
2472.64224	21719.6
2475.39782	21726.2
2478.15167	21761
2480.90379	21731.8
2483.65417	21787.6
2486.40283	21800
2489.14976	21826.9
2491.89497	21790
2494.63845	21802.7
2497.3802	21758.4
2500.12024	21717.7
2502.85855	21707.7
2505.59514	21656.6
2508.33002	21594.9
2511.06318	21546.1
2513.79462	21501.4
2516.52435	21457.1
2519.25237	21420.6
2521.97867	21436.7
2524.70327	21415.8
2527.42616	21356.5
2530.14734	21342.3
2532.86681	21314.8
2535.58458	21319.1
2538.30065	21261.5
2541.01501	21265.3
2543.72768	21201
2546.43864	21193.9
2549.14791	21106.8
2551.85548	21111.9
2554.56136	21081.3
2557.26554	21031.1
2559.96803	21043.3
2562.66883	20974.2
2565.36794	20984.9
2568.06536	20969.4
2570.7611	20918.4
2573.45514	20884.7
2576.14751	20888.1
2578.83819	20792.3
2581.52719	20778.1
2584.21451	20745.7
2586.90015	20719.3
2589.58411	20693.7
2592.2664	20687.9
2594.94701	20637.1
2597.62594	20687
2600.30321	20601.2
2602.9788	20546.4
2605.65273	20465
2608.32498	20461.2
2610.99557	20443.4
2613.66449	20436.4
2616.33175	20423.2
2618.99734	20386.5
2621.66128	20354.1
2624.32355	20341
2626.98416	20338.5
2629.64311	20237.4
2632.30041	20239.1
2634.95605	20188.4
2637.61004	20210.8
2640.26238	20175.8
2642.91306	20204.5
2645.56209	20136.8
2648.20948	20138
2650.85521	20074.7
2653.4993	20083.7
2656.14175	20113
2658.78255	20136.6
2661.42171	20171.4
2664.05923	20157.7
2666.6951	20137.6
2669.32934	20127.9
2671.96194	20162.6
2674.59291	20143.5
2677.22224	20132.7
2679.84993	20162
2682.476	20120.8
2685.10043	20110.2
2687.72324	20074.9
2690.34441	20052.1
2692.96396	20101.3
2695.58188	20060.5
2698.19818	20024.8
2700.81285	20057.7
2703.4259	20035.7
2706.03733	20101.1
2708.64714	20099.9
2711.25533	20101.9
2713.86191	20029
2716.46687	20092.4
2719.07021	20074
2721.67194	20102.6
2724.27206	20085.2
2726.87057	20091.8
2729.46747	20085
2732.06276	20102.1
2734.65644	20054.2
2737.24852	20075.7
2739.83899	20012.1
2742.42786	20009.4
2745.01513	19922.5
2747.60079	19934.1
2750.18486	19938.8
2752.76733	19911.8
2755.3482	19876.2
2757.92747	19878.4
2760.50515	19812.2
2763.08123	19824.4
2765.65573	19736.3
2768.22863	19746.7
2770.79994	19728.1
2773.36967	19721.2
2775.9378	19692.4
2778.50435	19611
2781.06932	19605.9
2783.6327	19597.2
2786.1945	19597.6
2788.75471	19571.2
2791.31335	19508.8
2793.87041	19471
2796.42589	19412
2798.97979	19443
2801.53212	19428.8
2804.08288	19396.1
2806.63206	19341.4
2809.17967	19274.9
2811.72571	19315.3
2814.27018	19207.8
2816.81308	19176.7
2819.35442	19143
2821.89419	19114.2
2824.43239	19110.3
2826.96904	19047.2
2829.50412	19083.1
2832.03763	19002.3
2834.56959	18982.5
2837.1	18956.9
2839.62884	19002.7
2842.15613	18932.3
2844.68186	18906
2847.20604	18874.8
2849.72867	18873.9
2852.24974	18868.3
2854.76927	18838.8
2857.28724	18825.3
2859.80367	18815.3
2862.31855	18806.8
2864.83189	18779.7
2867.34368	18793.5
2869.85393	18750.2
2872.36264	18718.8
2874.8698	18668.2
2877.37543	18652.6
2879.87952	18647.6
2882.38207	18652.8
2884.88308	18643.6
2887.38256	18599.5
2889.88051	18584
2892.37692	18594.9
2894.8718	18597.4
2897.36515	18636.9
2899.85698	18568.6
2902.34727	18599.7
2904.83604	18611.3
2907.32328	18650.8
2909.809	18622
2912.29319	18661.8
2914.77587	18633.5
2917.25702	18624.3
2919.73665	18648.1
2922.21476	18651.5
2924.69136	18620.3
2927.16644	18610
2929.64	18572.9
2932.11205	18549.9
2934.58258	18468
2937.05161	18446.3
2939.51912	18468.7
2941.98513	18444.9
2944.44962	18418.2
2946.91261	18350.2
2949.37409	18391.1
2951.83407	18385.1
2954.29254	18379.3
2956.74951	18350.3
2959.20498	18376.5
2961.65895	18374.5
2964.11142	18400.1
2966.56239	18330.5
2969.01186	18314.5
2971.45984	18283.9
2973.90632	18286.5
2976.35131	18208.4
2978.7948	18210.5
2981.23681	18168
2983.67732	18167.3
2986.11635	18145.7
2988.55388	18147.7
2990.98993	18082.1
2993.4245	18060
2995.85758	17983.2
2998.28917	17963.3
3000.71928	17927.7
3003.14791	17864.6
3005.57506	17864.2
3008.00073	17788.8
3010.42493	17779.3
3012.84764	17748.2
3015.26888	17733.9
3017.68865	17696.9
3020.10694	17687.5
3022.52376	17648.6
3024.9391	17606.7
3027.35298	17545
3029.76539	17595.4
3032.17632	17568.3
3034.5858	17550.4
3036.9938	17554.3
3039.40034	17479
3041.80542	17458.3
3044.20903	17412.9
3046.61118	17408.9
3049.01187	17329.9
3051.4111	17335.9
3053.80888	17278.7
3056.20519	17319.2
3058.60005	17245.5
3060.99345	17205.3
3063.3854	17151.1
3065.7759	17109.4
3068.16494	17085.4
3070.55254	17031
3072.93868	17016.3
3075.32338	16939.5
3077.70662	16905.4
3080.08842	16856.8
3082.46878	16844.2
3084.84769	16833.1
3087.22515	16825.3
3089.60118	16817.6
3091.97576	16834.6
3094.3489	16802.9
3096.72061	16787.4
3099.09087	16814.7
3101.4597	16792.1
3103.82709	16797.5
3106.19305	16755.9
3108.55757	16753.3
3110.92066	16694.5
3113.28232	16688.8
3115.64255	16656.5
3118.00134	16615.8
3120.35871	16613.1
3122.71466	16556.5
3125.06917	16511.5
3127.42226	16463
3129.77393	16499.7
3132.12417	16457.1
3134.47299	16479.5
3136.82039	16462.8
3139.16636	16437
3141.51092	16372.6
3143.85406	16394.6
3146.19579	16393.6
3148.53609	16402.2
3150.87499	16415.8
3153.21246	16401.4
3155.54853	16442.1
3157.88318	16383.6
3160.21642	16419
3162.54826	16410
3164.87868	16442.6
3167.2077	16434.1
3169.5353	16436.7
3171.86151	16374.9
3174.18631	16334.3
3176.5097	16343.5
3178.83169	16323.4
3181.15228	16329.4
3183.47147	16272.7
3185.78926	16236.7
3188.10565	16211.2
3190.42065	16223.1
3192.73424	16220.6
3195.04645	16192.6
3197.35725	16144.1
3199.66667	16135.8
3201.97469	16156
3204.28132	16118.3
3206.58656	16141.5
3208.8904	16135
3211.19287	16151.6
3213.49394	16131.7
3215.79363	16156.4
3218.09193	16188.3
3220.38884	16182.1
3222.68438	16162.8
3224.97853	16143
3227.2713	16176.8
3229.56269	16142.9
3231.8527	16131.7
3234.14133	16129
3236.42858	16046.5
3238.71446	16055.4
3240.99896	16032.5
3243.28209	15990.8
3245.56384	15944.9
3247.84423	15927.7
3250.12324	15924.6
3252.40088	15923.7
3254.67715	15875
3256.95205	15867.1
3259.22558	15849.9
3261.49775	15821.7
3263.76855	15858.1
3266.03799	15810.4
3268.30606	15802.2
3270.57277	15758
3272.83812	15731.2
3275.10211	15680.5
3277.36474	15628.1
3279.62601	15623.4
3281.88593	15616
3284.14448	15641.1
3286.40168	15624.2
3288.65753	15629.7
3290.91202	15644
3293.16516	15563.4
3295.41695	15567.1
3297.66738	15499
3299.91647	15400.4
3302.16421	15292.7
3304.4106	15241.9
3306.65564	15174.2
3308.89933	15081.4
3311.14169	14968.6
3313.38269	14821.5
3315.62236	14787.1
3317.86068	14668.6
3320.09766	14543.6
3322.3333	14467
3324.5676	14429.4
3326.80056	14214.6
3329.03219	14144.7
3331.26248	2.6
3333.49143	0.3
3335.71905	0.1
