Data from AgNPs_UA_20uM_CRN_0uM_R6G_10uM_Q_RamanShift__14__12-52-42-019.txt Node

Date: Mon Jul 18 12:52:42 BST 2022
User: TCL
Spectrometer: QEP01345
Trigger mode: 4
Integration Time (sec): 7.000000E0
Scans to average: 10
Electric dark correction enabled: true
Nonlinearity correction enabled: false
Boxcar width: 0
XAxis mode: Raman Shifts
Number of Pixels in Spectrum: 1044
>>>>>Begin Spectral Data<<<<<
46.04893	-0.6875
50.45542	-1.0875
54.85868	-0.0875
59.25871	-1.0875
63.6555	153.8125
68.04907	158.9125
72.43941	169.9125
76.82654	172.6125
81.21044	178.3125
85.59113	184.1125
89.96862	189.1125
94.34289	195.7125
98.71396	203.5125
103.08183	205.4125
107.4465	213.2125
111.80798	224.8125
116.16626	228.8125
120.52136	240.9125
124.87327	249.4125
129.222	260.3125
133.56755	282.0125
137.90993	311.1125
142.24913	337.0125
146.58517	388.7125
150.91804	450.8125
155.24774	540.2125
159.57429	661.6125
163.89768	863.8125
168.21792	1139.1125
172.53501	1557.8125
176.84895	2191.9125
181.15975	3085.8125
185.46741	4359.0125
189.77193	6011.7125
194.07331	8056.6125
198.37157	10403.4125
202.6667	12849.7125
206.9587	15257.2125
211.24758	17552.4125
215.53334	19926.4125
219.81599	22330.3125
224.09553	25033.3125
228.37195	28039.3125
232.64527	31224.1125
236.91549	34723.6125
241.18261	38334.3125
245.44663	41761.5125
249.70755	45078.3125
253.96539	47939.8125
258.22014	50194.5125
262.4718	52075.2125
266.72039	53312.9125
270.96589	53866.2125
275.20832	53963.6125
279.44768	53707.1125
283.68397	53200.6125
287.91719	52769.1125
292.14735	52342.0125
296.37445	52129.9125
300.59849	52045.2125
304.81948	52069.6125
309.03742	52016.1125
313.25231	51815.4125
317.46415	51400.4125
321.67296	50739.8125
325.87872	50282.7125
330.08145	50301.8125
334.28114	50527.9125
338.47781	50976.8125
342.67145	51522.1125
346.86207	52192.2125
351.04966	52853.7125
355.23424	53645.9125
359.4158	54437.7125
363.59435	55067.8125
367.76989	55566.5125
371.94243	56006.0125
376.11196	56323.8125
380.27849	56644.8125
384.44203	57073.8125
388.60257	57511.1125
392.76012	58066.3125
396.91468	58619.6125
401.06626	59236.3125
405.21485	59721.4125
409.36047	59779.3125
413.50311	59500.0125
417.64277	59420.6125
421.77947	59570.0125
425.9132	59813.9125
430.04396	60148.5125
434.17176	60558.2125
438.2966	61000.3125
442.41849	61443.0125
446.53742	62257.2125
450.6534	63187.8125
454.76644	63855.4125
458.87653	64191.5125
462.98368	64374.1125
467.08789	64497.6125
471.18916	64442.0125
475.2875	64257.4125
479.38291	64149.8125
483.4754	63898.7125
487.56496	63820.9125
491.6516	63739.1125
495.73531	63624.0125
499.81612	63630.6125
503.89401	63966.3125
507.96899	64122.6125
512.04106	64274.4125
516.11023	64439.6125
520.1765	64340.5125
524.23987	64245.2125
528.30034	64213.7125
532.35792	64095.2125
536.41261	64056.9125
540.46441	63975.9125
544.51333	64221.1125
548.55936	64588.0125
552.60252	65187.8125
556.64279	65777.6125
560.6802	66266.9125
564.71473	66609.6125
568.7464	67002.6125
572.7752	67601.8125
576.80114	68325.5125
580.82422	68941.6125
584.84444	69371.5125
588.86181	69540.3125
592.87633	69700.2125
596.888	69844.3125
600.89682	70433.2125
604.9028	72071.5125
608.90594	75426.6125
612.90624	77943.1125
616.90371	74830.5125
620.89834	69299.5125
624.89015	67377.8125
628.87913	67326.4125
632.86528	67857.3125
636.84862	68108.2125
640.82913	67886.1125
644.80683	67124.4125
648.78172	66781.6125
652.75379	66826.5125
656.72306	67391.7125
660.68952	68031.5125
664.65319	68050.9125
668.61405	67747.5125
672.57211	67946.0125
676.52738	68110.4125
680.47986	68044.6125
684.42955	67926.6125
688.37646	68056.1125
692.32058	68267.0125
696.26192	68623.8125
700.20048	69074.6125
704.13626	69470.1125
708.06928	69556.2125
711.99952	69403.2125
715.927	69320.9125
719.85171	69200.8125
723.77365	69209.7125
727.69284	68955.1125
731.60928	68728.8125
735.52295	68731.2125
739.43388	68768.6125
743.34206	68967.0125
747.24749	69029.9125
751.15017	69246.7125
755.05012	69743.4125
758.94733	70651.2125
762.8418	72612.0125
766.73354	75163.2125
770.62254	77384.6125
774.50882	77614.2125
778.39237	76175.1125
782.27321	73979.0125
786.15132	72139.1125
790.02671	70762.5125
793.89938	69966.1125
797.76935	69638.5125
801.6366	69432.8125
805.50115	69385.7125
809.36299	69366.4125
813.22213	69204.8125
817.07857	69239.3125
820.93231	69387.6125
824.78336	69515.5125
828.63172	69615.7125
832.47738	69574.9125
836.32036	69626.1125
840.16066	69639.0125
843.99827	69709.6125
847.8332	69764.3125
851.66546	69963.8125
855.49504	70146.5125
859.32195	70151.9125
863.1462	70209.3125
866.96777	70410.9125
870.78668	70453.8125
874.60293	70563.9125
878.41652	70725.4125
882.22745	70847.4125
886.03573	71002.3125
889.84136	70991.9125
893.64433	70944.0125
897.44466	70856.7125
901.24235	70784.8125
905.0374	70833.9125
908.8298	70810.9125
912.61957	70883.3125
916.40671	70983.5125
920.19121	71169.8125
923.97308	71309.7125
927.75233	71421.7125
931.52895	71288.7125
935.30295	71093.6125
939.07433	70604.3125
942.84309	70258.7125
946.60924	69981.6125
950.37278	69875.9125
954.13371	69843.6125
957.89203	69911.3125
961.64774	69895.0125
965.40086	69709.9125
969.15137	69582.4125
972.89929	69535.5125
976.64461	69475.3125
980.38733	69423.7125
984.12747	69640.7125
987.86502	69856.1125
991.59999	69943.0125
995.33237	70081.7125
999.06217	70535.5125
1002.78939	71048.8125
1006.51404	71455.0125
1010.23611	71882.4125
1013.95561	72140.5125
1017.67255	72222.1125
1021.38692	72146.9125
1025.09872	71814.0125
1028.80796	71575.8125
1032.51465	71422.6125
1036.21877	71611.4125
1039.92035	71731.5125
1043.61937	71874.3125
1047.31584	71983.7125
1051.00976	72090.7125
1054.70114	72309.3125
1058.38998	72621.9125
1062.07627	72938.3125
1065.76003	73464.9125
1069.44126	73943.4125
1073.11995	74626.6125
1076.79611	75224.4125
1080.46974	75375.2125
1084.14085	75364.6125
1087.80943	75644.0125
1091.47549	75859.8125
1095.13903	75957.2125
1098.80005	75508.9125
1102.45857	75133.9125
1106.11456	74638.5125
1109.76805	74197.3125
1113.41903	74086.4125
1117.06751	74268.4125
1120.71348	74535.1125
1124.35696	74952.6125
1127.99793	75174.1125
1131.63641	75230.1125
1135.2724	74898.3125
1138.90589	74726.0125
1142.5369	74599.2125
1146.16542	74482.1125
1149.79145	74577.6125
1153.415	74566.3125
1157.03607	74743.7125
1160.65467	75107.6125
1164.27079	76187.1125
1167.88443	77404.0125
1171.49561	79085.5125
1175.10432	81280.3125
1178.71056	83763.3125
1182.31434	86055.8125
1185.91565	87436.6125
1189.51451	88000.4125
1193.11091	87736.4125
1196.70485	86798.5125
1200.29634	85559.0125
1203.88538	84128.6125
1207.47197	82681.3125
1211.05612	81463.1125
1214.63782	80387.7125
1218.21708	79737.1125
1221.79391	78958.5125
1225.36829	78493.0125
1228.94024	78273.5125
1232.50976	78230.5125
1236.07685	78311.1125
1239.6415	78416.6125
1243.20374	78462.9125
1246.76355	78784.8125
1250.32093	79192.0125
1253.8759	79622.9125
1257.42845	80506.8125
1260.97859	81487.4125
1264.52631	82293.6125
1268.07163	83106.4125
1271.61453	83782.3125
1275.15503	84428.2125
1278.69312	85067.4125
1282.22882	85543.7125
1285.76211	86284.4125
1289.29301	87076.9125
1292.82151	87929.7125
1296.34761	89041.8125
1299.87133	90506.8125
1303.39266	92352.3125
1306.9116	94431.5125
1310.42815	96342.2125
1313.94233	97362.3125
1317.45412	97353.5125
1320.96354	96858.6125
1324.47058	96281.0125
1327.97525	95664.8125
1331.47754	95281.3125
1334.97747	95365.6125
1338.47502	95980.4125
1341.97022	97169.0125
1345.46305	98642.1125
1348.95352	99953.8125
1352.44163	100629.6125
1355.92738	100630.2125
1359.41078	101086.4125
1362.89183	101485.8125
1366.37053	99417.8125
1369.84688	95047.0125
1373.32088	90649.9125
1376.79254	87343.4125
1380.26186	85498.2125
1383.72883	84481.5125
1387.19347	83574.2125
1390.65578	82724.1125
1394.11575	81927.1125
1397.57339	81260.0125
1401.0287	80831.1125
1404.48168	80581.0125
1407.93234	80405.0125
1411.38068	80078.8125
1414.82669	79578.4125
1418.27039	78735.3125
1421.71177	77926.9125
1425.15083	77271.2125
1428.58758	76837.6125
1432.02203	76850.8125
1435.45416	77243.9125
1438.88399	77484.2125
1442.31151	77936.7125
1445.73673	78306.0125
1449.15965	78677.7125
1452.58027	78965.7125
1455.9986	79139.7125
1459.41463	79440.8125
1462.82837	79947.9125
1466.23982	80720.5125
1469.64898	81458.0125
1473.05586	82224.3125
1476.46045	82559.0125
1479.86276	82759.9125
1483.26279	83089.9125
1486.66054	83491.1125
1490.05602	84135.8125
1493.44922	85230.0125
1496.84016	86864.7125
1500.22882	89374.5125
1503.61521	92365.4125
1506.99934	95001.2125
1510.38121	96519.2125
1513.76081	96048.7125
1517.13816	94048.8125
1520.51324	91396.2125
1523.88607	89269.7125
1527.25665	87902.7125
1530.62498	87195.9125
1533.99105	86541.7125
1537.35488	85962.6125
1540.71647	85335.9125
1544.07581	84708.9125
1547.4329	84022.3125
1550.78776	83353.1125
1554.14038	82991.8125
1557.49077	82829.8125
1560.83892	82880.5125
1564.18484	83216.5125
1567.52853	83594.9125
1570.86999	83903.7125
1574.20922	84179.1125
1577.54624	84191.1125
1580.88103	83532.7125
1584.2136	82878.8125
1587.54395	82519.8125
1590.87208	82950.5125
1594.19801	84022.9125
1597.52172	85423.3125
1600.84321	85833.6125
1604.16251	85095.2125
1607.47959	83658.6125
1610.79447	81788.9125
1614.10715	79580.2125
1617.41763	77613.3125
1620.7259	75892.4125
1624.03199	74867.9125
1627.33587	74551.8125
1630.63757	74960.0125
1633.93707	76004.6125
1637.23439	78047.1125
1640.52951	81255.2125
1643.82246	84967.1125
1647.11321	88162.4125
1650.40179	89453.9125
1653.68819	87535.2125
1656.97241	83185.9125
1660.25446	78529.5125
1663.53433	74871.0125
1666.81203	72345.6125
1670.08756	70707.5125
1673.36092	69641.7125
1676.63211	68944.3125
1679.90115	68404.8125
1683.16801	67834.9125
1686.43272	67439.2125
1689.69527	67121.6125
1692.95567	66950.2125
1696.2139	66719.0125
1699.46999	66556.0125
1702.72392	66551.1125
1705.97571	66533.4125
1709.22535	66529.5125
1712.47284	66501.1125
1715.71819	66508.3125
1718.96139	66424.7125
1722.20246	66334.7125
1725.44139	66164.5125
1728.67818	65994.9125
1731.91284	65858.2125
1735.14537	65678.3125
1738.37576	65571.0125
1741.60403	65347.3125
1744.83017	65199.4125
1748.05418	65152.8125
1751.27607	65066.6125
1754.49584	64987.9125
1757.71349	64974.0125
1760.92903	64952.2125
1764.14244	64851.1125
1767.35375	64878.2125
1770.56294	64808.7125
1773.77002	64767.5125
1776.97499	64757.8125
1780.17785	64646.1125
1783.37861	64523.7125
1786.57727	64403.0125
1789.77382	64324.8125
1792.96828	64254.7125
1796.16064	64087.7125
1799.3509	64062.4125
1802.53907	63894.7125
1805.72514	63697.1125
1808.90913	63701.7125
1812.09102	63746.2125
1815.27083	63580.4125
1818.44856	63563.3125
1821.6242	63476.6125
1824.79776	63381.0125
1827.96924	63218.9125
1831.13864	63117.8125
1834.30597	63153.8125
1837.47122	63056.4125
1840.6344	62962.6125
1843.7955	62910.7125
1846.95454	62922.8125
1850.11151	62975.7125
1853.26642	62971.8125
1856.41926	62932.2125
1859.57004	62967.0125
1862.71876	62816.6125
1865.86542	62885.3125
1869.01003	62801.1125
1872.15258	62689.2125
1875.29308	62623.1125
1878.43152	62501.3125
1881.56792	62408.0125
1884.70227	62312.0125
1887.83457	62240.6125
1890.96482	62181.2125
1894.09304	62171.1125
1897.21921	62118.8125
1900.34335	62022.4125
1903.46544	61773.7125
1906.58551	61689.6125
1909.70353	61635.4125
1912.81953	61700.2125
1915.93349	61611.0125
1919.04543	61392.2125
1922.15534	61283.2125
1925.26322	61270.3125
1928.36908	61240.4125
1931.47292	61055.5125
1934.57473	60986.6125
1937.67453	60789.7125
1940.77232	60684.4125
1943.86808	60394.9125
1946.96184	60247.5125
1950.05358	60020.8125
1953.14331	59843.8125
1956.23103	59635.2125
1959.31675	59434.5125
1962.40046	59368.6125
1965.48217	59146.0125
1968.56188	58959.3125
1971.63959	58812.4125
1974.7153	58595.6125
1977.78901	58511.8125
1980.86073	58287.9125
1983.93046	58159.2125
1986.99819	58002.5125
1990.06394	57873.9125
1993.1277	57639.8125
1996.18947	57504.5125
1999.24925	57448.2125
2002.30706	57263.5125
2005.36288	57159.4125
2008.41672	57022.9125
2011.46859	56920.7125
2014.51848	56701.7125
2017.56639	56630.5125
2020.61233	56496.7125
2023.6563	56381.9125
2026.6983	56127.8125
2029.73833	55906.9125
2032.7764	55772.3125
2035.8125	55631.0125
2038.84664	55612.3125
2041.87881	55521.2125
2044.90903	55312.8125
2047.93729	55169.8125
2050.96359	55166.9125
2053.98794	55053.3125
2057.01034	54956.9125
2060.03078	54939.8125
2063.04927	54939.3125
2066.06582	54938.7125
2069.08042	54900.4125
2072.09307	54999.3125
2075.10378	54955.3125
2078.11255	54885.1125
2081.11938	54862.7125
2084.12426	54717.5125
2087.12722	54717.1125
2090.12824	54731.2125
2093.12732	54761.2125
2096.12447	54714.9125
2099.11969	54682.3125
2102.11299	54759.3125
2105.10435	54766.7125
2108.09379	54747.5125
2111.08131	54741.2125
2114.0669	54732.9125
2117.05057	54723.8125
2120.03233	54750.6125
2123.01216	54799.4125
2125.99008	54834.9125
2128.96609	54967.1125
2131.94018	55128.7125
2134.91236	55237.1125
2137.88263	55208.4125
2140.851	55280.9125
2143.81746	55291.1125
2146.78201	55346.1125
2149.74466	55349.3125
2152.7054	55273.7125
2155.66425	55308.0125
2158.6212	55163.8125
2161.57625	55066.8125
2164.52941	55228.7125
2167.48067	55237.1125
2170.43004	55220.2125
2173.37752	55124.1125
2176.32311	55036.6125
2179.26681	54986.3125
2182.20863	55002.5125
2185.14856	54979.0125
2188.08661	54934.1125
2191.02278	54982.9125
2193.95707	54938.7125
2196.88948	54940.7125
2199.82001	54821.9125
2202.74867	54739.9125
2205.67545	54697.3125
2208.60037	54537.0125
2211.52341	54529.4125
2214.44458	54447.8125
2217.36388	54335.4125
2220.28132	54225.8125
2223.1969	54034.7125
2226.11061	53956.6125
2229.02246	53777.7125
2231.93245	53785.5125
2234.84058	53728.2125
2237.74686	53587.4125
2240.65128	53549.5125
2243.55385	53430.3125
2246.45456	53439.8125
2249.35343	53318.3125
2252.25044	53201.1125
2255.14561	53103.0125
2258.03893	53065.4125
2260.93041	52900.4125
2263.82004	52836.3125
2266.70783	52744.7125
2269.59378	52648.2125
2272.4779	52617.9125
2275.36017	52508.0125
2278.24061	52437.1125
2281.11922	52319.8125
2283.996	52292.7125
2286.87094	52130.5125
2289.74405	51980.9125
2292.61534	51909.1125
2295.4848	51965.2125
2298.35243	51932.7125
2301.21824	51914.7125
2304.08223	51843.1125
2306.94439	51677.0125
2309.80474	51617.1125
2312.66327	51608.5125
2315.51999	51528.5125
2318.37489	51621.2125
2321.22797	51464.9125
2324.07925	51404.9125
2326.92871	51256.7125
2329.77637	51262.2125
2332.62222	51173.1125
2335.46626	50961.6125
2338.3085	50896.6125
2341.14893	50798.7125
2343.98756	50761.5125
2346.8244	50800.0125
2349.65943	50912.3125
2352.49267	50814.2125
2355.32411	50781.4125
2358.15376	50625.4125
2360.98161	50607.5125
2363.80768	50568.7125
2366.63195	50546.9125
2369.45444	50480.0125
2372.27514	50468.0125
2375.09405	50330.7125
2377.91118	50186.7125
2380.72652	50077.0125
2383.54009	49956.7125
2386.35187	49906.4125
2389.16188	49848.8125
2391.97011	49805.0125
2394.77657	49621.9125
2397.58125	49546.7125
2400.38416	49508.1125
2403.18529	49470.7125
2405.98466	49445.8125
2408.78226	49317.1125
2411.57809	49217.0125
2414.37216	49045.4125
2417.16446	49032.4125
2419.955	48912.8125
2422.74378	48947.4125
2425.5308	48867.5125
2428.31606	48904.5125
2431.09956	48837.2125
2433.88131	48660.6125
2436.6613	48671.1125
2439.43954	48640.6125
2442.21603	48584.7125
2444.99077	48489.9125
2447.76377	48435.8125
2450.53501	48371.2125
2453.30451	48363.3125
2456.07226	48314.0125
2458.83827	48213.3125
2461.60254	48227.4125
2464.36507	48151.8125
2467.12586	48097.5125
2469.88492	47994.6125
2472.64224	47934.2125
2475.39782	47926.4125
2478.15167	48002.0125
2480.90379	47882.6125
2483.65417	47905.0125
2486.40283	47897.6125
2489.14976	47863.5125
2491.89497	47801.2125
2494.63845	47767.6125
2497.3802	47760.1125
2500.12024	47726.9125
2502.85855	47638.4125
2505.59514	47569.9125
2508.33002	47438.0125
2511.06318	47402.3125
2513.79462	47253.3125
2516.52435	47210.5125
2519.25237	47166.5125
2521.97867	47168.9125
2524.70327	47197.1125
2527.42616	47045.9125
2530.14734	46993.8125
2532.86681	46812.4125
2535.58458	46913.7125
2538.30065	46830.2125
2541.01501	46814.9125
2543.72768	46805.0125
2546.43864	46698.9125
2549.14791	46475.7125
2551.85548	46462.3125
2554.56136	46340.3125
2557.26554	46229.6125
2559.96803	46169.9125
2562.66883	45994.1125
2565.36794	45899.2125
2568.06536	45883.3125
2570.7611	45757.5125
2573.45514	45576.9125
2576.14751	45599.6125
2578.83819	45467.2125
2581.52719	45441.7125
2584.21451	45304.5125
2586.90015	45248.0125
2589.58411	45142.7125
2592.2664	45135.1125
2594.94701	45078.6125
2597.62594	45055.8125
2600.30321	44925.6125
2602.9788	44834.3125
2605.65273	44760.3125
2608.32498	44605.8125
2610.99557	44570.9125
2613.66449	44502.0125
2616.33175	44514.6125
2618.99734	44461.3125
2621.66128	44368.6125
2624.32355	44258.0125
2626.98416	44148.3125
2629.64311	44031.4125
2632.30041	43993.6125
2634.95605	43944.3125
2637.61004	43876.6125
2640.26238	43897.5125
2642.91306	43812.3125
2645.56209	43766.0125
2648.20948	43735.9125
2650.85521	43715.3125
2653.4993	43656.8125
2656.14175	43639.2125
2658.78255	43690.2125
2661.42171	43692.5125
2664.05923	43745.5125
2666.6951	43637.3125
2669.32934	43715.6125
2671.96194	43603.7125
2674.59291	43531.3125
2677.22224	43456.1125
2679.84993	43476.0125
2682.476	43526.1125
2685.10043	43579.3125
2687.72324	43417.5125
2690.34441	43390.0125
2692.96396	43375.6125
2695.58188	43425.0125
2698.19818	43389.1125
2700.81285	43339.0125
2703.4259	43295.5125
2706.03733	43313.2125
2708.64714	43277.4125
2711.25533	43294.1125
2713.86191	43280.5125
2716.46687	43302.2125
2719.07021	43299.3125
2721.67194	43369.2125
2724.27206	43344.7125
2726.87057	43309.1125
2729.46747	43234.3125
2732.06276	43341.1125
2734.65644	43309.8125
2737.24852	43261.9125
2739.83899	43102.2125
2742.42786	43061.7125
2745.01513	42900.5125
2747.60079	42920.5125
2750.18486	42936.7125
2752.76733	42876.4125
2755.3482	42825.9125
2757.92747	42791.5125
2760.50515	42686.2125
2763.08123	42601.8125
2765.65573	42545.8125
2768.22863	42536.0125
2770.79994	42433.8125
2773.36967	42387.4125
2775.9378	42335.9125
2778.50435	42179.9125
2781.06932	42077.5125
2783.6327	42068.2125
2786.1945	41940.2125
2788.75471	41932.5125
2791.31335	41793.6125
2793.87041	41807.0125
2796.42589	41664.8125
2798.97979	41683.7125
2801.53212	41561.9125
2804.08288	41556.6125
2806.63206	41419.0125
2809.17967	41342.9125
2811.72571	41174.9125
2814.27018	41088.4125
2816.81308	40935.0125
2819.35442	40861.9125
2821.89419	40753.0125
2824.43239	40728.9125
2826.96904	40697.0125
2829.50412	40755.7125
2832.03763	40575.5125
2834.56959	40576.1125
2837.1	40442.1125
2839.62884	40415.3125
2842.15613	40317.7125
2844.68186	40284.0125
2847.20604	40172.7125
2849.72867	40185.6125
2852.24974	40190.3125
2854.76927	40123.3125
2857.28724	40062.7125
2859.80367	39988.3125
2862.31855	39844.0125
2864.83189	39787.3125
2867.34368	39682.5125
2869.85393	39629.3125
2872.36264	39571.2125
2874.8698	39446.3125
2877.37543	39438.0125
2879.87952	39413.3125
2882.38207	39379.2125
2884.88308	39352.1125
2887.38256	39476.4125
2889.88051	39406.7125
2892.37692	39354.1125
2894.8718	39370.1125
2897.36515	39413.2125
2899.85698	39421.9125
2902.34727	39428.2125
2904.83604	39408.0125
2907.32328	39440.9125
2909.809	39445.2125
2912.29319	39461.1125
2914.77587	39386.3125
2917.25702	39458.1125
2919.73665	39415.5125
2922.21476	39447.6125
2924.69136	39333.1125
2927.16644	39277.5125
2929.64	39192.8125
2932.11205	39132.9125
2934.58258	38951.6125
2937.05161	38999.0125
2939.51912	38994.2125
2941.98513	38976.5125
2944.44962	38852.8125
2946.91261	38765.3125
2949.37409	38965.7125
2951.83407	38939.7125
2954.29254	38994.1125
2956.74951	38928.6125
2959.20498	38920.7125
2961.65895	38843.9125
2964.11142	38914.2125
2966.56239	38861.0125
2969.01186	38826.1125
2971.45984	38722.7125
2973.90632	38789.5125
2976.35131	38731.5125
2978.7948	38694.0125
2981.23681	38580.6125
2983.67732	38567.7125
2986.11635	38481.9125
2988.55388	38355.1125
2990.98993	38262.6125
2993.4245	38206.3125
2995.85758	38143.1125
2998.28917	37977.5125
3000.71928	37884.3125
3003.14791	37795.7125
3005.57506	37677.8125
3008.00073	37552.5125
3010.42493	37551.1125
3012.84764	37464.3125
3015.26888	37461.9125
3017.68865	37309.6125
3020.10694	37331.5125
3022.52376	37262.3125
3024.9391	37238.6125
