Data from AgNPs_UA_0uM_CRN_0uM_R6G_10uM_Q_RamanShift__12__11-32-28-759.txt Node

Date: Wed Jul 13 11:32:28 BST 2022
User: TCL
Spectrometer: QEP01345
Trigger mode: 4
Integration Time (sec): 7.000000E0
Scans to average: 10
Electric dark correction enabled: true
Nonlinearity correction enabled: false
Boxcar width: 0
XAxis mode: Raman Shifts
Number of Pixels in Spectrum: 1044
>>>>>Begin Spectral Data<<<<<
46.04893	0.875
50.45542	-0.225
54.85868	-1.825
59.25871	-0.225
63.6555	44.975
68.04907	49.175
72.43941	53.775
76.82654	59.075
81.21044	61.975
85.59113	65.875
89.96862	68.475
94.34289	70.275
98.71396	70.175
103.08183	74.175
107.4465	77.275
111.80798	74.575
116.16626	81.875
120.52136	78.075
124.87327	79.275
129.222	82.575
133.56755	81.975
137.90993	92.575
142.24913	94.975
146.58517	105.575
150.91804	120.075
155.24774	132.475
159.57429	160.175
163.89768	202.775
168.21792	262.775
172.53501	353.275
176.84895	483.975
181.15975	673.275
185.46741	942.975
189.77193	1292.675
194.07331	1733.075
198.37157	2252.875
202.6667	2791.175
206.9587	3344.975
211.24758	3899.175
215.53334	4461.575
219.81599	5105.175
224.09553	5791.675
228.37195	6532.675
232.64527	7275.375
236.91549	7964.775
241.18261	8597.975
245.44663	9036.675
249.70755	9427.575
253.96539	9786.775
258.22014	10104.075
262.4718	10377.175
266.72039	10543.575
270.96589	10547.075
275.20832	10410.375
279.44768	10184.575
283.68397	9957.375
287.91719	9798.675
292.14735	9823.775
296.37445	10100.275
300.59849	10564.175
304.81948	11216.975
309.03742	11752.275
313.25231	12043.675
317.46415	11668.575
321.67296	10838.575
325.87872	9969.475
330.08145	9495.175
334.28114	9380.275
338.47781	9587.975
342.67145	9886.875
346.86207	10405.775
351.04966	11149.475
355.23424	11866.475
359.4158	12200.475
363.59435	12124.175
367.76989	11905.675
371.94243	11657.175
376.11196	11461.075
380.27849	11266.975
384.44203	11105.275
388.60257	11033.575
392.76012	11051.175
396.91468	11286.475
401.06626	11601.375
405.21485	11690.475
409.36047	11294.675
413.50311	10590.475
417.64277	10008.175
421.77947	9673.275
425.9132	9508.875
430.04396	9484.075
434.17176	9433.575
438.2966	9523.275
442.41849	9701.075
446.53742	9927.075
450.6534	10080.075
454.76644	10172.075
458.87653	10150.875
462.98368	10089.275
467.08789	9996.675
471.18916	9800.775
475.2875	9533.975
479.38291	9269.075
483.4754	9127.575
487.56496	9059.975
491.6516	9016.275
495.73531	9030.975
499.81612	9087.075
503.89401	9226.375
507.96899	9386.675
512.04106	9552.075
516.11023	9727.875
520.1765	9873.375
524.23987	9903.975
528.30034	9832.375
532.35792	9723.175
536.41261	9542.875
540.46441	9338.875
544.51333	9216.275
548.55936	9271.175
552.60252	9471.775
556.64279	9698.175
560.6802	9886.975
564.71473	10195.875
568.7464	10712.875
572.7752	10752.375
576.80114	10176.075
580.82422	9784.875
584.84444	9660.375
588.86181	9670.275
592.87633	9725.375
596.888	9902.575
600.89682	10456.575
604.9028	12255.575
608.90594	16767.875
612.90624	21875.875
616.90371	19948.875
620.89834	13195.175
624.89015	10231.275
628.87913	9747.275
632.86528	10034.675
636.84862	10268.875
640.82913	9896.475
644.80683	9254.775
648.78172	8897.375
652.75379	8963.475
656.72306	9463.375
660.68952	9986.875
664.65319	9740.375
668.61405	9126.175
672.57211	8874.475
676.52738	8883.775
680.47986	8808.275
684.42955	8681.775
688.37646	8611.275
692.32058	8638.275
696.26192	8763.175
700.20048	8886.075
704.13626	8960.975
708.06928	8907.375
711.99952	8814.175
715.927	8809.675
719.85171	8869.875
723.77365	8946.375
727.69284	8847.975
731.60928	8768.375
735.52295	8752.975
739.43388	8784.975
743.34206	8826.275
747.24749	8864.175
751.15017	8870.175
755.05012	9058.675
758.94733	9731.275
762.8418	11477.475
766.73354	14095.275
770.62254	16060.475
774.50882	16281.475
778.39237	15069.775
782.27321	13109.475
786.15132	11060.975
790.02671	9748.875
793.89938	9101.675
797.76935	8841.075
801.6366	8709.175
805.50115	8607.675
809.36299	8528.375
813.22213	8499.575
817.07857	8464.875
820.93231	8459.675
824.78336	8518.575
828.63172	8580.975
832.47738	8557.475
836.32036	8514.475
840.16066	8412.175
843.99827	8385.975
847.8332	8355.875
851.66546	8370.175
855.49504	8392.875
859.32195	8375.975
863.1462	8337.575
866.96777	8335.775
870.78668	8347.675
874.60293	8359.575
878.41652	8432.475
882.22745	8530.875
886.03573	8618.075
889.84136	8611.075
893.64433	8598.375
897.44466	8618.575
901.24235	8632.875
905.0374	8595.775
908.8298	8542.675
912.61957	8532.975
916.40671	8548.675
920.19121	8610.075
923.97308	8757.075
927.75233	8964.075
931.52895	9114.975
935.30295	8944.175
939.07433	8556.975
942.84309	8244.275
946.60924	8100.575
950.37278	7988.975
954.13371	7947.075
957.89203	7894.275
961.64774	7853.375
965.40086	7826.075
969.15137	7781.275
972.89929	7741.175
976.64461	7718.275
980.38733	7683.775
984.12747	7671.275
987.86502	7701.075
991.59999	7746.975
995.33237	7795.075
999.06217	7887.875
1002.78939	8074.675
1006.51404	8282.875
1010.23611	8459.175
1013.95561	8496.375
1017.67255	8410.275
1021.38692	8304.175
1025.09872	8149.175
1028.80796	8000.575
1032.51465	7962.875
1036.21877	8006.075
1039.92035	8045.975
1043.61937	8102.675
1047.31584	8148.975
1051.00976	8208.975
1054.70114	8186.175
1058.38998	8190.875
1062.07627	8215.575
1065.76003	8246.575
1069.44126	8308.075
1073.11995	8481.875
1076.79611	8700.975
1080.46974	8985.575
1084.14085	9416.375
1087.80943	9849.475
1091.47549	9917.875
1095.13903	9546.175
1098.80005	9122.775
1102.45857	8892.975
1106.11456	8825.275
1109.76805	8812.575
1113.41903	8990.675
1117.06751	9334.975
1120.71348	9838.175
1124.35696	10534.575
1127.99793	11125.775
1131.63641	10928.675
1135.2724	10137.775
1138.90589	9468.575
1142.5369	9063.475
1146.16542	8757.675
1149.79145	8601.175
1153.415	8536.375
1157.03607	8580.375
1160.65467	8785.575
1164.27079	9167.575
1167.88443	9775.775
1171.49561	10721.875
1175.10432	12241.275
1178.71056	14336.075
1182.31434	15962.175
1185.91565	16211.375
1189.51451	15517.175
1193.11091	14484.675
1196.70485	13426.175
1200.29634	12547.975
1203.88538	11748.575
1207.47197	10797.775
1211.05612	9983.475
1214.63782	9393.775
1218.21708	9088.075
1221.79391	8972.075
1225.36829	8963.675
1228.94024	8960.575
1232.50976	9005.175
1236.07685	9007.375
1239.6415	9054.075
1243.20374	9096.275
1246.76355	9141.475
1250.32093	9246.375
1253.8759	9428.175
1257.42845	9758.175
1260.97859	10247.575
1264.52631	10774.275
1268.07163	11215.875
1271.61453	11487.075
1275.15503	11580.475
1278.69312	11513.175
1282.22882	11531.075
1285.76211	11883.575
1289.29301	12478.175
1292.82151	13017.075
1296.34761	13513.275
1299.87133	14329.375
1303.39266	15812.575
1306.9116	18255.775
1310.42815	21071.175
1313.94233	22386.875
1317.45412	21026.175
1320.96354	18548.675
1324.47058	16208.375
1327.97525	14433.775
1331.47754	13328.575
1334.97747	12843.675
1338.47502	12894.175
1341.97022	13495.575
1345.46305	14823.875
1348.95352	16775.575
1352.44163	18777.175
1355.92738	21035.375
1359.41078	24542.075
1362.89183	28380.475
1366.37053	27762.575
1369.84688	22336.475
1373.32088	16875.075
1376.79254	13814.675
1380.26186	12386.375
1383.72883	11507.975
1387.19347	10724.675
1390.65578	10083.875
1394.11575	9657.075
1397.57339	9407.975
1401.0287	9294.975
1404.48168	9183.175
1407.93234	9117.275
1411.38068	9141.575
1414.82669	9244.575
1418.27039	9336.375
1421.71177	9345.075
1425.15083	9198.375
1428.58758	9092.175
1432.02203	9216.775
1435.45416	9401.075
1438.88399	9462.275
1442.31151	9377.075
1445.73673	9363.175
1449.15965	9340.475
1452.58027	9295.975
1455.9986	9222.875
1459.41463	9202.275
1462.82837	9287.875
1466.23982	9476.275
1469.64898	9734.775
1473.05586	9927.175
1476.46045	10050.675
1479.86276	10214.075
1483.26279	10498.375
1486.66054	10967.075
1490.05602	11675.975
1493.44922	12712.475
1496.84016	14340.475
1500.22882	16859.175
1503.61521	20214.575
1506.99934	24157.175
1510.38121	27501.675
1513.76081	28317.575
1517.13816	25760.275
1520.51324	21282.575
1523.88607	17153.275
1527.25665	14420.575
1530.62498	12834.675
1533.99105	11923.675
1537.35488	11289.175
1540.71647	10855.275
1544.07581	10495.875
1547.4329	10308.375
1550.78776	10259.275
1554.14038	10318.775
1557.49077	10579.575
1560.83892	10988.075
1564.18484	11628.975
1567.52853	12453.075
1570.86999	13194.775
1574.20922	13573.475
1577.54624	13408.075
1580.88103	12373.875
1584.2136	10943.175
1587.54395	10013.375
1590.87208	9793.975
1594.19801	10154.075
1597.52172	10805.475
1600.84321	10902.875
1604.16251	10425.075
1607.47959	9886.975
1610.79447	9418.875
1614.10715	8897.175
1617.41763	8351.975
1620.7259	7996.675
1624.03199	7779.475
1627.33587	7811.475
1630.63757	8043.075
1633.93707	8505.475
1637.23439	9381.775
1640.52951	10864.175
1643.82246	13049.475
1647.11321	15764.775
1650.40179	17867.675
1653.68819	17594.275
1656.97241	14880.075
1660.25446	11724.075
1663.53433	9410.175
1666.81203	8026.175
1670.08756	7268.875
1673.36092	6844.675
1676.63211	6566.475
1679.90115	6376.575
1683.16801	6254.375
1686.43272	6159.175
1689.69527	6082.375
1692.95567	6041.275
1696.2139	5982.875
1699.46999	5946.475
1702.72392	5917.375
1705.97571	5896.675
1709.22535	5900.775
1712.47284	5918.075
1715.71819	5941.175
1718.96139	5910.475
1722.20246	5903.475
1725.44139	5863.075
1728.67818	5810.575
1731.91284	5730.175
1735.14537	5691.075
1738.37576	5659.075
1741.60403	5632.375
1744.83017	5621.475
1748.05418	5589.875
1751.27607	5570.875
1754.49584	5566.275
1757.71349	5524.575
1760.92903	5509.175
1764.14244	5480.575
1767.35375	5485.775
1770.56294	5457.975
1773.77002	5435.475
1776.97499	5434.175
1780.17785	5397.275
1783.37861	5380.575
1786.57727	5367.175
1789.77382	5325.575
1792.96828	5315.275
1796.16064	5318.775
1799.3509	5290.475
1802.53907	5271.975
1805.72514	5258.175
1808.90913	5241.875
1812.09102	5199.175
1815.27083	5159.275
1818.44856	5152.375
1821.6242	5142.875
1824.79776	5104.975
1827.96924	5108.275
1831.13864	5117.475
1834.30597	5081.875
1837.47122	5073.375
1840.6344	5047.175
1843.7955	5043.675
1846.95454	5032.975
1850.11151	5016.475
1853.26642	4993.675
1856.41926	5000.475
1859.57004	4976.275
1862.71876	4970.575
1865.86542	4960.475
1869.01003	4947.175
1872.15258	4934.575
1875.29308	4903.075
1878.43152	4892.075
1881.56792	4900.775
1884.70227	4876.075
1887.83457	4864.675
1890.96482	4835.175
1894.09304	4827.275
1897.21921	4822.675
1900.34335	4811.875
1903.46544	4800.275
1906.58551	4798.675
1909.70353	4778.775
1912.81953	4771.975
1915.93349	4772.175
1919.04543	4757.175
1922.15534	4731.175
1925.26322	4720.675
1928.36908	4696.975
1931.47292	4701.975
1934.57473	4656.075
1937.67453	4636.175
1940.77232	4618.775
1943.86808	4598.175
1946.96184	4572.675
1950.05358	4560.075
1953.14331	4550.775
1956.23103	4533.975
1959.31675	4516.375
1962.40046	4514.275
1965.48217	4477.975
1968.56188	4486.075
1971.63959	4495.175
1974.7153	4477.375
1977.78901	4441.675
1980.86073	4427.175
1983.93046	4405.475
1986.99819	4368.675
1990.06394	4347.775
1993.1277	4321.375
1996.18947	4303.175
1999.24925	4283.675
2002.30706	4263.775
2005.36288	4238.575
2008.41672	4244.475
2011.46859	4218.775
2014.51848	4202.575
2017.56639	4181.275
2020.61233	4173.775
2023.6563	4148.675
2026.6983	4121.475
2029.73833	4124.575
2032.7764	4106.375
2035.8125	4100.075
2038.84664	4077.075
2041.87881	4079.275
2044.90903	4067.075
2047.93729	4072.575
2050.96359	4057.175
2053.98794	4038.275
2057.01034	4024.475
2060.03078	4018.775
2063.04927	4017.775
2066.06582	4000.675
2069.08042	4002.675
2072.09307	3988.475
2075.10378	3984.375
2078.11255	3983.575
2081.11938	3969.775
2084.12426	3971.675
2087.12722	3956.075
2090.12824	3968.975
2093.12732	3972.475
2096.12447	3968.275
2099.11969	3961.575
2102.11299	3967.875
2105.10435	3970.575
2108.09379	3975.075
2111.08131	3968.875
2114.0669	3980.475
2117.05057	3989.375
2120.03233	3988.675
2123.01216	4000.175
2125.99008	3996.675
2128.96609	4009.975
2131.94018	3984.975
2134.91236	3986.375
2137.88263	3988.075
2140.851	3979.275
2143.81746	3962.775
2146.78201	3956.575
2149.74466	3942.775
2152.7054	3943.875
2155.66425	3936.175
2158.6212	3936.475
2161.57625	3902.775
2164.52941	3913.075
2167.48067	3918.575
2170.43004	3889.975
2173.37752	3881.775
2176.32311	3888.175
2179.26681	3905.875
2182.20863	3886.375
2185.14856	3875.575
2188.08661	3867.175
2191.02278	3868.775
2193.95707	3872.675
2196.88948	3867.475
2199.82001	3838.975
2202.74867	3823.375
2205.67545	3811.875
2208.60037	3811.175
2211.52341	3814.775
2214.44458	3794.775
2217.36388	3778.575
2220.28132	3774.975
2223.1969	3769.675
2226.11061	3743.875
2229.02246	3734.975
2231.93245	3723.775
2234.84058	3724.275
2237.74686	3700.975
2240.65128	3706.775
2243.55385	3715.675
2246.45456	3720.275
2249.35343	3699.575
2252.25044	3709.975
2255.14561	3696.675
2258.03893	3695.475
2260.93041	3701.775
2263.82004	3714.075
2266.70783	3689.275
2269.59378	3678.875
2272.4779	3679.275
2275.36017	3669.975
2278.24061	3645.175
2281.11922	3628.675
2283.996	3637.575
2286.87094	3603.175
2289.74405	3589.575
2292.61534	3579.975
2295.4848	3578.875
2298.35243	3562.575
2301.21824	3557.475
2304.08223	3546.175
2306.94439	3558.275
2309.80474	3544.675
2312.66327	3539.975
2315.51999	3546.475
2318.37489	3535.875
2321.22797	3518.575
2324.07925	3511.475
2326.92871	3496.975
2329.77637	3500.175
2332.62222	3479.675
2335.46626	3469.875
2338.3085	3481.475
2341.14893	3455.475
2343.98756	3469.275
2346.8244	3467.075
2349.65943	3466.175
2352.49267	3490.775
2355.32411	3485.275
2358.15376	3485.775
2360.98161	3500.875
2363.80768	3486.475
2366.63195	3503.175
2369.45444	3506.075
2372.27514	3520.375
2375.09405	3502.975
2377.91118	3500.575
2380.72652	3480.375
2383.54009	3456.575
2386.35187	3432.175
2389.16188	3415.475
2391.97011	3395.975
2394.77657	3372.475
2397.58125	3364.075
2400.38416	3362.575
2403.18529	3335.375
2405.98466	3342.375
2408.78226	3340.175
2411.57809	3331.875
2414.37216	3319.675
2417.16446	3304.175
2419.955	3310.475
2422.74378	3305.775
2425.5308	3298.975
2428.31606	3298.875
2431.09956	3305.575
2433.88131	3293.575
2436.6613	3304.475
2439.43954	3305.875
2442.21603	3309.475
2444.99077	3301.475
2447.76377	3299.175
2450.53501	3306.575
2453.30451	3298.975
2456.07226	3286.675
2458.83827	3287.275
2461.60254	3289.475
2464.36507	3279.075
2467.12586	3279.375
2469.88492	3276.875
2472.64224	3277.075
2475.39782	3283.375
2478.15167	3286.275
2480.90379	3292.075
2483.65417	3294.375
2486.40283	3290.575
2489.14976	3296.575
2491.89497	3290.675
2494.63845	3300.375
2497.3802	3307.575
2500.12024	3289.775
2502.85855	3282.275
2505.59514	3269.375
2508.33002	3251.975
2511.06318	3214.775
2513.79462	3218.975
2516.52435	3186.375
2519.25237	3174.575
2521.97867	3150.375
2524.70327	3141.575
2527.42616	3120.175
2530.14734	3122.775
2532.86681	3115.275
2535.58458	3107.575
2538.30065	3105.175
2541.01501	3113.175
2543.72768	3108.275
2546.43864	3105.175
2549.14791	3107.375
2551.85548	3102.875
2554.56136	3108.375
2557.26554	3106.275
2559.96803	3090.675
2562.66883	3091.275
2565.36794	3071.775
2568.06536	3075.775
2570.7611	3067.875
2573.45514	3059.575
2576.14751	3058.175
2578.83819	3041.675
2581.52719	3032.375
2584.21451	3016.375
2586.90015	3013.075
2589.58411	3008.875
2592.2664	3006.875
2594.94701	2993.975
2597.62594	2992.675
2600.30321	2980.075
2602.9788	2972.675
2605.65273	2970.875
2608.32498	2972.575
2610.99557	2972.075
2613.66449	2967.475
2616.33175	2953.875
2618.99734	2963.775
2621.66128	2941.275
2624.32355	2944.275
2626.98416	2938.875
2629.64311	2925.575
2632.30041	2923.075
2634.95605	2907.375
2637.61004	2899.075
2640.26238	2896.375
2642.91306	2879.275
2645.56209	2878.275
2648.20948	2869.975
2650.85521	2865.475
2653.4993	2869.875
2656.14175	2858.075
2658.78255	2875.175
2661.42171	2874.475
2664.05923	2882.875
2666.6951	2884.175
2669.32934	2886.075
2671.96194	2882.275
2674.59291	2883.875
2677.22224	2890.775
2679.84993	2878.375
2682.476	2890.175
2685.10043	2888.975
2687.72324	2871.275
2690.34441	2864.275
2692.96396	2858.575
2695.58188	2869.075
2698.19818	2863.075
2700.81285	2865.175
2703.4259	2845.975
2706.03733	2842.875
2708.64714	2835.775
2711.25533	2843.975
2713.86191	2856.875
2716.46687	2857.675
2719.07021	2859.375
2721.67194	2859.075
2724.27206	2857.275
2726.87057	2855.975
2729.46747	2845.575
2732.06276	2844.375
2734.65644	2832.375
2737.24852	2834.475
2739.83899	2821.575
2742.42786	2819.875
2745.01513	2802.075
2747.60079	2810.375
2750.18486	2802.275
2752.76733	2770.075
2755.3482	2787.975
2757.92747	2769.175
2760.50515	2749.475
2763.08123	2768.675
2765.65573	2751.075
2768.22863	2754.075
2770.79994	2738.175
2773.36967	2748.675
2775.9378	2735.575
2778.50435	2734.475
2781.06932	2728.075
2783.6327	2729.075
2786.1945	2714.275
2788.75471	2721.275
2791.31335	2711.875
2793.87041	2703.075
2796.42589	2699.675
2798.97979	2708.675
2801.53212	2701.475
2804.08288	2699.775
2806.63206	2689.475
2809.17967	2686.175
2811.72571	2684.275
2814.27018	2689.675
2816.81308	2674.775
2819.35442	2691.775
2821.89419	2676.475
2824.43239	2695.275
2826.96904	2702.575
2829.50412	2698.075
2832.03763	2690.975
2834.56959	2694.775
2837.1	2679.175
2839.62884	2680.775
2842.15613	2680.675
2844.68186	2679.675
2847.20604	2680.275
2849.72867	2688.475
2852.24974	2693.575
2854.76927	2697.775
2857.28724	2701.775
2859.80367	2708.375
2862.31855	2698.975
2864.83189	2709.475
2867.34368	2712.175
2869.85393	2709.175
2872.36264	2702.975
2874.8698	2700.375
2877.37543	2701.175
2879.87952	2692.775
2882.38207	2692.075
2884.88308	2681.875
2887.38256	2678.075
2889.88051	2672.775
2892.37692	2661.575
2894.8718	2668.175
2897.36515	2668.275
2899.85698	2679.875
2902.34727	2684.175
2904.83604	2688.675
2907.32328	2684.675
2909.809	2709.475
2912.29319	2714.275
2914.77587	2715.875
2917.25702	2717.075
2919.73665	2707.775
2922.21476	2711.375
2924.69136	2690.475
2927.16644	2682.975
2929.64	2672.575
2932.11205	2659.375
2934.58258	2643.275
2937.05161	2645.675
2939.51912	2637.775
2941.98513	2636.975
2944.44962	2627.375
2946.91261	2607.875
2949.37409	2605.175
2951.83407	2615.975
2954.29254	2618.175
2956.74951	2597.875
2959.20498	2595.975
2961.65895	2594.175
2964.11142	2592.875
2966.56239	2588.175
2969.01186	2578.975
2971.45984	2571.575
2973.90632	2570.775
2976.35131	2571.375
2978.7948	2559.675
2981.23681	2562.375
2983.67732	2546.575
2986.11635	2544.075
2988.55388	2542.675
2990.98993	2535.675
2993.4245	2536.975
2995.85758	2512.275
2998.28917	2514.175
3000.71928	2507.075
3003.14791	2498.975
3005.57506	2522.175
3008.00073	2509.075
3010.42493	2507.275
3012.84764	2494.975
3015.26888	2496.675
3017.68865	2489.975
3020.10694	2469.375
3022.52376	2476.375
3024.9391	2473.475
3027.35298	2466.575
3029.76539	2464.175
3032.17632	2454.475
3034.5858	2448.575
3036.9938	2449.075
3039.40034	2440.375
3041.80542	2409.575
3044.20903	2421.675
3046.61118	2412.175
3049.01187	2396.175
3051.4111	2404.275
3053.80888	2398.575
3056.20519	2399.975
3058.60005	2391.275
3060.99345	2391.675
3063.3854	2387.075
3065.7759	2382.775
3068.16494	2391.775
3070.55254	2378.675
3072.93868	2370.675
3075.32338	2364.675
3077.70662	2362.075
3080.08842	2373.175
3082.46878	2367.475
3084.84769	2356.875
3087.22515	2353.775
3089.60118	2351.575
3091.97576	2359.675
3094.3489	2356.175
3096.72061	2363.575
3099.09087	2368.875
3101.4597	2363.975
3103.82709	2357.175
3106.19305	2365.875
3108.55757	2370.575
3110.92066	2355.375
3113.28232	2361.975
3115.64255	2350.875
3118.00134	2351.875
3120.35871	2352.975
3122.71466	2362.775
3125.06917	2351.775
3127.42226	2354.775
3129.77393	2365.575
3132.12417	2357.675
3134.47299	2355.675
3136.82039	2360.275
3139.16636	2366.575
3141.51092	2359.875
3143.85406	2365.975
3146.19579	2378.875
3148.53609	2382.475
3150.87499	2388.675
3153.21246	2394.475
3155.54853	2394.075
3157.88318	2402.475
3160.21642	2410.175
3162.54826	2415.875
3164.87868	2406.375
3167.2077	2415.475
3169.5353	2420.275
3171.86151	2413.675
3174.18631	2410.875
3176.5097	2412.475
3178.83169	2416.675
3181.15228	2421.275
3183.47147	2414.175
3185.78926	2418.075
3188.10565	2403.475
3190.42065	2417.575
3192.73424	2402.775
3195.04645	2412.275
3197.35725	2414.275
3199.66667	2420.375
3201.97469	2412.375
3204.28132	2420.875
3206.58656	2413.475
3208.8904	2420.075
3211.19287	2431.875
3213.49394	2439.175
3215.79363	2448.075
3218.09193	2444.775
3220.38884	2450.375
