Data from AgNPs_UA_100uM_CRN_0uM_R6G_10uM_Q_RamanShift__10__13-24-05-319.txt Node

Date: Tue Jul 26 13:24:05 BST 2022
User: TCL
Spectrometer: QEP01345
Trigger mode: 4
Integration Time (sec): 7.000000E0
Scans to average: 10
Electric dark correction enabled: true
Nonlinearity correction enabled: false
Boxcar width: 0
XAxis mode: Raman Shifts
Number of Pixels in Spectrum: 1044
>>>>>Begin Spectral Data<<<<<
46.04893	-0.6875
50.45542	0.2125
54.85868	-0.7875
59.25871	-0.7875
63.6555	65.5125
68.04907	72.9125
72.43941	77.6125
76.82654	80.9125
81.21044	86.2125
85.59113	86.7125
89.96862	95.4125
94.34289	96.0125
98.71396	100.3125
103.08183	100.4125
107.4465	99.2125
111.80798	101.2125
116.16626	105.0125
120.52136	108.2125
124.87327	111.7125
129.222	115.4125
133.56755	117.9125
137.90993	123.0125
142.24913	130.1125
146.58517	138.1125
150.91804	150.1125
155.24774	171.8125
159.57429	210.6125
163.89768	251.7125
168.21792	323.2125
172.53501	431.4125
176.84895	588.7125
181.15975	822.3125
185.46741	1140.0125
189.77193	1559.2125
194.07331	2085.1125
198.37157	2677.0125
202.6667	3294.2125
206.9587	3902.7125
211.24758	4508.9125
215.53334	5093.1125
219.81599	5740.0125
224.09553	6444.8125
228.37195	7201.6125
232.64527	8062.6125
236.91549	8992.0125
241.18261	9879.8125
245.44663	10721.7125
249.70755	11491.5125
253.96539	12132.3125
258.22014	12698.9125
262.4718	13106.0125
266.72039	13429.1125
270.96589	13543.2125
275.20832	13535.1125
279.44768	13431.6125
283.68397	13292.6125
287.91719	13182.1125
292.14735	13095.4125
296.37445	13097.8125
300.59849	13172.7125
304.81948	13289.1125
309.03742	13355.0125
313.25231	13365.3125
317.46415	13211.9125
321.67296	13003.8125
325.87872	12768.6125
330.08145	12695.4125
334.28114	12760.0125
338.47781	12838.2125
342.67145	13005.4125
346.86207	13230.8125
351.04966	13504.8125
355.23424	13772.9125
359.4158	14025.2125
363.59435	14187.1125
367.76989	14324.2125
371.94243	14440.0125
376.11196	14493.2125
380.27849	14570.3125
384.44203	14637.6125
388.60257	14705.8125
392.76012	14832.1125
396.91468	14976.0125
401.06626	15171.4125
405.21485	15344.8125
409.36047	15283.0125
413.50311	15113.6125
417.64277	14966.8125
421.77947	14929.3125
425.9132	14978.6125
430.04396	15068.2125
434.17176	15212.6125
438.2966	15305.4125
442.41849	15476.2125
446.53742	15627.5125
450.6534	15833.0125
454.76644	15969.1125
458.87653	16094.9125
462.98368	16087.2125
467.08789	16059.3125
471.18916	16019.2125
475.2875	15897.8125
479.38291	15773.4125
483.4754	15702.5125
487.56496	15633.3125
491.6516	15636.9125
495.73531	15668.2125
499.81612	15717.6125
503.89401	15800.4125
507.96899	15864.5125
512.04106	15894.0125
516.11023	15922.3125
520.1765	15965.1125
524.23987	16022.7125
528.30034	15979.2125
532.35792	15942.3125
536.41261	15912.8125
540.46441	15878.8125
544.51333	15861.7125
548.55936	15966.6125
552.60252	16131.8125
556.64279	16278.0125
560.6802	16340.3125
564.71473	16389.6125
568.7464	16475.2125
572.7752	16592.2125
576.80114	16639.0125
580.82422	16780.0125
584.84444	16918.3125
588.86181	17034.9125
592.87633	16991.3125
596.888	17108.9125
600.89682	17357.6125
604.9028	18109.2125
608.90594	19636.8125
612.90624	21200.8125
616.90371	20269.2125
620.89834	17842.3125
624.89015	16814.2125
628.87913	16686.8125
632.86528	16886.2125
636.84862	17071.5125
640.82913	16984.8125
644.80683	16742.1125
648.78172	16568.3125
652.75379	16543.4125
656.72306	16717.3125
660.68952	16915.2125
664.65319	16845.9125
668.61405	16700.2125
672.57211	16649.1125
676.52738	16660.5125
680.47986	16650.2125
684.42955	16626.6125
688.37646	16547.6125
692.32058	16630.5125
696.26192	16749.5125
700.20048	16855.1125
704.13626	16989.7125
708.06928	17001.4125
711.99952	16920.1125
715.927	16920.6125
719.85171	16925.1125
723.77365	16953.8125
727.69284	16925.9125
731.60928	16871.9125
735.52295	16853.2125
739.43388	16875.5125
743.34206	16961.1125
747.24749	16970.0125
751.15017	17037.2125
755.05012	17160.0125
758.94733	17495.9125
762.8418	18137.7125
766.73354	19204.4125
770.62254	20201.2125
774.50882	20489.7125
778.39237	19848.1125
782.27321	18871.7125
786.15132	17976.3125
790.02671	17463.0125
793.89938	17183.0125
797.76935	17032.3125
801.6366	16994.6125
805.50115	16983.5125
809.36299	16939.5125
813.22213	16904.7125
817.07857	16900.5125
820.93231	16938.4125
824.78336	16939.5125
828.63172	16947.9125
832.47738	16929.0125
836.32036	16911.1125
840.16066	16923.4125
843.99827	16929.1125
847.8332	16938.4125
851.66546	16952.2125
855.49504	17003.7125
859.32195	17022.3125
863.1462	17028.6125
866.96777	17019.4125
870.78668	17038.6125
874.60293	17091.2125
878.41652	17109.8125
882.22745	17205.1125
886.03573	17244.2125
889.84136	17264.7125
893.64433	17230.7125
897.44466	17199.7125
901.24235	17188.7125
905.0374	17143.6125
908.8298	17169.1125
912.61957	17142.3125
916.40671	17114.3125
920.19121	17199.4125
923.97308	17252.2125
927.75233	17250.0125
931.52895	17269.7125
935.30295	17166.6125
939.07433	17043.6125
942.84309	16933.7125
946.60924	16874.4125
950.37278	16823.1125
954.13371	16790.3125
957.89203	16815.8125
961.64774	16786.3125
965.40086	16759.9125
969.15137	16752.8125
972.89929	16730.4125
976.64461	16732.9125
980.38733	16718.0125
984.12747	16755.9125
987.86502	16841.1125
991.59999	16878.4125
995.33237	16935.5125
999.06217	17036.2125
1002.78939	17171.9125
1006.51404	17376.3125
1010.23611	17536.4125
1013.95561	17662.0125
1017.67255	17665.6125
1021.38692	17646.4125
1025.09872	17521.6125
1028.80796	17400.7125
1032.51465	17370.4125
1036.21877	17362.8125
1039.92035	17384.4125
1043.61937	17413.9125
1047.31584	17460.7125
1051.00976	17546.5125
1054.70114	17552.3125
1058.38998	17651.9125
1062.07627	17697.7125
1065.76003	17822.8125
1069.44126	17981.7125
1073.11995	18147.2125
1076.79611	18338.4125
1080.46974	18463.6125
1084.14085	18565.1125
1087.80943	18651.8125
1091.47549	18706.0125
1095.13903	18650.8125
1098.80005	18531.0125
1102.45857	18354.4125
1106.11456	18172.6125
1109.76805	18154.1125
1113.41903	18138.5125
1117.06751	18270.4125
1120.71348	18443.9125
1124.35696	18696.6125
1127.99793	18857.3125
1131.63641	18895.0125
1135.2724	18730.2125
1138.90589	18562.1125
1142.5369	18458.9125
1146.16542	18343.8125
1149.79145	18264.0125
1153.415	18194.3125
1157.03607	18155.5125
1160.65467	18326.8125
1164.27079	18566.1125
1167.88443	18986.7125
1171.49561	19508.4125
1175.10432	20300.0125
1178.71056	21355.5125
1182.31434	22290.1125
1185.91565	22806.4125
1189.51451	22953.3125
1193.11091	22829.7125
1196.70485	22363.3125
1200.29634	21787.8125
1203.88538	21232.5125
1207.47197	20678.5125
1211.05612	20136.0125
1214.63782	19759.8125
1218.21708	19450.7125
1221.79391	19314.6125
1225.36829	19214.2125
1228.94024	19198.2125
1232.50976	19207.3125
1236.07685	19235.5125
1239.6415	19249.6125
1243.20374	19265.2125
1246.76355	19328.4125
1250.32093	19417.0125
1253.8759	19560.7125
1257.42845	19861.1125
1260.97859	20159.4125
1264.52631	20457.0125
1268.07163	20706.9125
1271.61453	20928.5125
1275.15503	21102.2125
1278.69312	21202.5125
1282.22882	21297.4125
1285.76211	21409.8125
1289.29301	21653.8125
1292.82151	21960.1125
1296.34761	22311.9125
1299.87133	22778.6125
1303.39266	23484.9125
1306.9116	24358.8125
1310.42815	25286.3125
1313.94233	25722.0125
1317.45412	25442.5125
1320.96354	24925.3125
1324.47058	24403.5125
1327.97525	23913.0125
1331.47754	23599.7125
1334.97747	23570.6125
1338.47502	23746.3125
1341.97022	24105.1125
1345.46305	24716.4125
1348.95352	25432.0125
1352.44163	26196.9125
1355.92738	27008.0125
1359.41078	28004.6125
1362.89183	28818.8125
1366.37053	28264.9125
1369.84688	26225.4125
1373.32088	24002.7125
1376.79254	22463.9125
1380.26186	21607.8125
1383.72883	21133.9125
1387.19347	20769.5125
1390.65578	20403.4125
1394.11575	20006.8125
1397.57339	19710.3125
1401.0287	19543.8125
1404.48168	19443.9125
1407.93234	19440.5125
1411.38068	19460.0125
1414.82669	19455.1125
1418.27039	19335.3125
1421.71177	19181.3125
1425.15083	19047.7125
1428.58758	18905.5125
1432.02203	18908.1125
1435.45416	18991.1125
1438.88399	19053.9125
1442.31151	19078.1125
1445.73673	19155.7125
1449.15965	19252.1125
1452.58027	19286.3125
1455.9986	19318.1125
1459.41463	19355.1125
1462.82837	19554.0125
1466.23982	19832.7125
1469.64898	20142.4125
1473.05586	20442.3125
1476.46045	20663.0125
1479.86276	20802.0125
1483.26279	20946.5125
1486.66054	21161.9125
1490.05602	21445.1125
1493.44922	21906.7125
1496.84016	22680.8125
1500.22882	23779.3125
1503.61521	25185.1125
1506.99934	26562.5125
1510.38121	27272.1125
1513.76081	27020.5125
1517.13816	25866.9125
1520.51324	24364.4125
1523.88607	23168.4125
1527.25665	22437.3125
1530.62498	22045.8125
1533.99105	21861.7125
1537.35488	21757.7125
1540.71647	21529.4125
1544.07581	21360.2125
1547.4329	21174.2125
1550.78776	21007.4125
1554.14038	20896.6125
1557.49077	20841.1125
1560.83892	20887.7125
1564.18484	21056.9125
1567.52853	21301.9125
1570.86999	21461.1125
1574.20922	21599.1125
1577.54624	21528.8125
1580.88103	21126.7125
1584.2136	20582.1125
1587.54395	20297.5125
1590.87208	20357.2125
1594.19801	20718.0125
1597.52172	21288.8125
1600.84321	21536.6125
1604.16251	21383.8125
1607.47959	21005.5125
1610.79447	20514.2125
1614.10715	19904.0125
1617.41763	19262.4125
1620.7259	18765.6125
1624.03199	18417.5125
1627.33587	18300.7125
1630.63757	18354.4125
1633.93707	18596.5125
1637.23439	19172.4125
1640.52951	20040.3125
1643.82246	21226.7125
1647.11321	22445.5125
1650.40179	23083.6125
1653.68819	22658.4125
1656.97241	21326.7125
1660.25446	19785.5125
1663.53433	18598.1125
1666.81203	17838.1125
1670.08756	17348.4125
1673.36092	17014.3125
1676.63211	16791.6125
1679.90115	16645.1125
1683.16801	16509.1125
1686.43272	16368.1125
1689.69527	16292.2125
1692.95567	16239.6125
1696.2139	16185.2125
1699.46999	16151.7125
1702.72392	16062.4125
1705.97571	16067.4125
1709.22535	16055.0125
1712.47284	16003.2125
1715.71819	15984.0125
1718.96139	15962.1125
1722.20246	15948.4125
1725.44139	15891.1125
1728.67818	15859.8125
1731.91284	15794.8125
1735.14537	15754.9125
1738.37576	15682.3125
1741.60403	15658.2125
1744.83017	15603.6125
1748.05418	15555.5125
1751.27607	15543.9125
1754.49584	15514.9125
1757.71349	15506.0125
1760.92903	15499.8125
1764.14244	15508.2125
1767.35375	15499.5125
1770.56294	15479.2125
1773.77002	15462.0125
1776.97499	15450.2125
1780.17785	15414.6125
1783.37861	15378.8125
1786.57727	15356.0125
1789.77382	15348.4125
1792.96828	15365.5125
1796.16064	15328.7125
1799.3509	15310.0125
1802.53907	15318.2125
1805.72514	15251.2125
1808.90913	15198.1125
1812.09102	15178.0125
1815.27083	15174.2125
1818.44856	15160.5125
1821.6242	15133.6125
1824.79776	15111.2125
1827.96924	15067.7125
1831.13864	15047.8125
1834.30597	15058.5125
1837.47122	15026.4125
1840.6344	15039.7125
1843.7955	15034.2125
1846.95454	15018.6125
1850.11151	15004.2125
1853.26642	14983.9125
1856.41926	14999.3125
1859.57004	14973.2125
1862.71876	14943.2125
1865.86542	14974.7125
1869.01003	14935.2125
1872.15258	14904.9125
1875.29308	14934.2125
1878.43152	14872.9125
1881.56792	14863.1125
1884.70227	14854.6125
1887.83457	14798.2125
1890.96482	14780.6125
1894.09304	14782.4125
1897.21921	14756.4125
1900.34335	14718.2125
1903.46544	14726.2125
1906.58551	14707.0125
1909.70353	14712.6125
1912.81953	14685.3125
1915.93349	14681.1125
1919.04543	14678.6125
1922.15534	14656.6125
1925.26322	14656.6125
1928.36908	14581.9125
1931.47292	14558.6125
1934.57473	14550.4125
1937.67453	14509.9125
1940.77232	14491.9125
1943.86808	14441.6125
1946.96184	14410.5125
1950.05358	14377.5125
1953.14331	14339.0125
1956.23103	14289.9125
1959.31675	14244.5125
1962.40046	14224.9125
1965.48217	14186.7125
1968.56188	14160.4125
1971.63959	14104.3125
1974.7153	14036.1125
1977.78901	14008.9125
1980.86073	13961.0125
1983.93046	13952.1125
1986.99819	13893.7125
1990.06394	13867.7125
1993.1277	13812.8125
1996.18947	13764.4125
1999.24925	13731.6125
2002.30706	13686.0125
2005.36288	13630.6125
2008.41672	13626.6125
2011.46859	13569.6125
2014.51848	13518.2125
2017.56639	13498.1125
2020.61233	13474.9125
2023.6563	13446.1125
2026.6983	13413.6125
2029.73833	13376.9125
2032.7764	13347.9125
2035.8125	13309.1125
2038.84664	13295.6125
2041.87881	13296.4125
2044.90903	13244.6125
2047.93729	13228.9125
2050.96359	13224.7125
2053.98794	13206.3125
2057.01034	13212.8125
2060.03078	13185.9125
2063.04927	13181.7125
2066.06582	13144.8125
2069.08042	13144.8125
2072.09307	13136.4125
2075.10378	13131.9125
2078.11255	13130.2125
2081.11938	13140.0125
2084.12426	13146.5125
2087.12722	13133.7125
2090.12824	13115.3125
2093.12732	13131.8125
2096.12447	13124.1125
2099.11969	13128.5125
2102.11299	13120.5125
2105.10435	13145.7125
2108.09379	13130.9125
2111.08131	13129.6125
2114.0669	13129.4125
2117.05057	13156.5125
2120.03233	13169.8125
2123.01216	13189.7125
2125.99008	13202.6125
2128.96609	13213.0125
2131.94018	13238.9125
2134.91236	13247.5125
2137.88263	13254.3125
2140.851	13243.1125
2143.81746	13257.5125
2146.78201	13244.3125
2149.74466	13242.3125
2152.7054	13253.7125
2155.66425	13275.0125
2158.6212	13284.1125
2161.57625	13252.7125
2164.52941	13243.9125
2167.48067	13213.8125
2170.43004	13224.6125
2173.37752	13208.3125
2176.32311	13191.9125
2179.26681	13212.4125
2182.20863	13202.2125
2185.14856	13212.8125
2188.08661	13219.8125
2191.02278	13227.8125
2193.95707	13190.5125
2196.88948	13212.1125
2199.82001	13187.5125
2202.74867	13187.3125
2205.67545	13142.8125
2208.60037	13149.0125
2211.52341	13112.3125
2214.44458	13113.1125
2217.36388	13071.7125
2220.28132	13040.3125
2223.1969	13004.9125
2226.11061	12976.5125
2229.02246	12972.5125
2231.93245	12959.8125
2234.84058	12930.9125
2237.74686	12925.4125
2240.65128	12876.1125
2243.55385	12858.9125
2246.45456	12885.7125
2249.35343	12844.1125
2252.25044	12831.2125
2255.14561	12835.0125
2258.03893	12785.1125
2260.93041	12805.4125
2263.82004	12734.1125
2266.70783	12731.2125
2269.59378	12702.4125
2272.4779	12704.9125
2275.36017	12661.9125
2278.24061	12633.5125
2281.11922	12614.7125
2283.996	12605.8125
2286.87094	12573.3125
2289.74405	12529.4125
2292.61534	12541.1125
2295.4848	12526.1125
2298.35243	12519.0125
2301.21824	12526.9125
2304.08223	12501.6125
2306.94439	12492.7125
2309.80474	12481.9125
2312.66327	12463.5125
2315.51999	12468.1125
2318.37489	12433.0125
2321.22797	12421.5125
2324.07925	12399.2125
2326.92871	12383.1125
2329.77637	12343.8125
2332.62222	12346.5125
2335.46626	12319.6125
2338.3085	12294.0125
2341.14893	12270.5125
2343.98756	12277.4125
2346.8244	12257.6125
2349.65943	12244.9125
2352.49267	12226.6125
2355.32411	12228.8125
2358.15376	12231.4125
2360.98161	12202.7125
2363.80768	12187.0125
2366.63195	12203.5125
2369.45444	12192.7125
2372.27514	12175.5125
2375.09405	12186.3125
2377.91118	12188.2125
2380.72652	12127.2125
2383.54009	12095.0125
2386.35187	12113.3125
2389.16188	12060.0125
2391.97011	12037.1125
2394.77657	12009.9125
2397.58125	11971.6125
2400.38416	11962.9125
2403.18529	11947.7125
2405.98466	11943.7125
2408.78226	11900.3125
2411.57809	11893.1125
2414.37216	11893.8125
2417.16446	11862.7125
2419.955	11864.7125
2422.74378	11851.8125
2425.5308	11855.5125
2428.31606	11847.0125
2431.09956	11845.2125
2433.88131	11815.6125
2436.6613	11816.1125
2439.43954	11812.1125
2442.21603	11794.1125
2444.99077	11802.7125
2447.76377	11796.6125
2450.53501	11781.1125
2453.30451	11737.3125
2456.07226	11705.0125
2458.83827	11722.9125
2461.60254	11682.9125
2464.36507	11686.0125
2467.12586	11688.1125
2469.88492	11661.4125
2472.64224	11661.2125
2475.39782	11631.4125
2478.15167	11653.7125
2480.90379	11653.3125
2483.65417	11638.4125
2486.40283	11641.9125
2489.14976	11638.4125
2491.89497	11605.2125
2494.63845	11590.3125
2497.3802	11592.9125
2500.12024	11597.7125
2502.85855	11564.9125
2505.59514	11567.2125
2508.33002	11551.5125
2511.06318	11532.5125
2513.79462	11513.8125
2516.52435	11515.7125
2519.25237	11473.3125
2521.97867	11475.6125
2524.70327	11466.7125
2527.42616	11442.4125
2530.14734	11431.4125
2532.86681	11436.9125
2535.58458	11378.8125
2538.30065	11362.3125
2541.01501	11374.6125
2543.72768	11355.9125
2546.43864	11324.1125
2549.14791	11296.6125
2551.85548	11303.6125
2554.56136	11287.3125
2557.26554	11287.2125
2559.96803	11239.9125
2562.66883	11234.1125
2565.36794	11200.3125
2568.06536	11177.2125
2570.7611	11166.2125
2573.45514	11132.1125
2576.14751	11117.4125
2578.83819	11107.5125
2581.52719	11114.6125
2584.21451	11058.8125
2586.90015	11082.6125
2589.58411	11024.0125
2592.2664	11028.4125
2594.94701	10997.0125
2597.62594	10999.1125
2600.30321	10941.9125
2602.9788	10948.9125
2605.65273	10953.1125
2608.32498	10947.7125
2610.99557	10923.0125
2613.66449	10918.4125
2616.33175	10892.2125
2618.99734	10891.4125
2621.66128	10863.5125
2624.32355	10840.1125
2626.98416	10820.3125
2629.64311	10814.4125
2632.30041	10808.4125
2634.95605	10774.6125
2637.61004	10757.1125
2640.26238	10747.3125
2642.91306	10760.3125
2645.56209	10722.4125
2648.20948	10712.2125
2650.85521	10707.7125
2653.4993	10721.6125
2656.14175	10700.1125
2658.78255	10705.3125
2661.42171	10695.9125
2664.05923	10708.2125
2666.6951	10720.3125
2669.32934	10722.7125
2671.96194	10708.6125
2674.59291	10692.3125
2677.22224	10707.5125
2679.84993	10710.5125
2682.476	10712.8125
2685.10043	10681.6125
2687.72324	10659.1125
2690.34441	10666.1125
2692.96396	10672.7125
2695.58188	10674.0125
2698.19818	10625.3125
2700.81285	10672.5125
2703.4259	10626.3125
2706.03733	10648.9125
2708.64714	10642.3125
2711.25533	10679.1125
2713.86191	10659.9125
2716.46687	10667.0125
2719.07021	10660.3125
2721.67194	10683.9125
2724.27206	10654.9125
2726.87057	10651.4125
2729.46747	10634.7125
2732.06276	10659.2125
2734.65644	10635.4125
2737.24852	10655.7125
2739.83899	10637.1125
2742.42786	10660.8125
2745.01513	10604.9125
2747.60079	10566.2125
2750.18486	10560.1125
2752.76733	10550.9125
2755.3482	10527.5125
2757.92747	10511.5125
2760.50515	10514.8125
2763.08123	10503.0125
2765.65573	10509.8125
2768.22863	10481.6125
2770.79994	10442.1125
2773.36967	10448.1125
2775.9378	10415.1125
2778.50435	10404.4125
2781.06932	10417.3125
2783.6327	10381.3125
2786.1945	10403.9125
2788.75471	10373.6125
2791.31335	10345.4125
2793.87041	10352.6125
2796.42589	10315.4125
2798.97979	10324.9125
2801.53212	10285.5125
2804.08288	10268.9125
2806.63206	10237.1125
2809.17967	10195.4125
2811.72571	10203.0125
2814.27018	10181.2125
2816.81308	10131.6125
2819.35442	10108.6125
2821.89419	10070.0125
2824.43239	10103.7125
2826.96904	10065.4125
2829.50412	10069.7125
2832.03763	10030.1125
2834.56959	10008.9125
2837.1	10015.4125
2839.62884	10028.5125
2842.15613	9994.0125
2844.68186	9996.0125
2847.20604	9975.2125
2849.72867	9955.9125
2852.24974	9956.8125
2854.76927	9950.2125
2857.28724	9940.7125
2859.80367	9936.0125
2862.31855	9913.3125
2864.83189	9916.0125
2867.34368	9894.4125
2869.85393	9865.2125
2872.36264	9840.2125
2874.8698	9840.3125
2877.37543	9845.7125
2879.87952	9828.6125
2882.38207	9833.4125
2884.88308	9847.3125
2887.38256	9840.4125
2889.88051	9810.4125
2892.37692	9828.4125
2894.8718	9814.3125
2897.36515	9832.0125
2899.85698	9831.4125
2902.34727	9826.4125
2904.83604	9839.6125
2907.32328	9885.1125
2909.809	9858.0125
2912.29319	9855.9125
2914.77587	9845.9125
2917.25702	9849.6125
2919.73665	9838.1125
2922.21476	9839.3125
2924.69136	9810.8125
2927.16644	9824.6125
2929.64	9835.5125
2932.11205	9791.7125
2934.58258	9765.2125
2937.05161	9783.2125
2939.51912	9773.0125
2941.98513	9775.6125
2944.44962	9791.7125
2946.91261	9737.8125
2949.37409	9732.6125
2951.83407	9720.7125
2954.29254	9728.3125
2956.74951	9708.1125
2959.20498	9722.2125
2961.65895	9702.2125
2964.11142	9722.4125
2966.56239	9714.1125
2969.01186	9717.8125
2971.45984	9690.5125
2973.90632	9697.4125
2976.35131	9686.7125
2978.7948	9666.2125
2981.23681	9648.1125
2983.67732	9627.1125
2986.11635	9618.8125
2988.55388	9596.7125
2990.98993	9594.4125
2993.4245	9558.9125
2995.85758	9558.3125
2998.28917	9536.6125
3000.71928	9551.5125
3003.14791	9527.5125
3005.57506	9496.7125
3008.00073	9459.3125
3010.42493	9448.6125
3012.84764	9427.8125
3015.26888	9453.3125
3017.68865	9416.1125
3020.10694	9386.2125
3022.52376	9383.7125
3024.9391	9367.9125
3027.35298	9356.9125
3029.76539	9378.4125
3032.17632	9342.2125
3034.5858	9326.0125
3036.9938	9319.4125
