Data from AgNPs_UA_10uM_CRN_0uM_R6G_10uM_Q_RamanShift__31__12-24-52-663.txt Node

Date: Mon Jul 18 12:24:52 BST 2022
User: TCL
Spectrometer: QEP01345
Trigger mode: 4
Integration Time (sec): 7.000000E0
Scans to average: 10
Electric dark correction enabled: true
Nonlinearity correction enabled: false
Boxcar width: 0
XAxis mode: Raman Shifts
Number of Pixels in Spectrum: 1044
>>>>>Begin Spectral Data<<<<<
46.04893	-0.6875
50.45542	-0.7875
54.85868	-0.3875
59.25871	-0.6875
63.6555	73.9125
68.04907	74.1125
72.43941	85.7125
76.82654	87.9125
81.21044	89.4125
85.59113	88.4125
89.96862	95.4125
94.34289	100.3125
98.71396	100.3125
103.08183	105.7125
107.4465	104.9125
111.80798	108.0125
116.16626	108.9125
120.52136	118.6125
124.87327	123.3125
129.222	123.9125
133.56755	134.4125
137.90993	139.8125
142.24913	142.2125
146.58517	158.2125
150.91804	189.4125
155.24774	221.3125
159.57429	271.8125
163.89768	340.2125
168.21792	448.8125
172.53501	606.9125
176.84895	827.0125
181.15975	1157.1125
185.46741	1609.3125
189.77193	2202.7125
194.07331	2930.4125
198.37157	3752.1125
202.6667	4610.7125
206.9587	5481.0125
211.24758	6340.7125
215.53334	7231.2125
219.81599	8228.0125
224.09553	9418.3125
228.37195	10666.4125
232.64527	12064.7125
236.91549	13400.2125
241.18261	14679.2125
245.44663	15764.1125
249.70755	16653.5125
253.96539	17367.8125
258.22014	17926.2125
262.4718	18459.5125
266.72039	18786.2125
270.96589	18948.0125
275.20832	18958.6125
279.44768	18763.7125
283.68397	18529.2125
287.91719	18428.6125
292.14735	18535.0125
296.37445	18890.7125
300.59849	19524.6125
304.81948	20234.6125
309.03742	20635.1125
313.25231	20400.2125
317.46415	19458.2125
321.67296	18045.6125
325.87872	16995.6125
330.08145	16500.7125
334.28114	16557.3125
338.47781	16837.8125
342.67145	17298.1125
346.86207	18006.3125
351.04966	19030.4125
355.23424	20114.4125
359.4158	20957.7125
363.59435	21384.2125
367.76989	21515.1125
371.94243	21469.7125
376.11196	21321.6125
380.27849	21220.0125
384.44203	21051.7125
388.60257	20810.1125
392.76012	20728.9125
396.91468	20970.3125
401.06626	21557.2125
405.21485	21859.0125
409.36047	21417.0125
413.50311	20383.8125
417.64277	19521.5125
421.77947	19019.9125
425.9132	18932.3125
430.04396	19053.9125
434.17176	19126.9125
438.2966	19464.9125
442.41849	20048.3125
446.53742	20751.5125
450.6534	21456.8125
454.76644	21836.0125
458.87653	21808.4125
462.98368	21523.0125
467.08789	21023.7125
471.18916	20442.2125
475.2875	19865.9125
479.38291	19414.4125
483.4754	19075.4125
487.56496	18791.0125
491.6516	18535.3125
495.73531	18429.6125
499.81612	18456.9125
503.89401	18645.7125
507.96899	18861.9125
512.04106	19101.4125
516.11023	19383.2125
520.1765	19519.8125
524.23987	19401.2125
528.30034	19089.5125
532.35792	18757.2125
536.41261	18334.5125
540.46441	17968.2125
544.51333	17839.0125
548.55936	18037.5125
552.60252	18529.7125
556.64279	19028.4125
560.6802	19224.0125
564.71473	19611.7125
568.7464	20460.9125
572.7752	20874.7125
576.80114	20367.5125
580.82422	19975.2125
584.84444	19952.6125
588.86181	20053.9125
592.87633	20320.8125
596.888	20713.5125
600.89682	21650.5125
604.9028	24573.0125
608.90594	31503.9125
612.90624	38135.1125
616.90371	33908.5125
620.89834	23798.2125
624.89015	19722.8125
628.87913	19105.1125
632.86528	19295.1125
636.84862	19437.1125
640.82913	18981.8125
644.80683	18102.3125
648.78172	17572.4125
652.75379	17784.0125
656.72306	18669.9125
660.68952	19464.0125
664.65319	19045.2125
668.61405	18129.0125
672.57211	17802.2125
676.52738	17759.6125
680.47986	17686.0125
684.42955	17520.3125
688.37646	17417.5125
692.32058	17555.3125
696.26192	17783.4125
700.20048	18047.6125
704.13626	18218.0125
708.06928	18143.6125
711.99952	17948.6125
715.927	17886.5125
719.85171	17937.7125
723.77365	17858.4125
727.69284	17665.5125
731.60928	17540.1125
735.52295	17570.1125
739.43388	17695.0125
743.34206	17846.1125
747.24749	17981.9125
751.15017	18189.6125
755.05012	18654.5125
758.94733	19808.8125
762.8418	22356.0125
766.73354	26181.5125
770.62254	29650.3125
774.50882	30954.1125
778.39237	29008.4125
782.27321	24906.0125
786.15132	21228.6125
790.02671	19245.4125
793.89938	18332.0125
797.76935	17921.4125
801.6366	17780.0125
805.50115	17688.5125
809.36299	17562.0125
813.22213	17482.6125
817.07857	17425.4125
820.93231	17441.4125
824.78336	17493.8125
828.63172	17575.3125
832.47738	17613.7125
836.32036	17570.1125
840.16066	17500.9125
843.99827	17418.5125
847.8332	17359.7125
851.66546	17311.2125
855.49504	17280.3125
859.32195	17220.2125
863.1462	17117.9125
866.96777	17056.1125
870.78668	17087.8125
874.60293	17091.7125
878.41652	17203.7125
882.22745	17351.9125
886.03573	17423.3125
889.84136	17348.0125
893.64433	17222.3125
897.44466	17197.4125
901.24235	17206.3125
905.0374	17113.0125
908.8298	17039.9125
912.61957	17024.0125
916.40671	17179.5125
920.19121	17391.0125
923.97308	17628.7125
927.75233	17844.7125
931.52895	17925.5125
935.30295	17627.6125
939.07433	17059.6125
942.84309	16650.4125
946.60924	16421.7125
950.37278	16312.5125
954.13371	16237.8125
957.89203	16156.8125
961.64774	16152.9125
965.40086	16091.3125
969.15137	16044.6125
972.89929	16053.9125
976.64461	16062.3125
980.38733	16098.7125
984.12747	16198.1125
987.86502	16253.8125
991.59999	16421.7125
995.33237	16712.8125
999.06217	17230.0125
1002.78939	17862.8125
1006.51404	18380.7125
1010.23611	18781.3125
1013.95561	19033.0125
1017.67255	18949.9125
1021.38692	18641.3125
1025.09872	18311.5125
1028.80796	18316.7125
1032.51465	18577.1125
1036.21877	18857.0125
1039.92035	18941.6125
1043.61937	18791.4125
1047.31584	18569.8125
1051.00976	18303.8125
1054.70114	18146.3125
1058.38998	18111.0125
1062.07627	18198.1125
1065.76003	18322.3125
1069.44126	18540.2125
1073.11995	18807.0125
1076.79611	19026.1125
1080.46974	19369.0125
1084.14085	19808.8125
1087.80943	20253.7125
1091.47549	20390.6125
1095.13903	19996.9125
1098.80005	19272.4125
1102.45857	18704.0125
1106.11456	18489.8125
1109.76805	18599.5125
1113.41903	19036.9125
1117.06751	19680.7125
1120.71348	20596.5125
1124.35696	21495.3125
1127.99793	22112.1125
1131.63641	21806.7125
1135.2724	20785.3125
1138.90589	19942.2125
1142.5369	19426.1125
1146.16542	19132.4125
1149.79145	19049.7125
1153.415	19080.9125
1157.03607	19354.3125
1160.65467	19840.5125
1164.27079	20667.9125
1167.88443	21953.8125
1171.49561	23965.9125
1175.10432	27133.9125
1178.71056	31074.1125
1182.31434	34050.9125
1185.91565	34835.3125
1189.51451	33993.5125
1193.11091	31778.8125
1196.70485	29212.7125
1200.29634	27206.2125
1203.88538	25574.2125
1207.47197	23951.3125
1211.05612	22727.1125
1214.63782	22188.8125
1218.21708	22113.2125
1221.79391	22205.8125
1225.36829	22251.3125
1228.94024	22226.5125
1232.50976	22176.3125
1236.07685	22226.4125
1239.6415	22335.7125
1243.20374	22407.6125
1246.76355	22580.4125
1250.32093	22899.0125
1253.8759	23511.7125
1257.42845	24312.0125
1260.97859	25131.4125
1264.52631	25907.3125
1268.07163	26643.2125
1271.61453	27272.7125
1275.15503	27877.6125
1278.69312	28295.3125
1282.22882	28694.3125
1285.76211	29486.2125
1289.29301	30512.2125
1292.82151	31631.7125
1296.34761	32782.0125
1299.87133	34540.6125
1303.39266	37346.8125
1306.9116	41387.7125
1310.42815	45568.8125
1313.94233	47445.8125
1317.45412	46214.6125
1320.96354	43456.3125
1324.47058	40661.9125
1327.97525	38547.1125
1331.47754	37488.9125
1334.97747	37285.8125
1338.47502	37471.6125
1341.97022	38114.4125
1345.46305	38895.7125
1348.95352	40306.6125
1352.44163	42669.6125
1355.92738	46430.3125
1359.41078	52046.8125
1362.89183	56517.2125
1366.37053	54033.9125
1369.84688	46357.7125
1373.32088	38962.7125
1376.79254	34213.8125
1380.26186	31724.5125
1383.72883	30512.4125
1387.19347	29494.2125
1390.65578	28379.4125
1394.11575	27618.0125
1397.57339	27424.0125
1401.0287	27655.3125
1404.48168	28256.8125
1407.93234	28955.4125
1411.38068	29463.9125
1414.82669	29369.6125
1418.27039	28530.3125
1421.71177	27459.9125
1425.15083	26667.7125
1428.58758	26344.9125
1432.02203	26534.6125
1435.45416	26827.6125
1438.88399	27092.3125
1442.31151	27150.4125
1445.73673	27292.5125
1449.15965	27446.6125
1452.58027	27345.0125
1455.9986	27053.8125
1459.41463	27021.4125
1462.82837	27350.3125
1466.23982	28066.4125
1469.64898	28771.4125
1473.05586	29278.8125
1476.46045	29670.5125
1479.86276	30146.9125
1483.26279	30724.7125
1486.66054	31393.4125
1490.05602	32427.2125
1493.44922	33797.2125
1496.84016	35830.4125
1500.22882	38878.9125
1503.61521	43037.0125
1506.99934	47509.6125
1510.38121	50960.0125
1513.76081	51423.5125
1517.13816	48144.7125
1520.51324	42628.4125
1523.88607	37806.9125
1527.25665	34731.7125
1530.62498	33037.0125
1533.99105	32050.0125
1537.35488	31415.7125
1540.71647	30942.7125
1544.07581	30585.7125
1547.4329	30235.3125
1550.78776	29695.5125
1554.14038	29302.3125
1557.49077	29160.4125
1560.83892	29354.6125
1564.18484	29972.4125
1567.52853	30746.7125
1570.86999	31324.9125
1574.20922	31758.0125
1577.54624	31480.4125
1580.88103	30013.4125
1584.2136	28450.6125
1587.54395	28017.3125
1590.87208	29045.5125
1594.19801	31258.5125
1597.52172	33899.7125
1600.84321	35026.7125
1604.16251	33926.0125
1607.47959	31399.2125
1610.79447	28363.7125
1614.10715	25608.0125
1617.41763	23620.4125
1620.7259	22461.1125
1624.03199	21932.4125
1627.33587	22052.6125
1630.63757	22709.0125
1633.93707	23991.9125
1637.23439	26023.1125
1640.52951	28930.4125
1643.82246	32547.0125
1647.11321	36152.7125
1650.40179	37936.5125
1653.68819	35978.2125
1656.97241	31108.2125
1660.25446	25959.0125
1663.53433	22298.4125
1666.81203	20079.6125
1670.08756	18716.8125
1673.36092	17908.7125
1676.63211	17362.1125
1679.90115	16990.7125
1683.16801	16686.2125
1686.43272	16479.6125
1689.69527	16334.3125
1692.95567	16203.2125
1696.2139	16126.0125
1699.46999	16058.4125
1702.72392	16012.9125
1705.97571	16015.3125
1709.22535	16007.8125
1712.47284	16001.0125
1715.71819	15989.7125
1718.96139	15952.3125
1722.20246	15893.1125
1725.44139	15807.2125
1728.67818	15689.7125
1731.91284	15557.2125
1735.14537	15445.4125
1738.37576	15400.2125
1741.60403	15364.2125
1744.83017	15300.7125
1748.05418	15254.2125
1751.27607	15205.2125
1754.49584	15192.3125
1757.71349	15180.3125
1760.92903	15143.0125
1764.14244	15104.5125
1767.35375	15089.8125
1770.56294	15060.3125
1773.77002	15037.0125
1776.97499	15008.5125
1780.17785	14960.1125
1783.37861	14927.1125
1786.57727	14912.8125
1789.77382	14903.8125
1792.96828	14884.9125
1796.16064	14848.9125
1799.3509	14833.2125
1802.53907	14797.9125
1805.72514	14754.9125
1808.90913	14699.4125
1812.09102	14680.7125
1815.27083	14619.2125
1818.44856	14606.0125
1821.6242	14565.5125
1824.79776	14566.9125
1827.96924	14556.1125
1831.13864	14513.8125
1834.30597	14528.2125
1837.47122	14466.4125
1840.6344	14499.5125
1843.7955	14491.3125
1846.95454	14463.5125
1850.11151	14430.4125
1853.26642	14478.2125
1856.41926	14470.6125
1859.57004	14477.6125
1862.71876	14466.5125
1865.86542	14472.4125
1869.01003	14489.0125
1872.15258	14487.7125
1875.29308	14472.9125
1878.43152	14478.2125
1881.56792	14481.3125
1884.70227	14493.4125
1887.83457	14468.2125
1890.96482	14457.9125
1894.09304	14448.0125
1897.21921	14469.6125
1900.34335	14449.9125
1903.46544	14448.5125
1906.58551	14421.5125
1909.70353	14417.7125
1912.81953	14421.8125
1915.93349	14434.7125
1919.04543	14427.6125
1922.15534	14388.0125
1925.26322	14362.6125
1928.36908	14301.9125
1931.47292	14288.5125
1934.57473	14223.3125
1937.67453	14151.4125
1940.77232	14153.1125
1943.86808	14081.4125
1946.96184	14023.3125
1950.05358	13966.1125
1953.14331	13908.5125
1956.23103	13863.2125
1959.31675	13814.1125
1962.40046	13786.0125
1965.48217	13775.0125
1968.56188	13745.8125
1971.63959	13696.5125
1974.7153	13663.5125
1977.78901	13629.3125
1980.86073	13562.3125
1983.93046	13516.0125
1986.99819	13505.3125
1990.06394	13431.7125
1993.1277	13376.4125
1996.18947	13340.2125
1999.24925	13323.4125
2002.30706	13277.1125
2005.36288	13277.1125
2008.41672	13237.7125
2011.46859	13154.6125
2014.51848	13145.0125
2017.56639	13128.7125
2020.61233	13081.8125
2023.6563	13052.2125
2026.6983	12958.3125
2029.73833	12936.7125
2032.7764	12918.2125
2035.8125	12898.5125
2038.84664	12854.0125
2041.87881	12864.3125
2044.90903	12817.9125
2047.93729	12764.8125
2050.96359	12770.3125
2053.98794	12769.3125
2057.01034	12750.0125
2060.03078	12737.5125
2063.04927	12721.4125
2066.06582	12722.9125
2069.08042	12677.7125
2072.09307	12718.8125
2075.10378	12658.1125
2078.11255	12649.7125
2081.11938	12650.2125
2084.12426	12645.2125
2087.12722	12634.0125
2090.12824	12640.6125
2093.12732	12606.4125
2096.12447	12643.6125
2099.11969	12624.5125
2102.11299	12641.5125
2105.10435	12636.0125
2108.09379	12633.2125
2111.08131	12649.8125
2114.0669	12617.7125
2117.05057	12604.8125
2120.03233	12636.6125
2123.01216	12615.9125
2125.99008	12658.4125
2128.96609	12679.5125
2131.94018	12696.1125
2134.91236	12691.0125
2137.88263	12707.8125
2140.851	12687.3125
2143.81746	12674.4125
2146.78201	12682.4125
2149.74466	12681.4125
2152.7054	12682.2125
2155.66425	12647.0125
2158.6212	12669.0125
2161.57625	12644.5125
2164.52941	12644.0125
2167.48067	12605.8125
2170.43004	12600.3125
2173.37752	12617.8125
2176.32311	12601.4125
2179.26681	12583.0125
2182.20863	12628.8125
2185.14856	12658.4125
2188.08661	12611.7125
2191.02278	12603.4125
2193.95707	12613.6125
2196.88948	12581.6125
2199.82001	12594.2125
2202.74867	12570.3125
2205.67545	12537.5125
2208.60037	12523.6125
2211.52341	12500.4125
2214.44458	12489.6125
2217.36388	12492.8125
2220.28132	12478.7125
2223.1969	12406.3125
2226.11061	12387.2125
2229.02246	12336.7125
2231.93245	12335.5125
2234.84058	12330.5125
2237.74686	12302.9125
2240.65128	12271.5125
2243.55385	12249.8125
2246.45456	12248.3125
2249.35343	12250.7125
2252.25044	12220.8125
2255.14561	12222.8125
2258.03893	12222.9125
2260.93041	12212.2125
2263.82004	12169.7125
2266.70783	12152.1125
2269.59378	12142.5125
2272.4779	12104.3125
2275.36017	12063.6125
2278.24061	12042.6125
2281.11922	12015.3125
2283.996	11989.7125
2286.87094	11943.9125
2289.74405	11905.5125
2292.61534	11893.8125
2295.4848	11896.6125
2298.35243	11920.1125
2301.21824	11894.8125
2304.08223	11896.6125
2306.94439	11886.6125
2309.80474	11937.0125
2312.66327	11898.5125
2315.51999	11877.3125
2318.37489	11889.5125
2321.22797	11857.7125
2324.07925	11822.7125
2326.92871	11841.9125
2329.77637	11824.9125
2332.62222	11814.3125
2335.46626	11826.7125
2338.3085	11849.3125
2341.14893	11816.8125
2343.98756	11864.5125
2346.8244	11848.4125
2349.65943	11876.7125
2352.49267	11857.6125
2355.32411	11881.8125
2358.15376	11857.2125
2360.98161	11853.0125
2363.80768	11879.5125
2366.63195	11899.8125
2369.45444	11854.3125
2372.27514	11853.4125
2375.09405	11826.7125
2377.91118	11783.9125
2380.72652	11707.8125
2383.54009	11669.0125
2386.35187	11665.7125
2389.16188	11640.9125
2391.97011	11605.9125
2394.77657	11589.4125
2397.58125	11550.7125
2400.38416	11520.9125
2403.18529	11509.8125
2405.98466	11496.2125
2408.78226	11466.1125
2411.57809	11438.5125
2414.37216	11426.0125
2417.16446	11411.4125
2419.955	11385.0125
2422.74378	11369.8125
2425.5308	11343.9125
2428.31606	11356.9125
2431.09956	11341.4125
2433.88131	11324.8125
2436.6613	11342.9125
2439.43954	11342.4125
2442.21603	11335.7125
2444.99077	11304.8125
2447.76377	11310.2125
2450.53501	11289.8125
2453.30451	11271.8125
2456.07226	11284.9125
2458.83827	11265.2125
2461.60254	11261.4125
2464.36507	11275.3125
2467.12586	11240.1125
2469.88492	11259.0125
2472.64224	11250.4125
2475.39782	11248.3125
2478.15167	11321.1125
2480.90379	11299.5125
2483.65417	11353.3125
2486.40283	11366.8125
2489.14976	11403.1125
2491.89497	11383.4125
2494.63845	11401.5125
2497.3802	11404.5125
2500.12024	11369.3125
2502.85855	11348.8125
2505.59514	11318.8125
2508.33002	11296.0125
2511.06318	11245.2125
2513.79462	11236.6125
2516.52435	11200.1125
2519.25237	11163.6125
2521.97867	11155.3125
2524.70327	11154.4125
2527.42616	11119.2125
2530.14734	11121.3125
2532.86681	11105.1125
2535.58458	11140.8125
2538.30065	11113.0125
2541.01501	11103.6125
2543.72768	11114.7125
2546.43864	11088.1125
2549.14791	11073.6125
2551.85548	11054.5125
2554.56136	11024.4125
2557.26554	11035.0125
2559.96803	11028.7125
2562.66883	10996.6125
2565.36794	10973.4125
2568.06536	10986.0125
2570.7611	10988.8125
2573.45514	10968.4125
2576.14751	10978.2125
2578.83819	10915.4125
2581.52719	10938.7125
2584.21451	10921.8125
2586.90015	10892.8125
2589.58411	10892.0125
2592.2664	10927.9125
2594.94701	10932.0125
2597.62594	10912.2125
2600.30321	10886.9125
2602.9788	10885.2125
2605.65273	10838.5125
2608.32498	10859.1125
2610.99557	10879.1125
2613.66449	10895.3125
2616.33175	10865.0125
2618.99734	10871.8125
2621.66128	10850.2125
2624.32355	10859.2125
2626.98416	10861.0125
2629.64311	10839.8125
2632.30041	10834.6125
2634.95605	10830.1125
2637.61004	10807.5125
2640.26238	10800.3125
2642.91306	10814.4125
2645.56209	10788.1125
2648.20948	10771.9125
2650.85521	10767.4125
2653.4993	10732.5125
2656.14175	10741.1125
2658.78255	10756.5125
2661.42171	10774.6125
2664.05923	10808.6125
2666.6951	10794.0125
2669.32934	10806.9125
2671.96194	10813.1125
2674.59291	10801.7125
2677.22224	10808.1125
2679.84993	10862.1125
2682.476	10821.1125
2685.10043	10840.3125
2687.72324	10836.8125
2690.34441	10813.9125
2692.96396	10827.1125
2695.58188	10817.3125
2698.19818	10784.8125
2700.81285	10805.6125
2703.4259	10781.8125
2706.03733	10796.0125
2708.64714	10805.9125
2711.25533	10829.1125
2713.86191	10794.3125
2716.46687	10833.2125
2719.07021	10813.3125
2721.67194	10856.2125
2724.27206	10833.0125
2726.87057	10842.3125
2729.46747	10849.6125
2732.06276	10876.1125
2734.65644	10842.2125
2737.24852	10853.1125
2739.83899	10822.2125
2742.42786	10864.6125
2745.01513	10786.0125
2747.60079	10810.7125
2750.18486	10785.3125
2752.76733	10785.4125
2755.3482	10784.6125
2757.92747	10793.2125
2760.50515	10754.3125
2763.08123	10730.2125
2765.65573	10716.1125
2768.22863	10697.8125
2770.79994	10712.0125
2773.36967	10704.8125
2775.9378	10710.0125
2778.50435	10705.4125
2781.06932	10690.2125
2783.6327	10714.2125
2786.1945	10722.9125
2788.75471	10708.3125
2791.31335	10661.7125
2793.87041	10664.0125
2796.42589	10636.2125
2798.97979	10653.0125
2801.53212	10646.4125
2804.08288	10684.6125
2806.63206	10616.5125
2809.17967	10617.0125
2811.72571	10604.0125
2814.27018	10590.5125
2816.81308	10579.6125
2819.35442	10575.8125
2821.89419	10585.0125
2824.43239	10591.9125
2826.96904	10585.0125
2829.50412	10592.3125
2832.03763	10583.9125
2834.56959	10585.2125
2837.1	10590.4125
2839.62884	10590.6125
2842.15613	10611.4125
2844.68186	10591.3125
2847.20604	10579.2125
2849.72867	10602.6125
2852.24974	10608.1125
2854.76927	10610.2125
2857.28724	10616.9125
2859.80367	10590.5125
2862.31855	10588.4125
2864.83189	10601.3125
2867.34368	10589.2125
2869.85393	10592.9125
2872.36264	10566.7125
2874.8698	10542.4125
2877.37543	10546.9125
2879.87952	10521.5125
2882.38207	10542.5125
2884.88308	10512.6125
2887.38256	10503.6125
2889.88051	10501.5125
2892.37692	10508.6125
2894.8718	10489.9125
2897.36515	10508.5125
2899.85698	10501.9125
2902.34727	10522.7125
2904.83604	10520.4125
2907.32328	10555.5125
2909.809	10547.0125
2912.29319	10547.7125
2914.77587	10531.0125
2917.25702	10521.6125
2919.73665	10539.0125
2922.21476	10504.5125
2924.69136	10503.7125
2927.16644	10498.6125
2929.64	10451.8125
2932.11205	10463.7125
2934.58258	10398.9125
2937.05161	10386.3125
2939.51912	10372.4125
2941.98513	10357.2125
2944.44962	10308.1125
2946.91261	10255.0125
2949.37409	10275.8125
2951.83407	10274.6125
2954.29254	10249.8125
2956.74951	10248.4125
2959.20498	10212.0125
2961.65895	10224.5125
2964.11142	10208.0125
2966.56239	10192.0125
2969.01186	10157.6125
2971.45984	10129.3125
2973.90632	10133.2125
2976.35131	10077.8125
2978.7948	10051.2125
2981.23681	10015.8125
2983.67732	10018.5125
2986.11635	10007.9125
2988.55388	9972.8125
2990.98993	9917.7125
2993.4245	9906.5125
2995.85758	9883.7125
2998.28917	9839.0125
3000.71928	9818.0125
3003.14791	9814.2125
3005.57506	9796.4125
3008.00073	9769.2125
3010.42493	9755.2125
3012.84764	9706.2125
3015.26888	9719.7125
3017.68865	9681.9125
3020.10694	9690.6125
3022.52376	9638.2125
3024.9391	9627.2125
3027.35298	9600.3125
