Data from AgNPs_UA_200uM_CRN_0uM_R6G_10uM_Q_RamanShift__7__14-08-04-142.txt Node

Date: Tue Jul 26 14:08:04 BST 2022
User: TCL
Spectrometer: QEP01345
Trigger mode: 4
Integration Time (sec): 7.000000E0
Scans to average: 10
Electric dark correction enabled: true
Nonlinearity correction enabled: false
Boxcar width: 0
XAxis mode: Raman Shifts
Number of Pixels in Spectrum: 1044
>>>>>Begin Spectral Data<<<<<
46.04893	-0.8375
50.45542	0.2625
54.85868	-1.0375
59.25871	0.4625
63.6555	48.9625
68.04907	52.2625
72.43941	53.6625
76.82654	55.2625
81.21044	60.0625
85.59113	60.4625
89.96862	67.4625
94.34289	64.7625
98.71396	67.2625
103.08183	71.7625
107.4465	74.1625
111.80798	71.3625
116.16626	74.0625
120.52136	72.6625
124.87327	70.1625
129.222	74.5625
133.56755	71.6625
137.90993	78.1625
142.24913	82.3625
146.58517	81.8625
150.91804	85.7625
155.24774	90.8625
159.57429	107.8625
163.89768	120.2625
168.21792	152.4625
172.53501	188.6625
176.84895	255.1625
181.15975	340.6625
185.46741	467.1625
189.77193	636.0625
194.07331	833.9625
198.37157	1072.4625
202.6667	1316.2625
206.9587	1550.9625
211.24758	1796.9625
215.53334	2019.2625
219.81599	2283.8625
224.09553	2530.8625
228.37195	2832.7625
232.64527	3163.2625
236.91549	3523.3625
241.18261	3876.5625
245.44663	4221.3625
249.70755	4535.9625
253.96539	4787.2625
258.22014	5020.4625
262.4718	5185.4625
266.72039	5286.6625
270.96589	5325.1625
275.20832	5348.3625
279.44768	5281.8625
283.68397	5219.0625
287.91719	5147.8625
292.14735	5094.6625
296.37445	5068.7625
300.59849	5042.9625
304.81948	5046.9625
309.03742	5026.0625
313.25231	5006.0625
317.46415	4974.6625
321.67296	4933.6625
325.87872	4906.3625
330.08145	4900.7625
334.28114	4928.8625
338.47781	4980.9625
342.67145	5029.7625
346.86207	5121.3625
351.04966	5181.8625
355.23424	5270.6625
359.4158	5355.9625
363.59435	5437.0625
367.76989	5500.5625
371.94243	5584.0625
376.11196	5620.5625
380.27849	5678.2625
384.44203	5741.5625
388.60257	5768.3625
392.76012	5827.2625
396.91468	5873.1625
401.06626	5913.4625
405.21485	5975.6625
409.36047	5990.9625
413.50311	5978.3625
417.64277	5939.2625
421.77947	5940.4625
425.9132	5951.2625
430.04396	5999.3625
434.17176	6035.7625
438.2966	6065.9625
442.41849	6124.8625
446.53742	6192.1625
450.6534	6255.7625
454.76644	6313.6625
458.87653	6330.7625
462.98368	6364.2625
467.08789	6394.0625
471.18916	6371.8625
475.2875	6369.6625
479.38291	6375.1625
483.4754	6370.4625
487.56496	6381.5625
491.6516	6406.5625
495.73531	6434.1625
499.81612	6448.1625
503.89401	6455.0625
507.96899	6485.4625
512.04106	6486.1625
516.11023	6509.1625
520.1765	6532.7625
524.23987	6554.4625
528.30034	6554.3625
532.35792	6586.4625
536.41261	6598.8625
540.46441	6572.3625
544.51333	6553.3625
548.55936	6544.7625
552.60252	6589.4625
556.64279	6619.9625
560.6802	6643.0625
564.71473	6655.5625
568.7464	6655.7625
572.7752	6683.0625
576.80114	6678.3625
580.82422	6685.4625
584.84444	6740.8625
588.86181	6772.6625
592.87633	6802.5625
596.888	6838.2625
600.89682	6928.2625
604.9028	7103.7625
608.90594	7487.5625
612.90624	7887.0625
616.90371	7708.9625
620.89834	7220.5625
624.89015	6990.7625
628.87913	7047.7625
632.86528	7159.1625
636.84862	7290.2625
640.82913	7296.9625
644.80683	7219.9625
648.78172	7123.8625
652.75379	7055.9625
656.72306	7034.6625
660.68952	7060.3625
664.65319	7016.2625
668.61405	6953.7625
672.57211	6963.7625
676.52738	6953.7625
680.47986	6975.3625
684.42955	6961.8625
688.37646	6968.3625
692.32058	6992.1625
696.26192	6989.6625
700.20048	7038.4625
704.13626	7061.1625
708.06928	7061.7625
711.99952	7041.9625
715.927	7044.3625
719.85171	7079.2625
723.77365	7122.7625
727.69284	7144.3625
731.60928	7149.3625
735.52295	7169.4625
739.43388	7123.5625
743.34206	7123.0625
747.24749	7130.6625
751.15017	7132.2625
755.05012	7147.2625
758.94733	7203.9625
762.8418	7336.7625
766.73354	7544.4625
770.62254	7784.5625
774.50882	7891.2625
778.39237	7798.0625
782.27321	7584.1625
786.15132	7378.5625
790.02671	7236.4625
793.89938	7158.2625
797.76935	7153.8625
801.6366	7145.3625
805.50115	7191.2625
809.36299	7224.1625
813.22213	7245.0625
817.07857	7259.2625
820.93231	7256.0625
824.78336	7205.6625
828.63172	7192.7625
832.47738	7153.4625
836.32036	7166.8625
840.16066	7151.2625
843.99827	7144.2625
847.8332	7145.5625
851.66546	7170.0625
855.49504	7182.7625
859.32195	7199.1625
863.1462	7195.4625
866.96777	7204.6625
870.78668	7211.9625
874.60293	7261.8625
878.41652	7282.9625
882.22745	7312.5625
886.03573	7364.7625
889.84136	7374.4625
893.64433	7365.8625
897.44466	7358.2625
901.24235	7329.1625
905.0374	7261.5625
908.8298	7257.3625
912.61957	7213.7625
916.40671	7218.0625
920.19121	7204.1625
923.97308	7205.5625
927.75233	7213.1625
931.52895	7213.9625
935.30295	7211.1625
939.07433	7190.0625
942.84309	7169.5625
946.60924	7134.9625
950.37278	7121.6625
954.13371	7113.9625
957.89203	7118.6625
961.64774	7107.3625
965.40086	7098.3625
969.15137	7086.9625
972.89929	7071.4625
976.64461	7073.5625
980.38733	7085.7625
984.12747	7074.9625
987.86502	7098.8625
991.59999	7104.9625
995.33237	7141.9625
999.06217	7206.1625
1002.78939	7226.1625
1006.51404	7275.4625
1010.23611	7342.7625
1013.95561	7369.8625
1017.67255	7371.9625
1021.38692	7376.2625
1025.09872	7352.6625
1028.80796	7324.0625
1032.51465	7288.8625
1036.21877	7291.5625
1039.92035	7276.7625
1043.61937	7266.5625
1047.31584	7282.2625
1051.00976	7306.4625
1054.70114	7289.0625
1058.38998	7328.0625
1062.07627	7339.4625
1065.76003	7361.7625
1069.44126	7420.7625
1073.11995	7444.2625
1076.79611	7500.3625
1080.46974	7519.6625
1084.14085	7551.8625
1087.80943	7533.0625
1091.47549	7534.7625
1095.13903	7534.6625
1098.80005	7523.0625
1102.45857	7465.4625
1106.11456	7449.9625
1109.76805	7454.4625
1113.41903	7484.1625
1117.06751	7529.4625
1120.71348	7630.8625
1124.35696	7737.2625
1127.99793	7847.5625
1131.63641	7936.6625
1135.2724	7941.4625
1138.90589	7875.5625
1142.5369	7808.2625
1146.16542	7718.6625
1149.79145	7626.3625
1153.415	7509.4625
1157.03607	7434.1625
1160.65467	7425.4625
1164.27079	7440.6625
1167.88443	7514.3625
1171.49561	7622.7625
1175.10432	7779.7625
1178.71056	8011.7625
1182.31434	8217.3625
1185.91565	8369.7625
1189.51451	8398.2625
1193.11091	8358.5625
1196.70485	8313.4625
1200.29634	8227.8625
1203.88538	8168.0625
1207.47197	8075.9625
1211.05612	7978.6625
1214.63782	7886.8625
1218.21708	7823.5625
1221.79391	7756.9625
1225.36829	7701.8625
1228.94024	7648.1625
1232.50976	7636.4625
1236.07685	7658.3625
1239.6415	7659.8625
1243.20374	7686.0625
1246.76355	7704.7625
1250.32093	7736.5625
1253.8759	7774.8625
1257.42845	7857.3625
1260.97859	7919.5625
1264.52631	7992.6625
1268.07163	8015.9625
1271.61453	8017.8625
1275.15503	8091.4625
1278.69312	8094.2625
1282.22882	8047.6625
1285.76211	8080.0625
1289.29301	8093.1625
1292.82151	8160.4625
1296.34761	8222.9625
1299.87133	8321.0625
1303.39266	8498.1625
1306.9116	8729.0625
1310.42815	8899.5625
1313.94233	9006.7625
1317.45412	8964.2625
1320.96354	8854.2625
1324.47058	8722.3625
1327.97525	8556.4625
1331.47754	8437.6625
1334.97747	8419.2625
1338.47502	8428.4625
1341.97022	8544.3625
1345.46305	8690.9625
1348.95352	8855.4625
1352.44163	9084.4625
1355.92738	9303.6625
1359.41078	9560.8625
1362.89183	9825.1625
1366.37053	9722.3625
1369.84688	9244.3625
1373.32088	8707.5625
1376.79254	8361.9625
1380.26186	8100.7625
1383.72883	7962.3625
1387.19347	7836.8625
1390.65578	7703.6625
1394.11575	7601.5625
1397.57339	7509.5625
1401.0287	7463.1625
1404.48168	7448.5625
1407.93234	7430.8625
1411.38068	7418.7625
1414.82669	7390.9625
1418.27039	7372.7625
1421.71177	7332.8625
1425.15083	7302.4625
1428.58758	7255.3625
1432.02203	7252.6625
1435.45416	7243.1625
1438.88399	7245.2625
1442.31151	7248.6625
1445.73673	7249.1625
1449.15965	7270.9625
1452.58027	7249.2625
1455.9986	7258.1625
1459.41463	7292.9625
1462.82837	7314.0625
1466.23982	7377.9625
1469.64898	7420.6625
1473.05586	7497.3625
1476.46045	7558.8625
1479.86276	7577.1625
1483.26279	7635.2625
1486.66054	7692.6625
1490.05602	7736.6625
1493.44922	7839.5625
1496.84016	8049.8625
1500.22882	8287.1625
1503.61521	8666.7625
1506.99934	8954.7625
1510.38121	9121.1625
1513.76081	9095.8625
1517.13816	8840.3625
1520.51324	8521.9625
1523.88607	8215.8625
1527.25665	8050.7625
1530.62498	8001.5625
1533.99105	7925.0625
1537.35488	7920.0625
1540.71647	7904.1625
1544.07581	7882.0625
1547.4329	7886.6625
1550.78776	7872.2625
1554.14038	7839.7625
1557.49077	7823.6625
1560.83892	7819.4625
1564.18484	7875.5625
1567.52853	7905.8625
1570.86999	7950.9625
1574.20922	7987.9625
1577.54624	7982.0625
1580.88103	7899.6625
1584.2136	7788.7625
1587.54395	7693.3625
1590.87208	7693.7625
1594.19801	7759.5625
1597.52172	7862.3625
1600.84321	7912.1625
1604.16251	7910.0625
1607.47959	7853.3625
1610.79447	7758.9625
1614.10715	7610.0625
1617.41763	7479.0625
1620.7259	7404.1625
1624.03199	7283.1625
1627.33587	7223.8625
1630.63757	7226.5625
1633.93707	7256.2625
1637.23439	7363.6625
1640.52951	7508.0625
1643.82246	7736.7625
1647.11321	8002.7625
1650.40179	8144.4625
1653.68819	8072.9625
1656.97241	7805.9625
1660.25446	7520.3625
1663.53433	7282.1625
1666.81203	7140.2625
1670.08756	7049.8625
1673.36092	6980.6625
1676.63211	6963.1625
1679.90115	6945.6625
1683.16801	6880.0625
1686.43272	6846.7625
1689.69527	6841.7625
1692.95567	6814.6625
1696.2139	6820.4625
1699.46999	6798.7625
1702.72392	6777.6625
1705.97571	6735.4625
1709.22535	6710.7625
1712.47284	6669.4625
1715.71819	6648.0625
1718.96139	6605.7625
1722.20246	6585.4625
1725.44139	6537.6625
1728.67818	6492.6625
1731.91284	6473.8625
1735.14537	6454.5625
1738.37576	6417.4625
1741.60403	6414.0625
1744.83017	6393.8625
1748.05418	6400.5625
1751.27607	6383.5625
1754.49584	6353.5625
1757.71349	6364.1625
1760.92903	6356.2625
1764.14244	6358.9625
1767.35375	6346.5625
1770.56294	6313.8625
1773.77002	6316.9625
1776.97499	6331.1625
1780.17785	6317.4625
1783.37861	6295.5625
1786.57727	6284.5625
1789.77382	6297.6625
1792.96828	6288.5625
1796.16064	6254.9625
1799.3509	6249.7625
1802.53907	6261.5625
1805.72514	6244.8625
1808.90913	6230.9625
1812.09102	6220.6625
1815.27083	6210.4625
1818.44856	6219.8625
1821.6242	6184.1625
1824.79776	6178.2625
1827.96924	6164.4625
1831.13864	6148.2625
1834.30597	6168.9625
1837.47122	6159.1625
1840.6344	6134.2625
1843.7955	6128.4625
1846.95454	6121.2625
1850.11151	6125.9625
1853.26642	6129.7625
1856.41926	6113.9625
1859.57004	6112.0625
1862.71876	6094.7625
1865.86542	6102.9625
1869.01003	6097.4625
1872.15258	6097.2625
1875.29308	6084.2625
1878.43152	6091.9625
1881.56792	6057.0625
1884.70227	6053.3625
1887.83457	6057.1625
1890.96482	6027.2625
1894.09304	6033.5625
1897.21921	6030.0625
1900.34335	6025.9625
1903.46544	6025.3625
1906.58551	6007.6625
1909.70353	5999.1625
1912.81953	5997.5625
1915.93349	5994.1625
1919.04543	5978.1625
1922.15534	5984.3625
1925.26322	5948.0625
1928.36908	5947.4625
1931.47292	5942.8625
1934.57473	5936.9625
1937.67453	5906.8625
1940.77232	5889.1625
1943.86808	5869.7625
1946.96184	5854.7625
1950.05358	5861.7625
1953.14331	5841.6625
1956.23103	5815.1625
1959.31675	5819.1625
1962.40046	5798.7625
1965.48217	5798.2625
1968.56188	5756.5625
1971.63959	5750.6625
1974.7153	5722.2625
1977.78901	5702.0625
1980.86073	5696.8625
1983.93046	5676.8625
1986.99819	5655.9625
1990.06394	5646.2625
1993.1277	5629.7625
1996.18947	5618.8625
1999.24925	5593.6625
2002.30706	5588.5625
2005.36288	5569.8625
2008.41672	5564.6625
2011.46859	5512.2625
2014.51848	5526.8625
2017.56639	5503.0625
2020.61233	5485.2625
2023.6563	5472.6625
2026.6983	5449.5625
2029.73833	5463.7625
2032.7764	5438.3625
2035.8125	5420.3625
2038.84664	5421.0625
2041.87881	5414.8625
2044.90903	5402.5625
2047.93729	5379.6625
2050.96359	5373.5625
2053.98794	5374.6625
2057.01034	5370.9625
2060.03078	5376.1625
2063.04927	5357.5625
2066.06582	5349.5625
2069.08042	5349.6625
2072.09307	5342.4625
2075.10378	5339.7625
2078.11255	5343.2625
2081.11938	5338.1625
2084.12426	5336.9625
2087.12722	5345.5625
2090.12824	5321.7625
2093.12732	5340.5625
2096.12447	5333.2625
2099.11969	5326.4625
2102.11299	5348.1625
2105.10435	5335.6625
2108.09379	5339.6625
2111.08131	5353.2625
2114.0669	5343.9625
2117.05057	5342.0625
2120.03233	5338.2625
2123.01216	5354.6625
2125.99008	5350.2625
2128.96609	5358.6625
2131.94018	5361.5625
2134.91236	5364.4625
2137.88263	5374.8625
2140.851	5368.0625
2143.81746	5363.0625
2146.78201	5366.3625
2149.74466	5361.6625
2152.7054	5393.6625
2155.66425	5364.6625
2158.6212	5368.0625
2161.57625	5364.2625
2164.52941	5363.4625
2167.48067	5369.1625
2170.43004	5372.1625
2173.37752	5361.6625
2176.32311	5344.5625
2179.26681	5360.1625
2182.20863	5358.5625
2185.14856	5374.4625
2188.08661	5345.9625
2191.02278	5342.9625
2193.95707	5359.9625
2196.88948	5343.9625
2199.82001	5338.8625
2202.74867	5340.7625
2205.67545	5329.4625
2208.60037	5324.1625
2211.52341	5316.5625
2214.44458	5302.4625
2217.36388	5286.0625
2220.28132	5270.0625
2223.1969	5254.3625
2226.11061	5257.2625
2229.02246	5241.1625
2231.93245	5217.6625
2234.84058	5238.7625
2237.74686	5228.0625
2240.65128	5210.9625
2243.55385	5206.9625
2246.45456	5213.7625
2249.35343	5205.8625
2252.25044	5200.1625
2255.14561	5186.2625
2258.03893	5176.4625
2260.93041	5169.6625
2263.82004	5147.5625
2266.70783	5144.2625
2269.59378	5139.1625
2272.4779	5124.2625
2275.36017	5110.4625
2278.24061	5092.1625
2281.11922	5107.4625
2283.996	5073.2625
2286.87094	5068.9625
2289.74405	5051.8625
2292.61534	5048.8625
2295.4848	5043.9625
2298.35243	5033.3625
2301.21824	5032.0625
2304.08223	5037.3625
2306.94439	5035.5625
2309.80474	5030.8625
2312.66327	5022.9625
2315.51999	4999.1625
2318.37489	4992.0625
2321.22797	4996.0625
2324.07925	5003.6625
2326.92871	4964.3625
2329.77637	4969.9625
2332.62222	4958.5625
2335.46626	4949.4625
2338.3085	4940.1625
2341.14893	4918.5625
2343.98756	4909.0625
2346.8244	4925.9625
2349.65943	4926.7625
2352.49267	4910.0625
2355.32411	4912.6625
2358.15376	4916.1625
2360.98161	4899.4625
2363.80768	4889.8625
2366.63195	4900.2625
2369.45444	4888.8625
2372.27514	4891.8625
2375.09405	4889.9625
2377.91118	4863.3625
2380.72652	4863.1625
2383.54009	4865.2625
2386.35187	4844.8625
2389.16188	4840.1625
2391.97011	4828.0625
2394.77657	4806.8625
2397.58125	4803.8625
2400.38416	4804.2625
2403.18529	4796.4625
2405.98466	4802.8625
2408.78226	4770.1625
2411.57809	4770.1625
2414.37216	4766.9625
2417.16446	4766.7625
2419.955	4742.9625
2422.74378	4742.3625
2425.5308	4724.2625
2428.31606	4734.8625
2431.09956	4721.4625
2433.88131	4726.3625
2436.6613	4716.1625
2439.43954	4717.5625
2442.21603	4697.1625
2444.99077	4713.8625
2447.76377	4718.8625
2450.53501	4694.9625
2453.30451	4683.7625
2456.07226	4661.8625
2458.83827	4680.3625
2461.60254	4676.5625
2464.36507	4659.3625
2467.12586	4661.3625
2469.88492	4665.0625
2472.64224	4645.3625
2475.39782	4662.0625
2478.15167	4647.9625
2480.90379	4636.0625
2483.65417	4649.2625
2486.40283	4629.5625
2489.14976	4634.1625
2491.89497	4626.7625
2494.63845	4640.4625
2497.3802	4611.7625
2500.12024	4614.4625
2502.85855	4607.0625
2505.59514	4592.7625
2508.33002	4596.2625
2511.06318	4578.2625
2513.79462	4576.9625
2516.52435	4580.8625
2519.25237	4552.9625
2521.97867	4546.2625
2524.70327	4551.9625
2527.42616	4540.0625
2530.14734	4534.8625
2532.86681	4538.7625
2535.58458	4535.4625
2538.30065	4536.0625
2541.01501	4517.0625
2543.72768	4496.1625
2546.43864	4514.6625
2549.14791	4504.9625
2551.85548	4485.6625
2554.56136	4483.3625
2557.26554	4476.6625
2559.96803	4462.9625
2562.66883	4451.7625
2565.36794	4443.9625
2568.06536	4425.4625
2570.7611	4418.5625
2573.45514	4418.3625
2576.14751	4405.8625
2578.83819	4396.5625
2581.52719	4380.7625
2584.21451	4372.8625
2586.90015	4378.0625
2589.58411	4379.6625
2592.2664	4363.3625
2594.94701	4353.6625
2597.62594	4350.0625
2600.30321	4336.1625
2602.9788	4350.3625
2605.65273	4310.4625
2608.32498	4326.1625
2610.99557	4325.0625
2613.66449	4314.8625
2616.33175	4307.9625
2618.99734	4297.4625
2621.66128	4285.9625
2624.32355	4286.0625
2626.98416	4274.7625
2629.64311	4262.8625
2632.30041	4262.7625
2634.95605	4250.0625
2637.61004	4239.4625
2640.26238	4233.8625
2642.91306	4236.5625
2645.56209	4221.7625
2648.20948	4226.6625
2650.85521	4221.2625
2653.4993	4218.5625
2656.14175	4205.8625
2658.78255	4229.4625
2661.42171	4223.9625
2664.05923	4230.0625
2666.6951	4221.0625
2669.32934	4226.4625
2671.96194	4222.2625
2674.59291	4217.5625
2677.22224	4212.3625
2679.84993	4216.1625
2682.476	4204.2625
2685.10043	4217.7625
2687.72324	4202.3625
2690.34441	4202.2625
2692.96396	4206.3625
2695.58188	4202.4625
2698.19818	4186.6625
2700.81285	4201.3625
2703.4259	4185.1625
2706.03733	4189.0625
2708.64714	4195.4625
2711.25533	4204.8625
2713.86191	4187.2625
2716.46687	4189.5625
2719.07021	4174.7625
2721.67194	4205.9625
2724.27206	4198.4625
2726.87057	4194.4625
2729.46747	4193.5625
2732.06276	4190.6625
2734.65644	4184.0625
2737.24852	4171.7625
2739.83899	4186.9625
2742.42786	4171.1625
2745.01513	4156.5625
2747.60079	4161.4625
2750.18486	4143.3625
2752.76733	4141.5625
2755.3482	4124.1625
2757.92747	4148.1625
2760.50515	4118.3625
2763.08123	4104.1625
2765.65573	4110.8625
2768.22863	4105.8625
2770.79994	4103.1625
2773.36967	4102.4625
2775.9378	4099.2625
2778.50435	4094.2625
2781.06932	4070.7625
2783.6327	4067.2625
2786.1945	4066.8625
2788.75471	4067.5625
2791.31335	4044.7625
2793.87041	4051.7625
2796.42589	4038.6625
2798.97979	4035.5625
2801.53212	4027.6625
2804.08288	4026.5625
2806.63206	4000.5625
2809.17967	3995.0625
2811.72571	3993.2625
2814.27018	3972.6625
2816.81308	3960.2625
2819.35442	3965.7625
2821.89419	3962.9625
2824.43239	3944.5625
2826.96904	3924.7625
2829.50412	3932.9625
2832.03763	3920.4625
2834.56959	3916.8625
2837.1	3918.6625
2839.62884	3916.3625
2842.15613	3909.8625
2844.68186	3899.2625
2847.20604	3900.2625
2849.72867	3899.7625
2852.24974	3890.5625
2854.76927	3890.9625
2857.28724	3888.9625
2859.80367	3889.9625
2862.31855	3879.6625
2864.83189	3862.6625
2867.34368	3849.1625
2869.85393	3857.9625
2872.36264	3852.7625
2874.8698	3858.9625
2877.37543	3854.9625
2879.87952	3840.3625
2882.38207	3837.9625
2884.88308	3843.6625
2887.38256	3850.0625
2889.88051	3838.6625
2892.37692	3855.1625
2894.8718	3841.2625
2897.36515	3856.1625
2899.85698	3842.0625
2902.34727	3854.7625
2904.83604	3870.6625
2907.32328	3861.7625
2909.809	3858.3625
2912.29319	3846.3625
2914.77587	3855.6625
2917.25702	3856.6625
2919.73665	3845.5625
2922.21476	3861.0625
2924.69136	3843.2625
2927.16644	3850.0625
2929.64	3847.6625
2932.11205	3841.6625
2934.58258	3843.2625
2937.05161	3837.5625
2939.51912	3839.4625
2941.98513	3825.9625
2944.44962	3813.9625
2946.91261	3805.4625
2949.37409	3824.4625
2951.83407	3816.4625
2954.29254	3809.6625
2956.74951	3802.2625
2959.20498	3817.2625
2961.65895	3823.5625
2964.11142	3823.7625
2966.56239	3829.0625
2969.01186	3813.4625
2971.45984	3800.0625
2973.90632	3808.4625
2976.35131	3815.4625
2978.7948	3804.0625
2981.23681	3794.6625
2983.67732	3789.1625
2986.11635	3780.9625
2988.55388	3776.0625
2990.98993	3773.0625
2993.4245	3763.5625
2995.85758	3756.4625
2998.28917	3748.8625
3000.71928	3750.6625
3003.14791	3745.7625
3005.57506	3734.5625
3008.00073	3729.9625
3010.42493	3716.6625
3012.84764	3727.2625
3015.26888	3722.9625
3017.68865	3727.6625
3020.10694	3714.6625
3022.52376	3716.5625
3024.9391	3718.5625
3027.35298	3696.4625
3029.76539	3701.3625
3032.17632	3698.9625
3034.5858	3703.5625
3036.9938	3681.3625
3039.40034	3697.8625
3041.80542	3686.1625
3044.20903	3675.1625
3046.61118	3690.2625
3049.01187	3672.4625
3051.4111	3678.9625
3053.80888	3669.7625
3056.20519	3675.5625
3058.60005	3661.5625
3060.99345	3660.8625
3063.3854	3655.2625
3065.7759	3650.0625
3068.16494	3642.6625
3070.55254	3626.3625
3072.93868	3627.8625
3075.32338	3636.2625
3077.70662	3625.7625
3080.08842	3620.7625
3082.46878	3631.2625
3084.84769	3618.0625
3087.22515	3637.1625
3089.60118	3621.1625
3091.97576	3645.5625
3094.3489	3643.5625
3096.72061	3645.1625
3099.09087	3642.4625
3101.4597	3636.1625
3103.82709	3646.3625
3106.19305	3652.1625
3108.55757	3664.8625
3110.92066	3653.8625
3113.28232	3665.2625
3115.64255	3653.6625
3118.00134	3654.0625
3120.35871	3663.0625
3122.71466	3658.0625
3125.06917	3642.5625
3127.42226	3629.7625
