Data from AgNPs_UA_20uM_CRN_0uM_R6G_10uM_Q_RamanShift__1__12-37-32-002.txt Node

Date: Mon Jul 18 12:37:32 BST 2022
User: TCL
Spectrometer: QEP01345
Trigger mode: 4
Integration Time (sec): 7.000000E0
Scans to average: 10
Electric dark correction enabled: true
Nonlinearity correction enabled: false
Boxcar width: 0
XAxis mode: Raman Shifts
Number of Pixels in Spectrum: 1044
>>>>>Begin Spectral Data<<<<<
46.04893	-2.125
50.45542	-2.425
54.85868	0.875
59.25871	-0.825
63.6555	138.375
68.04907	149.275
72.43941	152.375
76.82654	161.475
81.21044	171.675
85.59113	172.475
89.96862	180.775
94.34289	181.675
98.71396	192.375
103.08183	194.375
107.4465	202.075
111.80798	205.175
116.16626	214.575
120.52136	224.275
124.87327	233.875
129.222	245.675
133.56755	263.575
137.90993	286.475
142.24913	314.675
146.58517	357.275
150.91804	415.975
155.24774	502.175
159.57429	621.775
163.89768	807.975
168.21792	1078.575
172.53501	1469.875
176.84895	2072.975
181.15975	2914.475
185.46741	4109.875
189.77193	5669.575
194.07331	7618.875
198.37157	9800.075
202.6667	12126.475
206.9587	14413.575
211.24758	16710.275
215.53334	19018.675
219.81599	21551.175
224.09553	24274.675
228.37195	27377.675
232.64527	30636.475
236.91549	34020.875
241.18261	37176.775
245.44663	39991.775
249.70755	42390.475
253.96539	44475.975
258.22014	46185.275
262.4718	47687.075
266.72039	48780.375
270.96589	49183.975
275.20832	49126.175
279.44768	48619.575
283.68397	48050.875
287.91719	47664.575
292.14735	47648.375
296.37445	48087.675
300.59849	48902.175
304.81948	49970.275
309.03742	50892.275
313.25231	51116.375
317.46415	50316.175
321.67296	48607.475
325.87872	47143.675
330.08145	46505.775
334.28114	46451.575
338.47781	46995.375
342.67145	47839.175
346.86207	48856.675
351.04966	50286.875
355.23424	51747.875
359.4158	52866.675
363.59435	53559.875
367.76989	53822.375
371.94243	53764.475
376.11196	53625.675
380.27849	53536.775
384.44203	53589.975
388.60257	53788.575
392.76012	54157.775
396.91468	54791.675
401.06626	55609.375
405.21485	56089.975
409.36047	55426.975
413.50311	54125.475
417.64277	53093.475
421.77947	52645.775
425.9132	52511.775
430.04396	52702.275
434.17176	52964.675
438.2966	53426.875
442.41849	54087.775
446.53742	55182.075
450.6534	56276.275
454.76644	56993.175
458.87653	57097.575
462.98368	57071.575
467.08789	56729.575
471.18916	56214.575
475.2875	55447.275
479.38291	54890.275
483.4754	54255.775
487.56496	53962.975
491.6516	53734.575
495.73531	53758.075
499.81612	53932.975
503.89401	54333.275
507.96899	54536.175
512.04106	54669.675
516.11023	54864.875
520.1765	55020.475
524.23987	54932.775
528.30034	54801.075
532.35792	54580.075
536.41261	54094.975
540.46441	53602.675
544.51333	53552.575
548.55936	54026.075
552.60252	54834.675
556.64279	55639.775
560.6802	56178.475
564.71473	56609.475
568.7464	57397.075
572.7752	57957.975
576.80114	57927.775
580.82422	58061.575
584.84444	58512.875
588.86181	59025.475
592.87633	59481.475
596.888	59896.775
600.89682	61028.975
604.9028	64873.075
608.90594	74076.475
612.90624	82864.475
616.90371	76627.575
620.89834	62600.175
624.89015	56889.675
628.87913	56227.875
632.86528	56905.975
636.84862	57461.675
640.82913	56667.575
644.80683	55300.075
648.78172	54415.375
652.75379	54641.275
656.72306	55897.075
660.68952	57144.275
664.65319	56579.875
668.61405	55618.175
672.57211	55541.675
676.52738	55736.275
680.47986	55448.375
684.42955	55003.675
688.37646	54905.675
692.32058	55222.575
696.26192	55987.475
700.20048	56575.475
704.13626	56870.675
708.06928	56633.475
711.99952	56222.975
715.927	56172.075
719.85171	56369.875
723.77365	56341.975
727.69284	55846.775
731.60928	55309.075
735.52295	55228.675
739.43388	55333.775
743.34206	55501.475
747.24749	55539.575
751.15017	55813.775
755.05012	56476.075
758.94733	58280.875
762.8418	62203.475
766.73354	68072.475
770.62254	72892.975
774.50882	73551.675
778.39237	70452.275
782.27321	65598.675
786.15132	61092.775
790.02671	58220.275
793.89938	56723.775
797.76935	56053.275
801.6366	55749.375
805.50115	55553.875
809.36299	55365.575
813.22213	55124.875
817.07857	55056.875
820.93231	55086.275
824.78336	55154.175
828.63172	55277.175
832.47738	55267.575
836.32036	55227.275
840.16066	55186.575
843.99827	55119.275
847.8332	55155.375
851.66546	55265.075
855.49504	55441.175
859.32195	55441.475
863.1462	55391.575
866.96777	55477.875
870.78668	55428.275
874.60293	55574.275
878.41652	55749.175
882.22745	56078.975
886.03573	56293.375
889.84136	56257.675
893.64433	56066.175
897.44466	55864.075
901.24235	55764.675
905.0374	55577.575
908.8298	55439.275
912.61957	55342.675
916.40671	55534.575
920.19121	55835.275
923.97308	56288.275
927.75233	56684.675
931.52895	56825.175
935.30295	56354.075
939.07433	55493.075
942.84309	54912.475
946.60924	54609.175
950.37278	54451.875
954.13371	54457.875
957.89203	54492.875
961.64774	54470.375
965.40086	54350.775
969.15137	54311.575
972.89929	54320.275
976.64461	54453.275
980.38733	54551.975
984.12747	54684.875
987.86502	54950.275
991.59999	55094.375
995.33237	55396.375
999.06217	55904.375
1002.78939	56706.875
1006.51404	57481.975
1010.23611	58163.975
1013.95561	58597.275
1017.67255	58578.275
1021.38692	58249.475
1025.09872	57717.875
1028.80796	57308.575
1032.51465	57255.275
1036.21877	57514.975
1039.92035	57784.175
1043.61937	57883.775
1047.31584	57853.675
1051.00976	57823.475
1054.70114	57881.375
1058.38998	58074.575
1062.07627	58489.775
1065.76003	59009.875
1069.44126	59634.875
1073.11995	60541.975
1076.79611	61522.975
1080.46974	62199.375
1084.14085	62799.875
1087.80943	63486.175
1091.47549	63787.675
1095.13903	63327.875
1098.80005	62440.975
1102.45857	61505.575
1106.11456	60899.775
1109.76805	60562.975
1113.41903	60725.775
1117.06751	61355.975
1120.71348	62381.575
1124.35696	63511.475
1127.99793	64325.575
1131.63641	64006.775
1135.2724	62739.575
1138.90589	61811.175
1142.5369	61260.775
1146.16542	60899.175
1149.79145	60803.275
1153.415	60707.075
1157.03607	60803.475
1160.65467	61456.775
1164.27079	62754.975
1167.88443	64691.675
1171.49561	67560.475
1175.10432	71645.075
1178.71056	76848.775
1182.31434	81139.075
1185.91565	82719.775
1189.51451	82142.375
1193.11091	80358.675
1196.70485	78089.175
1200.29634	75967.075
1203.88538	73687.675
1207.47197	71314.275
1211.05612	69064.075
1214.63782	67528.875
1218.21708	66404.975
1221.79391	65610.375
1225.36829	65223.275
1228.94024	64965.675
1232.50976	64876.275
1236.07685	64725.475
1239.6415	64761.675
1243.20374	64862.475
1246.76355	65343.275
1250.32093	66032.775
1253.8759	66785.375
1257.42845	68054.075
1260.97859	69608.275
1264.52631	71198.075
1268.07163	72660.675
1271.61453	73829.475
1275.15503	74724.075
1278.69312	75480.475
1282.22882	76026.475
1285.76211	77184.775
1289.29301	78595.975
1292.82151	80240.375
1296.34761	82029.775
1299.87133	84672.375
1303.39266	88691.275
1306.9116	94069.275
1310.42815	99574.275
1313.94233	102039.575
1317.45412	99926.975
1320.96354	95998.475
1324.47058	92342.275
1327.97525	89331.775
1331.47754	87434.975
1334.97747	87010.175
1338.47502	87629.475
1341.97022	89099.675
1345.46305	91689.275
1348.95352	95027.575
1352.44163	98604.175
1355.92738	102825.675
1359.41078	108832.175
1362.89183	114244.975
1366.37053	111047.275
1369.84688	99607.775
1373.32088	88174.175
1376.79254	81097.575
1380.26186	77562.375
1383.72883	75908.175
1387.19347	74442.875
1390.65578	72743.575
1394.11575	71349.875
1397.57339	70251.575
1401.0287	69589.875
1404.48168	69231.575
1407.93234	69225.875
1411.38068	69382.875
1414.82669	69405.875
1418.27039	68986.075
1421.71177	68345.175
1425.15083	67655.475
1428.58758	67337.375
1432.02203	67664.275
1435.45416	68553.675
1438.88399	69126.175
1442.31151	69319.075
1445.73673	69583.475
1449.15965	69707.575
1452.58027	69598.475
1455.9986	69398.975
1459.41463	69404.275
1462.82837	70181.975
1466.23982	71266.775
1469.64898	72517.575
1473.05586	73675.375
1476.46045	74344.075
1479.86276	74874.375
1483.26279	75592.775
1486.66054	76805.175
1490.05602	78489.275
1493.44922	80962.375
1496.84016	84615.575
1500.22882	90155.475
1503.61521	97423.075
1506.99934	104649.675
1510.38121	109440.475
1513.76081	108716.875
1517.13816	102256.575
1520.51324	93440.075
1523.88607	86281.375
1527.25665	81880.475
1530.62498	79660.375
1533.99105	78288.475
1537.35488	77131.475
1540.71647	76146.775
1544.07581	75271.875
1547.4329	74328.575
1550.78776	73624.975
1554.14038	73395.675
1557.49077	73489.075
1560.83892	74019.975
1564.18484	75179.575
1567.52853	76647.375
1570.86999	77789.375
1574.20922	78504.775
1577.54624	78140.375
1580.88103	75905.275
1584.2136	73514.875
1587.54395	72338.075
1590.87208	72989.375
1594.19801	75209.075
1597.52172	78150.075
1600.84321	79234.375
1604.16251	78060.275
1607.47959	75770.675
1610.79447	72735.275
1614.10715	69315.375
1617.41763	66318.075
1620.7259	64102.775
1624.03199	62892.075
1627.33587	62672.075
1630.63757	63439.075
1633.93707	65324.075
1637.23439	68736.075
1640.52951	74187.975
1643.82246	81344.275
1647.11321	88371.075
1650.40179	91842.975
1653.68819	88372.575
1656.97241	79818.775
1660.25446	71079.775
1663.53433	64716.275
1666.81203	60754.275
1670.08756	58366.775
1673.36092	56814.975
1676.63211	55885.475
1679.90115	55222.375
1683.16801	54610.475
1686.43272	54124.275
1689.69527	53776.375
1692.95567	53507.475
1696.2139	53342.375
1699.46999	53185.175
1702.72392	53195.975
1705.97571	53137.275
1709.22535	53120.175
1712.47284	53157.475
1715.71819	53112.175
1718.96139	53145.675
1722.20246	53011.075
1725.44139	52843.675
1728.67818	52623.875
1731.91284	52417.175
1735.14537	52275.575
1738.37576	52108.775
1741.60403	51950.475
1744.83017	51738.875
1748.05418	51709.975
1751.27607	51587.275
1754.49584	51525.175
1757.71349	51520.675
1760.92903	51438.775
1764.14244	51379.575
1767.35375	51357.975
1770.56294	51326.275
1773.77002	51300.475
1776.97499	51230.775
1780.17785	51129.775
1783.37861	51062.775
1786.57727	50930.775
1789.77382	50901.675
1792.96828	50837.575
1796.16064	50752.775
1799.3509	50683.675
1802.53907	50584.375
1805.72514	50410.875
1808.90913	50428.275
1812.09102	50290.875
1815.27083	50218.275
1818.44856	50131.975
1821.6242	50166.975
1824.79776	50082.875
1827.96924	49973.375
1831.13864	49911.275
1834.30597	49892.475
1837.47122	49850.075
1840.6344	49766.475
1843.7955	49715.875
1846.95454	49697.075
1850.11151	49740.975
1853.26642	49755.375
1856.41926	49714.275
1859.57004	49678.075
1862.71876	49630.175
1865.86542	49721.675
1869.01003	49666.475
1872.15258	49540.475
1875.29308	49586.875
1878.43152	49452.075
1881.56792	49419.675
1884.70227	49349.975
1887.83457	49346.075
1890.96482	49311.875
1894.09304	49225.075
1897.21921	49259.675
1900.34335	49174.175
1903.46544	49014.075
1906.58551	49040.275
1909.70353	48962.675
1912.81953	48965.875
1915.93349	48914.675
1919.04543	48738.675
1922.15534	48697.375
1925.26322	48708.375
1928.36908	48661.475
1931.47292	48544.675
1934.57473	48493.275
1937.67453	48336.875
1940.77232	48259.975
1943.86808	47993.875
1946.96184	47907.875
1950.05358	47718.075
1953.14331	47619.175
1956.23103	47512.275
1959.31675	47339.475
1962.40046	47262.675
1965.48217	47183.175
1968.56188	47047.175
1971.63959	46891.475
1974.7153	46811.975
1977.78901	46684.875
1980.86073	46557.875
1983.93046	46479.375
1986.99819	46324.575
1990.06394	46201.075
1993.1277	46077.775
1996.18947	45931.375
1999.24925	45900.275
2002.30706	45730.275
2005.36288	45668.575
2008.41672	45562.675
2011.46859	45455.075
2014.51848	45339.275
2017.56639	45257.775
2020.61233	45210.675
2023.6563	45045.275
2026.6983	44901.375
2029.73833	44837.875
2032.7764	44739.575
2035.8125	44564.775
2038.84664	44510.275
2041.87881	44500.975
2044.90903	44358.175
2047.93729	44227.875
2050.96359	44329.075
2053.98794	44158.375
2057.01034	44169.375
2060.03078	44129.275
2063.04927	44130.575
2066.06582	44149.675
2069.08042	44090.975
2072.09307	44114.475
2075.10378	44095.075
2078.11255	44058.475
2081.11938	44098.475
2084.12426	43996.575
2087.12722	44008.175
2090.12824	43999.975
2093.12732	44066.275
2096.12447	44030.175
2099.11969	44007.075
2102.11299	44074.575
2105.10435	44124.475
2108.09379	44107.775
2111.08131	44187.875
2114.0669	44168.975
2117.05057	44111.775
2120.03233	44213.575
2123.01216	44198.275
2125.99008	44293.375
2128.96609	44424.875
2131.94018	44562.275
2134.91236	44568.075
2137.88263	44555.375
2140.851	44648.775
2143.81746	44684.975
2146.78201	44669.575
2149.74466	44707.175
2152.7054	44639.975
2155.66425	44631.675
2158.6212	44566.475
2161.57625	44550.075
2164.52941	44606.575
2167.48067	44635.075
2170.43004	44669.275
2173.37752	44600.475
2176.32311	44552.375
2179.26681	44555.375
2182.20863	44525.575
2185.14856	44559.175
2188.08661	44577.475
2191.02278	44564.275
2193.95707	44511.075
2196.88948	44519.775
2199.82001	44512.575
2202.74867	44457.075
2205.67545	44410.575
2208.60037	44311.975
2211.52341	44272.675
2214.44458	44261.775
2217.36388	44147.575
2220.28132	44095.575
2223.1969	43966.575
2226.11061	43875.775
2229.02246	43772.175
2231.93245	43762.075
2234.84058	43725.475
2237.74686	43641.475
2240.65128	43638.975
2243.55385	43566.075
2246.45456	43543.975
2249.35343	43446.775
2252.25044	43393.775
2255.14561	43377.875
2258.03893	43370.275
2260.93041	43350.375
2263.82004	43179.575
2266.70783	43135.375
2269.59378	43120.975
2272.4779	43072.275
2275.36017	42990.775
2278.24061	42979.575
2281.11922	42886.875
2283.996	42820.475
2286.87094	42695.375
2289.74405	42610.575
2292.61534	42627.075
2295.4848	42640.875
2298.35243	42647.775
2301.21824	42601.875
2304.08223	42604.175
2306.94439	42485.575
2309.80474	42466.375
2312.66327	42470.275
2315.51999	42423.775
2318.37489	42441.075
2321.22797	42412.575
2324.07925	42343.975
2326.92871	42265.175
2329.77637	42229.475
2332.62222	42136.575
2335.46626	42059.375
2338.3085	41998.575
2341.14893	41892.475
2343.98756	41928.975
2346.8244	41980.375
2349.65943	42063.975
2352.49267	42092.575
2355.32411	42032.575
2358.15376	41977.875
2360.98161	41972.475
2363.80768	41951.875
2366.63195	42007.675
2369.45444	41963.875
2372.27514	41942.375
2375.09405	41882.875
2377.91118	41777.875
2380.72652	41621.375
2383.54009	41564.375
2386.35187	41533.975
2389.16188	41408.875
2391.97011	41419.575
2394.77657	41318.575
2397.58125	41254.875
2400.38416	41193.775
2403.18529	41119.475
2405.98466	41152.075
2408.78226	41035.775
2411.57809	41002.375
2414.37216	40911.175
2417.16446	40871.875
2419.955	40777.375
2422.74378	40830.975
2425.5308	40753.875
2428.31606	40782.475
2431.09956	40797.775
2433.88131	40742.475
2436.6613	40673.675
2439.43954	40649.275
2442.21603	40673.175
2444.99077	40646.875
2447.76377	40631.675
2450.53501	40563.875
2453.30451	40606.275
2456.07226	40543.475
2458.83827	40537.675
2461.60254	40524.875
2464.36507	40483.075
2467.12586	40501.775
2469.88492	40445.275
2472.64224	40442.875
2475.39782	40398.375
2478.15167	40405.175
2480.90379	40420.075
2483.65417	40502.175
2486.40283	40470.375
2489.14976	40517.475
2491.89497	40407.975
2494.63845	40499.775
2497.3802	40484.475
2500.12024	40442.775
2502.85855	40494.275
2505.59514	40337.575
2508.33002	40238.475
2511.06318	40168.275
2513.79462	40046.475
2516.52435	39956.075
2519.25237	40046.975
2521.97867	39991.375
2524.70327	39942.275
2527.42616	39873.075
2530.14734	39842.775
2532.86681	39740.275
2535.58458	39771.375
2538.30065	39789.975
2541.01501	39849.675
2543.72768	39744.775
2546.43864	39714.175
2549.14791	39643.675
2551.85548	39621.875
2554.56136	39542.975
2557.26554	39501.775
2559.96803	39402.075
2562.66883	39317.775
2565.36794	39204.975
2568.06536	39236.775
2570.7611	39170.675
2573.45514	39055.075
2576.14751	39043.775
2578.83819	38970.475
2581.52719	38928.375
2584.21451	38919.175
2586.90015	38797.775
2589.58411	38769.875
2592.2664	38750.175
2594.94701	38711.275
2597.62594	38729.475
2600.30321	38631.975
2602.9788	38576.475
2605.65273	38484.375
2608.32498	38488.975
2610.99557	38440.575
2613.66449	38441.875
2616.33175	38455.475
2618.99734	38402.675
2621.66128	38311.275
2624.32355	38236.275
2626.98416	38124.775
2629.64311	38053.175
2632.30041	38021.575
2634.95605	37988.575
2637.61004	37975.075
2640.26238	37979.975
2642.91306	37895.775
2645.56209	37911.775
2648.20948	37855.775
2650.85521	37857.275
2653.4993	37827.175
2656.14175	37826.875
2658.78255	37886.975
2661.42171	37895.375
2664.05923	37997.375
2666.6951	37997.375
2669.32934	38006.575
2671.96194	37964.175
2674.59291	37926.275
2677.22224	37880.575
2679.84993	37876.475
2682.476	37872.975
2685.10043	37965.875
2687.72324	37922.375
2690.34441	37899.775
2692.96396	37906.375
2695.58188	37914.975
2698.19818	37895.875
2700.81285	37860.075
2703.4259	37862.975
2706.03733	37828.075
2708.64714	37883.075
2711.25533	37935.575
2713.86191	37825.275
2716.46687	37973.475
2719.07021	37947.675
2721.67194	38002.775
2724.27206	37981.175
2726.87057	37983.475
2729.46747	37938.275
2732.06276	37994.075
2734.65644	38004.975
2737.24852	37992.875
2739.83899	37859.575
2742.42786	37865.175
2745.01513	37719.775
2747.60079	37744.875
2750.18486	37744.375
2752.76733	37750.775
2755.3482	37655.575
2757.92747	37637.575
2760.50515	37622.675
2763.08123	37562.375
2765.65573	37456.375
2768.22863	37498.475
2770.79994	37471.375
2773.36967	37443.875
2775.9378	37377.175
2778.50435	37291.275
2781.06932	37234.575
2783.6327	37149.075
2786.1945	37170.675
2788.75471	37105.375
2791.31335	37041.575
2793.87041	36998.175
2796.42589	36928.475
2798.97979	36902.475
2801.53212	36912.175
2804.08288	36864.975
2806.63206	36823.875
2809.17967	36744.575
2811.72571	36631.575
2814.27018	36511.975
2816.81308	36469.775
2819.35442	36434.275
2821.89419	36365.175
2824.43239	36320.275
2826.96904	36317.375
2829.50412	36312.275
2832.03763	36246.875
2834.56959	36170.475
2837.1	36112.975
2839.62884	36086.675
2842.15613	36036.875
2844.68186	35984.975
2847.20604	35915.475
2849.72867	35996.475
2852.24974	35967.875
2854.76927	35975.975
2857.28724	35919.375
2859.80367	35901.675
2862.31855	35821.475
2864.83189	35739.175
2867.34368	35721.275
2869.85393	35660.675
2872.36264	35607.575
2874.8698	35493.475
2877.37543	35578.175
2879.87952	35506.875
2882.38207	35486.575
2884.88308	35485.175
2887.38256	35537.075
2889.88051	35491.675
2892.37692	35543.375
2894.8718	35438.075
2897.36515	35524.375
2899.85698	35563.375
2902.34727	35574.575
2904.83604	35579.775
2907.32328	35691.675
2909.809	35670.375
2912.29319	35713.275
2914.77587	35720.775
2917.25702	35753.375
2919.73665	35715.175
2922.21476	35749.375
2924.69136	35630.375
2927.16644	35588.375
2929.64	35490.575
2932.11205	35504.475
2934.58258	35285.375
2937.05161	35331.675
2939.51912	35355.875
2941.98513	35328.575
2944.44962	35319.875
2946.91261	35201.975
2949.37409	35355.575
2951.83407	35368.375
2954.29254	35332.875
2956.74951	35319.575
2959.20498	35310.475
2961.65895	35268.075
2964.11142	35329.375
2966.56239	35254.075
2969.01186	35232.975
2971.45984	35169.075
2973.90632	35181.975
2976.35131	35166.175
2978.7948	35139.975
2981.23681	35128.075
2983.67732	35047.975
2986.11635	35032.775
2988.55388	34934.375
2990.98993	34880.975
2993.4245	34777.775
2995.85758	34740.675
2998.28917	34564.375
3000.71928	34482.175
3003.14791	34412.575
3005.57506	34380.475
3008.00073	34240.075
3010.42493	34189.375
3012.84764	34162.375
3015.26888	34147.675
3017.68865	34065.375
3020.10694	34008.375
3022.52376	33985.175
3024.9391	33958.075
3027.35298	33924.775
3029.76539	33920.175
3032.17632	33860.475
3034.5858	33811.075
3036.9938	33834.175
3039.40034	33716.975
3041.80542	33687.075
3044.20903	33591.975
3046.61118	33554.075
3049.01187	33494.475
3051.4111	33483.075
3053.80888	33449.975
3056.20519	33453.375
3058.60005	33370.775
3060.99345	33293.675
3063.3854	33208.475
3065.7759	33105.875
3068.16494	33022.075
3070.55254	32929.075
3072.93868	32904.575
3075.32338	32765.975
3077.70662	32688.675
3080.08842	32609.875
3082.46878	32636.375
3084.84769	32658.775
3087.22515	32704.775
3089.60118	32619.975
3091.97576	32576.975
3094.3489	32485.675
3096.72061	32495.975
3099.09087	32522.675
3101.4597	32525.275
3103.82709	32509.675
3106.19305	32501.875
3108.55757	32526.875
3110.92066	32444.975
3113.28232	32463.575
3115.64255	32363.575
3118.00134	32264.175
3120.35871	32182.675
3122.71466	32085.275
3125.06917	32030.075
3127.42226	31934.375
