Data from AgNPs_UA_10uM_CRN_0uM_R6G_10uM_Q_RamanShift__15__12-06-12-641.txt Node

Date: Mon Jul 18 12:06:12 BST 2022
User: TCL
Spectrometer: QEP01345
Trigger mode: 4
Integration Time (sec): 7.000000E0
Scans to average: 10
Electric dark correction enabled: true
Nonlinearity correction enabled: false
Boxcar width: 0
XAxis mode: Raman Shifts
Number of Pixels in Spectrum: 1044
>>>>>Begin Spectral Data<<<<<
46.04893	-0.6125
50.45542	-2.2125
54.85868	-2.5125
59.25871	-0.3125
63.6555	135.9875
68.04907	141.9875
72.43941	150.5875
76.82654	149.4875
81.21044	158.6875
85.59113	162.2875
89.96862	167.7875
94.34289	176.2875
98.71396	176.5875
103.08183	183.7875
107.4465	190.7875
111.80798	193.0875
116.16626	200.5875
120.52136	211.1875
124.87327	225.0875
129.222	237.5875
133.56755	250.7875
137.90993	271.9875
142.24913	293.6875
146.58517	336.1875
150.91804	392.2875
155.24774	473.3875
159.57429	583.6875
163.89768	760.1875
168.21792	1006.6875
172.53501	1386.1875
176.84895	1928.5875
181.15975	2716.5875
185.46741	3817.6875
189.77193	5300.2875
194.07331	7097.1875
198.37157	9148.4875
202.6667	11282.0875
206.9587	13421.9875
211.24758	15498.0875
215.53334	17621.4875
219.81599	19788.5875
224.09553	22225.5875
228.37195	24924.5875
232.64527	27793.5875
236.91549	30840.2875
241.18261	33911.2875
245.44663	36727.7875
249.70755	39335.1875
253.96539	41697.8875
258.22014	43626.3875
262.4718	45220.7875
266.72039	46263.5875
270.96589	46855.9875
275.20832	47002.3875
279.44768	46659.6875
283.68397	46216.0875
287.91719	45795.1875
292.14735	45580.7875
296.37445	45565.7875
300.59849	45811.3875
304.81948	46082.5875
309.03742	46243.1875
313.25231	46026.9875
317.46415	45353.2875
321.67296	44427.0875
325.87872	43564.6875
330.08145	43241.6875
334.28114	43454.5875
338.47781	43874.2875
342.67145	44452.3875
346.86207	45260.5875
351.04966	46141.0875
355.23424	47126.4875
359.4158	47946.4875
363.59435	48524.5875
367.76989	48843.1875
371.94243	49086.8875
376.11196	49228.1875
380.27849	49463.9875
384.44203	49723.5875
388.60257	49980.1875
392.76012	50378.7875
396.91468	50891.5875
401.06626	51599.7875
405.21485	52035.5875
409.36047	51768.1875
413.50311	51239.4875
417.64277	50625.6875
421.77947	50501.3875
425.9132	50624.3875
430.04396	50810.8875
434.17176	50959.4875
438.2966	51361.4875
442.41849	51935.1875
446.53742	52628.3875
450.6534	53438.2875
454.76644	54147.8875
458.87653	54443.3875
462.98368	54608.2875
467.08789	54481.0875
471.18916	54278.4875
475.2875	53963.1875
479.38291	53696.6875
483.4754	53390.0875
487.56496	53154.8875
491.6516	52956.8875
495.73531	52789.1875
499.81612	52875.6875
503.89401	53160.9875
507.96899	53402.2875
512.04106	53459.0875
516.11023	53557.0875
520.1765	53552.3875
524.23987	53397.1875
528.30034	53183.7875
532.35792	53023.8875
536.41261	52830.6875
540.46441	52587.1875
544.51333	52693.7875
548.55936	53088.3875
552.60252	53770.9875
556.64279	54597.4875
560.6802	55071.8875
564.71473	55522.2875
568.7464	56118.3875
572.7752	56654.1875
576.80114	56930.4875
580.82422	57394.4875
584.84444	57825.2875
588.86181	58033.8875
592.87633	58138.6875
596.888	58279.3875
600.89682	58911.3875
604.9028	61274.5875
608.90594	66323.2875
612.90624	70863.6875
616.90371	66747.3875
620.89834	58630.1875
624.89015	55363.8875
628.87913	55160.7875
632.86528	55706.3875
636.84862	56016.9875
640.82913	55600.7875
644.80683	54768.4875
648.78172	54162.4875
652.75379	54257.8875
656.72306	54902.2875
660.68952	55704.3875
664.65319	55562.0875
668.61405	55069.9875
672.57211	55118.0875
676.52738	55244.2875
680.47986	55201.6875
684.42955	54893.1875
688.37646	54801.4875
692.32058	54993.5875
696.26192	55509.5875
700.20048	56008.0875
704.13626	56266.2875
708.06928	56237.6875
711.99952	56071.3875
715.927	55960.3875
719.85171	56037.8875
723.77365	55882.3875
727.69284	55578.7875
731.60928	55291.9875
735.52295	55247.1875
739.43388	55300.0875
743.34206	55461.8875
747.24749	55659.8875
751.15017	55837.4875
755.05012	56378.8875
758.94733	57518.9875
762.8418	59881.1875
766.73354	63316.0875
770.62254	66196.0875
774.50882	66639.2875
778.39237	64846.0875
782.27321	62050.4875
786.15132	59314.6875
790.02671	57424.5875
793.89938	56366.1875
797.76935	55903.0875
801.6366	55754.4875
805.50115	55638.9875
809.36299	55386.1875
813.22213	55264.3875
817.07857	55326.9875
820.93231	55338.1875
824.78336	55452.0875
828.63172	55512.6875
832.47738	55449.7875
836.32036	55453.7875
840.16066	55488.5875
843.99827	55564.8875
847.8332	55578.4875
851.66546	55516.4875
855.49504	55639.6875
859.32195	55715.5875
863.1462	55719.5875
866.96777	55810.4875
870.78668	55746.2875
874.60293	55849.3875
878.41652	55974.5875
882.22745	56194.1875
886.03573	56306.4875
889.84136	56299.8875
893.64433	56200.5875
897.44466	56047.1875
901.24235	56044.3875
905.0374	55998.8875
908.8298	55837.4875
912.61957	55825.2875
916.40671	55959.9875
920.19121	56245.2875
923.97308	56542.5875
927.75233	56670.9875
931.52895	56654.9875
935.30295	56362.0875
939.07433	55753.8875
942.84309	55269.8875
946.60924	55083.1875
950.37278	54937.6875
954.13371	54960.6875
957.89203	54874.3875
961.64774	54914.5875
965.40086	54906.5875
969.15137	54807.8875
972.89929	54753.6875
976.64461	54791.6875
980.38733	54819.2875
984.12747	54941.9875
987.86502	55139.4875
991.59999	55269.6875
995.33237	55452.5875
999.06217	55839.5875
1002.78939	56348.9875
1006.51404	56794.0875
1010.23611	57257.4875
1013.95561	57538.2875
1017.67255	57566.1875
1021.38692	57326.4875
1025.09872	57006.6875
1028.80796	56719.4875
1032.51465	56639.7875
1036.21877	56861.8875
1039.92035	56968.8875
1043.61937	57119.6875
1047.31584	57172.3875
1051.00976	57244.3875
1054.70114	57424.6875
1058.38998	57584.1875
1062.07627	57940.6875
1065.76003	58310.6875
1069.44126	58886.1875
1073.11995	59584.1875
1076.79611	60212.7875
1080.46974	60619.2875
1084.14085	60846.4875
1087.80943	61192.9875
1091.47549	61488.3875
1095.13903	61478.3875
1098.80005	61073.0875
1102.45857	60635.0875
1106.11456	60126.6875
1109.76805	59587.6875
1113.41903	59526.8875
1117.06751	59795.7875
1120.71348	60258.9875
1124.35696	60804.6875
1127.99793	61353.0875
1131.63641	61284.9875
1135.2724	60560.8875
1138.90589	60140.4875
1142.5369	59884.9875
1146.16542	59778.0875
1149.79145	59792.4875
1153.415	59758.9875
1157.03607	60010.3875
1160.65467	60691.5875
1164.27079	61751.8875
1167.88443	63224.1875
1171.49561	65239.4875
1175.10432	68000.8875
1178.71056	71398.8875
1182.31434	74353.2875
1185.91565	75838.0875
1189.51451	75949.8875
1193.11091	75028.5875
1196.70485	73462.0875
1200.29634	71695.9875
1203.88538	70029.5875
1207.47197	68349.7875
1211.05612	66983.6875
1214.63782	65887.3875
1218.21708	65022.9875
1221.79391	64289.2875
1225.36829	63830.4875
1228.94024	63538.9875
1232.50976	63480.0875
1236.07685	63344.0875
1239.6415	63455.8875
1243.20374	63497.3875
1246.76355	63782.8875
1250.32093	64199.7875
1253.8759	64863.0875
1257.42845	65847.7875
1260.97859	66950.0875
1264.52631	67974.6875
1268.07163	68996.7875
1271.61453	69803.8875
1275.15503	70603.1875
1278.69312	71379.7875
1282.22882	71820.7875
1285.76211	72716.9875
1289.29301	73757.6875
1292.82151	75097.0875
1296.34761	76446.0875
1299.87133	78386.3875
1303.39266	80945.3875
1306.9116	84275.4875
1310.42815	87744.2875
1313.94233	89404.5875
1317.45412	88692.9875
1320.96354	87164.7875
1324.47058	85675.7875
1327.97525	84372.2875
1331.47754	83488.2875
1334.97747	83114.6875
1338.47502	83289.4875
1341.97022	84239.4875
1345.46305	85593.8875
1348.95352	86974.9875
1352.44163	88125.0875
1355.92738	89365.6875
1359.41078	91509.1875
1362.89183	93742.5875
1366.37053	91724.0875
1369.84688	85207.4875
1373.32088	78661.4875
1376.79254	74330.0875
1380.26186	72052.1875
1383.72883	70841.2875
1387.19347	69981.1875
1390.65578	68989.8875
1394.11575	68137.0875
1397.57339	67724.2875
1401.0287	67470.7875
1404.48168	67262.0875
1407.93234	66938.7875
1411.38068	66658.7875
1414.82669	66139.0875
1418.27039	65287.4875
1421.71177	64446.4875
1425.15083	63693.5875
1428.58758	63384.8875
1432.02203	63591.0875
1435.45416	64126.0875
1438.88399	64622.5875
1442.31151	64961.6875
1445.73673	65244.8875
1449.15965	65523.8875
1452.58027	65732.9875
1455.9986	65919.1875
1459.41463	66225.1875
1462.82837	66772.7875
1466.23982	67469.5875
1469.64898	68249.8875
1473.05586	68771.3875
1476.46045	69079.7875
1479.86276	69231.0875
1483.26279	69526.5875
1486.66054	70049.3875
1490.05602	70951.1875
1493.44922	72511.7875
1496.84016	74822.8875
1500.22882	78047.2875
1503.61521	82224.2875
1506.99934	86524.7875
1510.38121	89470.4875
1513.76081	89516.1875
1517.13816	86438.5875
1520.51324	81874.8875
1523.88607	77959.5875
1527.25665	75403.9875
1530.62498	73990.1875
1533.99105	73013.6875
1537.35488	72128.8875
1540.71647	71267.0875
1544.07581	70486.6875
1547.4329	69795.2875
1550.78776	69211.5875
1554.14038	68843.7875
1557.49077	68728.8875
1560.83892	69009.0875
1564.18484	69603.0875
1567.52853	70371.4875
1570.86999	70911.2875
1574.20922	71502.0875
1577.54624	71416.2875
1580.88103	70461.5875
1584.2136	69271.2875
1587.54395	68820.9875
1590.87208	69460.4875
1594.19801	71005.9875
1597.52172	72614.2875
1600.84321	72954.4875
1604.16251	71840.8875
1607.47959	70026.8875
1610.79447	67805.2875
1614.10715	65245.0875
1617.41763	62851.4875
1620.7259	61180.1875
1624.03199	60191.8875
1627.33587	59975.4875
1630.63757	60499.4875
1633.93707	62002.0875
1637.23439	64595.4875
1640.52951	68463.5875
1643.82246	73218.9875
1647.11321	77685.7875
1650.40179	79684.0875
1653.68819	77363.2875
1656.97241	71698.6875
1660.25446	65726.7875
1663.53433	61062.3875
1666.81203	58038.8875
1670.08756	56089.9875
1673.36092	54885.5875
1676.63211	54015.3875
1679.90115	53406.3875
1683.16801	52883.7875
1686.43272	52563.4875
1689.69527	52235.9875
1692.95567	52006.6875
1696.2139	51893.5875
1699.46999	51755.5875
1702.72392	51706.2875
1705.97571	51646.9875
1709.22535	51627.0875
1712.47284	51650.2875
1715.71819	51582.8875
1718.96139	51538.7875
1722.20246	51418.5875
1725.44139	51291.6875
1728.67818	51074.3875
1731.91284	50809.3875
1735.14537	50590.8875
1738.37576	50541.9875
1741.60403	50526.4875
1744.83017	50400.2875
1748.05418	50266.2875
1751.27607	50177.6875
1754.49584	50183.9875
1757.71349	50109.1875
1760.92903	50054.1875
1764.14244	49972.3875
1767.35375	49987.1875
1770.56294	49853.2875
1773.77002	49780.1875
1776.97499	49767.0875
1780.17785	49783.7875
1783.37861	49635.4875
1786.57727	49587.8875
1789.77382	49515.4875
1792.96828	49440.9875
1796.16064	49370.8875
1799.3509	49278.0875
1802.53907	49167.9875
1805.72514	48984.7875
1808.90913	48898.3875
1812.09102	48833.8875
1815.27083	48765.4875
1818.44856	48706.4875
1821.6242	48702.7875
1824.79776	48584.2875
1827.96924	48530.4875
1831.13864	48490.1875
1834.30597	48368.8875
1837.47122	48314.3875
1840.6344	48391.3875
1843.7955	48359.3875
1846.95454	48294.8875
1850.11151	48286.0875
1853.26642	48262.9875
1856.41926	48227.5875
1859.57004	48267.8875
1862.71876	48150.4875
1865.86542	48084.8875
1869.01003	48127.2875
1872.15258	48092.5875
1875.29308	47988.0875
1878.43152	47804.0875
1881.56792	47791.9875
1884.70227	47703.3875
1887.83457	47698.7875
1890.96482	47674.2875
1894.09304	47571.9875
1897.21921	47560.3875
1900.34335	47509.1875
1903.46544	47415.9875
1906.58551	47319.4875
1909.70353	47224.4875
1912.81953	47163.7875
1915.93349	47206.8875
1919.04543	47049.2875
1922.15534	47038.2875
1925.26322	46893.0875
1928.36908	46836.0875
1931.47292	46729.6875
1934.57473	46581.3875
1937.67453	46459.6875
1940.77232	46351.5875
1943.86808	46293.9875
1946.96184	46207.9875
1950.05358	46075.1875
1953.14331	45867.4875
1956.23103	45767.2875
1959.31675	45615.1875
1962.40046	45572.4875
1965.48217	45441.4875
1968.56188	45336.2875
1971.63959	45204.6875
1974.7153	45122.5875
1977.78901	45002.3875
1980.86073	44751.4875
1983.93046	44648.0875
1986.99819	44590.5875
1990.06394	44412.6875
1993.1277	44254.9875
1996.18947	44159.8875
1999.24925	44113.1875
2002.30706	44021.7875
2005.36288	43916.9875
2008.41672	43798.8875
2011.46859	43582.8875
2014.51848	43534.2875
2017.56639	43471.7875
2020.61233	43355.6875
2023.6563	43190.4875
2026.6983	42969.6875
2029.73833	42802.9875
2032.7764	42704.3875
2035.8125	42692.8875
2038.84664	42596.8875
2041.87881	42497.8875
2044.90903	42373.0875
2047.93729	42290.2875
2050.96359	42229.1875
2053.98794	42125.1875
2057.01034	42118.9875
2060.03078	42110.7875
2063.04927	42124.4875
2066.06582	42090.7875
2069.08042	42039.4875
2072.09307	42016.1875
2075.10378	41924.0875
2078.11255	41880.9875
2081.11938	41926.5875
2084.12426	41957.4875
2087.12722	41922.7875
2090.12824	41905.5875
2093.12732	41835.3875
2096.12447	41918.8875
2099.11969	41941.0875
2102.11299	41983.0875
2105.10435	41928.7875
2108.09379	41903.2875
2111.08131	41963.8875
2114.0669	41963.5875
2117.05057	41952.0875
2120.03233	41999.4875
2123.01216	42095.0875
2125.99008	42098.0875
2128.96609	42155.6875
2131.94018	42270.1875
2134.91236	42310.9875
2137.88263	42335.0875
2140.851	42282.3875
2143.81746	42331.5875
2146.78201	42289.2875
2149.74466	42401.9875
2152.7054	42325.3875
2155.66425	42289.2875
2158.6212	42349.1875
2161.57625	42244.1875
2164.52941	42218.7875
2167.48067	42192.0875
2170.43004	42201.6875
2173.37752	42225.1875
2176.32311	42140.8875
2179.26681	42163.3875
2182.20863	42170.0875
2185.14856	42178.1875
2188.08661	42110.2875
2191.02278	42149.2875
2193.95707	42133.3875
2196.88948	42093.7875
2199.82001	42074.2875
2202.74867	41957.4875
2205.67545	41912.5875
2208.60037	41753.2875
2211.52341	41720.7875
2214.44458	41716.4875
2217.36388	41587.5875
2220.28132	41581.6875
2223.1969	41457.2875
2226.11061	41298.6875
2229.02246	41265.4875
2231.93245	41229.2875
2234.84058	41121.7875
2237.74686	41020.2875
2240.65128	40962.2875
2243.55385	40965.1875
2246.45456	40967.7875
2249.35343	40862.7875
2252.25044	40821.6875
2255.14561	40781.6875
2258.03893	40708.8875
2260.93041	40629.9875
2263.82004	40590.2875
2266.70783	40515.0875
2269.59378	40394.6875
2272.4779	40349.8875
2275.36017	40232.9875
2278.24061	40179.2875
2281.11922	40017.2875
2283.996	39997.4875
2286.87094	39905.2875
2289.74405	39762.0875
2292.61534	39777.6875
2295.4848	39722.4875
2298.35243	39760.8875
2301.21824	39746.8875
2304.08223	39662.1875
2306.94439	39602.8875
2309.80474	39617.5875
2312.66327	39526.7875
2315.51999	39483.7875
2318.37489	39498.9875
2321.22797	39418.1875
2324.07925	39329.0875
2326.92871	39226.9875
2329.77637	39178.6875
2332.62222	39114.7875
2335.46626	39135.5875
2338.3085	39101.8875
2341.14893	39015.6875
2343.98756	38949.0875
2346.8244	38970.1875
2349.65943	39043.8875
2352.49267	38981.6875
2355.32411	38959.8875
2358.15376	38886.9875
2360.98161	38936.7875
2363.80768	38867.1875
2366.63195	38905.5875
2369.45444	38834.4875
2372.27514	38776.5875
2375.09405	38744.1875
2377.91118	38608.9875
2380.72652	38502.7875
2383.54009	38394.4875
2386.35187	38391.1875
2389.16188	38317.0875
2391.97011	38268.9875
2394.77657	38161.6875
2397.58125	38052.8875
2400.38416	38038.7875
2403.18529	37984.2875
2405.98466	38057.9875
2408.78226	37912.4875
2411.57809	37878.0875
2414.37216	37825.4875
2417.16446	37852.8875
2419.955	37746.8875
2422.74378	37763.9875
2425.5308	37630.2875
2428.31606	37582.8875
2431.09956	37594.5875
2433.88131	37507.8875
2436.6613	37463.2875
2439.43954	37499.0875
2442.21603	37430.9875
2444.99077	37365.6875
2447.76377	37358.2875
2450.53501	37238.0875
2453.30451	37222.8875
2456.07226	37201.5875
2458.83827	37079.4875
2461.60254	37142.8875
2464.36507	37059.0875
2467.12586	37018.8875
2469.88492	37001.6875
2472.64224	36990.2875
2475.39782	36902.5875
2478.15167	36961.9875
2480.90379	36908.9875
2483.65417	36956.7875
2486.40283	37007.2875
2489.14976	37047.7875
2491.89497	36994.5875
2494.63845	37019.2875
2497.3802	36876.5875
2500.12024	36868.8875
2502.85855	36769.0875
2505.59514	36673.4875
2508.33002	36626.3875
2511.06318	36577.2875
2513.79462	36504.8875
2516.52435	36441.4875
2519.25237	36411.1875
2521.97867	36402.4875
2524.70327	36426.7875
2527.42616	36317.4875
2530.14734	36292.7875
2532.86681	36248.3875
2535.58458	36215.0875
2538.30065	36115.5875
2541.01501	36136.0875
2543.72768	36071.4875
2546.43864	36002.7875
2549.14791	35912.4875
2551.85548	35839.1875
2554.56136	35738.1875
2557.26554	35731.4875
2559.96803	35698.7875
2562.66883	35606.3875
2565.36794	35558.7875
2568.06536	35519.0875
2570.7611	35499.5875
2573.45514	35441.1875
2576.14751	35330.0875
2578.83819	35297.9875
2581.52719	35239.2875
2584.21451	35169.6875
2586.90015	35115.2875
2589.58411	35099.0875
2592.2664	35085.6875
2594.94701	35002.8875
2597.62594	35021.9875
2600.30321	34891.3875
2602.9788	34844.2875
2605.65273	34701.1875
2608.32498	34719.4875
2610.99557	34637.8875
2613.66449	34663.7875
2616.33175	34605.4875
2618.99734	34532.4875
2621.66128	34448.5875
2624.32355	34443.1875
2626.98416	34411.3875
2629.64311	34313.3875
2632.30041	34256.7875
2634.95605	34197.9875
2637.61004	34140.8875
2640.26238	34158.2875
2642.91306	34214.0875
2645.56209	34149.5875
2648.20948	34081.7875
2650.85521	34041.2875
2653.4993	34006.7875
2656.14175	33971.6875
2658.78255	34048.6875
2661.42171	34103.5875
2664.05923	34093.0875
2666.6951	34020.3875
2669.32934	34046.4875
2671.96194	34013.6875
2674.59291	33992.9875
2677.22224	33971.6875
2679.84993	33977.0875
2682.476	33954.4875
2685.10043	33919.6875
2687.72324	33880.1875
2690.34441	33856.9875
2692.96396	33894.3875
2695.58188	33894.8875
2698.19818	33790.8875
2700.81285	33812.9875
2703.4259	33797.0875
2706.03733	33893.1875
2708.64714	33926.9875
2711.25533	33929.6875
2713.86191	33875.0875
2716.46687	33887.1875
2719.07021	33869.8875
2721.67194	33867.7875
2724.27206	33853.3875
2726.87057	33803.3875
2729.46747	33857.8875
2732.06276	33880.2875
2734.65644	33855.5875
2737.24852	33795.9875
2739.83899	33689.7875
2742.42786	33684.2875
2745.01513	33614.9875
2747.60079	33591.3875
2750.18486	33594.3875
2752.76733	33551.0875
2755.3482	33509.2875
2757.92747	33460.8875
2760.50515	33406.3875
2763.08123	33409.9875
2765.65573	33295.6875
2768.22863	33287.1875
2770.79994	33229.1875
2773.36967	33203.8875
2775.9378	33140.6875
2778.50435	33086.7875
2781.06932	33017.3875
2783.6327	33044.7875
2786.1945	32990.3875
2788.75471	32969.9875
2791.31335	32808.0875
2793.87041	32723.6875
2796.42589	32651.1875
2798.97979	32705.1875
2801.53212	32636.4875
2804.08288	32608.7875
2806.63206	32516.1875
2809.17967	32397.7875
2811.72571	32373.7875
2814.27018	32241.4875
2816.81308	32146.3875
2819.35442	32104.3875
2821.89419	32033.6875
2824.43239	31993.0875
2826.96904	31932.2875
2829.50412	31935.3875
2832.03763	31838.3875
2834.56959	31818.0875
2837.1	31781.3875
2839.62884	31779.2875
2842.15613	31717.2875
2844.68186	31700.8875
2847.20604	31607.3875
2849.72867	31606.3875
2852.24974	31576.8875
2854.76927	31479.1875
2857.28724	31477.2875
2859.80367	31510.3875
2862.31855	31439.5875
2864.83189	31441.6875
2867.34368	31390.8875
2869.85393	31365.7875
2872.36264	31301.2875
2874.8698	31203.1875
2877.37543	31195.5875
2879.87952	31193.9875
2882.38207	31211.7875
2884.88308	31130.9875
2887.38256	31131.0875
2889.88051	31101.9875
2892.37692	31084.9875
2894.8718	31108.2875
2897.36515	31173.9875
2899.85698	31043.8875
2902.34727	31101.5875
2904.83604	31098.7875
2907.32328	31189.2875
2909.809	31162.2875
2912.29319	31154.5875
2914.77587	31118.7875
2917.25702	31118.6875
2919.73665	31123.5875
2922.21476	31129.4875
2924.69136	31075.5875
2927.16644	31064.4875
2929.64	31006.6875
2932.11205	30963.5875
2934.58258	30861.1875
2937.05161	30852.3875
2939.51912	30835.4875
2941.98513	30883.4875
2944.44962	30809.0875
2946.91261	30681.3875
2949.37409	30774.2875
2951.83407	30753.2875
2954.29254	30784.6875
2956.74951	30752.6875
2959.20498	30732.9875
2961.65895	30739.3875
2964.11142	30792.3875
2966.56239	30751.1875
2969.01186	30683.5875
2971.45984	30614.2875
2973.90632	30623.7875
2976.35131	30530.4875
2978.7948	30473.2875
2981.23681	30478.1875
2983.67732	30475.6875
2986.11635	30401.7875
2988.55388	30371.9875
2990.98993	30300.4875
2993.4245	30292.9875
2995.85758	30171.9875
2998.28917	30065.6875
3000.71928	30012.3875
3003.14791	29899.0875
3005.57506	29942.0875
3008.00073	29785.4875
3010.42493	29818.9875
3012.84764	29755.8875
3015.26888	29731.0875
3017.68865	29677.6875
3020.10694	29598.7875
3022.52376	29625.5875
3024.9391	29577.4875
