Data from AgNPs_UA_100uM_CRN_0uM_R6G_10uM_Q_RamanShift__33__13-50-55-352.txt Node

Date: Tue Jul 26 13:50:55 BST 2022
User: TCL
Spectrometer: QEP01345
Trigger mode: 4
Integration Time (sec): 7.000000E0
Scans to average: 10
Electric dark correction enabled: true
Nonlinearity correction enabled: false
Boxcar width: 0
XAxis mode: Raman Shifts
Number of Pixels in Spectrum: 1044
>>>>>Begin Spectral Data<<<<<
46.04893	-0.5375
50.45542	0.7625
54.85868	0.1625
59.25871	-0.0375
63.6555	49.7625
68.04907	54.1625
72.43941	58.7625
76.82654	61.4625
81.21044	67.6625
85.59113	65.2625
89.96862	71.3625
94.34289	74.0625
98.71396	80.1625
103.08183	80.5625
107.4465	77.8625
111.80798	79.3625
116.16626	77.0625
120.52136	81.5625
124.87327	81.1625
129.222	90.4625
133.56755	88.4625
137.90993	89.1625
142.24913	92.8625
146.58517	98.2625
150.91804	107.3625
155.24774	121.4625
159.57429	138.5625
163.89768	172.8625
168.21792	219.1625
172.53501	280.1625
176.84895	376.1625
181.15975	523.1625
185.46741	720.9625
189.77193	991.3625
194.07331	1327.3625
198.37157	1711.4625
202.6667	2094.1625
206.9587	2511.5625
211.24758	2928.0625
215.53334	3389.5625
219.81599	3902.1625
224.09553	4507.5625
228.37195	5140.8625
232.64527	5838.2625
236.91549	6477.6625
241.18261	7015.9625
245.44663	7416.4625
249.70755	7692.2625
253.96539	7935.5625
258.22014	8116.6625
262.4718	8266.5625
266.72039	8300.3625
270.96589	8256.2625
275.20832	8057.5625
279.44768	7839.1625
283.68397	7609.0625
287.91719	7515.8625
292.14735	7615.2625
296.37445	7994.7625
300.59849	8602.7625
304.81948	9344.1625
309.03742	9853.7625
313.25231	9890.8625
317.46415	9215.9625
321.67296	8218.7625
325.87872	7403.8625
330.08145	7092.7625
334.28114	7122.1625
338.47781	7357.9625
342.67145	7697.4625
346.86207	8227.4625
351.04966	9026.5625
355.23424	9888.1625
359.4158	10475.6625
363.59435	10686.9625
367.76989	10645.1625
371.94243	10516.1625
376.11196	10309.8625
380.27849	10176.8625
384.44203	9925.2625
388.60257	9649.8625
392.76012	9506.1625
396.91468	9525.0625
401.06626	9758.6625
405.21485	9880.1625
409.36047	9503.3625
413.50311	8690.6625
417.64277	7967.0625
421.77947	7526.7625
425.9132	7338.7625
430.04396	7294.0625
434.17176	7356.1625
438.2966	7515.1625
442.41849	7779.4625
446.53742	8033.6625
450.6534	8227.9625
454.76644	8304.9625
458.87653	8254.9625
462.98368	8099.5625
467.08789	7930.3625
471.18916	7740.6625
475.2875	7480.2625
479.38291	7255.6625
483.4754	7142.8625
487.56496	7051.0625
491.6516	7033.9625
495.73531	7042.0625
499.81612	7099.0625
503.89401	7221.7625
507.96899	7444.8625
512.04106	7677.7625
516.11023	7995.1625
520.1765	8187.4625
524.23987	8227.8625
528.30034	8075.6625
532.35792	7890.0625
536.41261	7723.3625
540.46441	7453.5625
544.51333	7313.7625
548.55936	7336.6625
552.60252	7498.6625
556.64279	7724.4625
560.6802	7863.2625
564.71473	8200.3625
568.7464	8742.5625
572.7752	8819.0625
576.80114	8112.4625
580.82422	7484.7625
584.84444	7208.0625
588.86181	7190.1625
592.87633	7311.6625
596.888	7508.0625
600.89682	8083.5625
604.9028	10025.2625
608.90594	14732.1625
612.90624	20048.7625
616.90371	18232.6625
620.89834	11470.5625
624.89015	8567.2625
628.87913	8156.5625
632.86528	8438.6625
636.84862	8691.1625
640.82913	8392.0625
644.80683	7755.4625
648.78172	7367.0625
652.75379	7398.7625
656.72306	7887.8625
660.68952	8351.4625
664.65319	8029.3625
668.61405	7381.5625
672.57211	7108.6625
676.52738	7072.4625
680.47986	7064.1625
684.42955	6966.4625
688.37646	6939.6625
692.32058	6963.6625
696.26192	7022.8625
700.20048	7177.1625
704.13626	7237.1625
708.06928	7185.4625
711.99952	7117.8625
715.927	7157.5625
719.85171	7247.0625
723.77365	7360.2625
727.69284	7291.3625
731.60928	7236.9625
735.52295	7223.6625
739.43388	7236.3625
743.34206	7267.9625
747.24749	7286.1625
751.15017	7308.0625
755.05012	7500.3625
758.94733	8213.6625
762.8418	9817.9625
766.73354	12247.3625
770.62254	14393.7625
774.50882	15495.5625
778.39237	14713.0625
782.27321	12166.8625
786.15132	9653.1625
790.02671	8261.6625
793.89938	7673.7625
797.76935	7448.7625
801.6366	7355.2625
805.50115	7347.0625
809.36299	7362.2625
813.22213	7346.3625
817.07857	7321.4625
820.93231	7318.1625
824.78336	7318.8625
828.63172	7358.6625
832.47738	7361.7625
836.32036	7271.9625
840.16066	7192.5625
843.99827	7118.1625
847.8332	7098.4625
851.66546	7114.7625
855.49504	7115.1625
859.32195	7115.3625
863.1462	7089.5625
866.96777	7055.3625
870.78668	7094.5625
874.60293	7165.8625
878.41652	7266.8625
882.22745	7387.9625
886.03573	7456.5625
889.84136	7483.3625
893.64433	7429.6625
897.44466	7383.0625
901.24235	7362.2625
905.0374	7271.5625
908.8298	7158.2625
912.61957	7062.4625
916.40671	7054.6625
920.19121	7064.8625
923.97308	7162.7625
927.75233	7384.5625
931.52895	7569.8625
935.30295	7433.3625
939.07433	7138.9625
942.84309	6903.4625
946.60924	6765.8625
950.37278	6711.5625
954.13371	6665.9625
957.89203	6681.3625
961.64774	6651.2625
965.40086	6630.7625
969.15137	6612.3625
972.89929	6600.0625
976.64461	6612.3625
980.38733	6607.4625
984.12747	6627.2625
987.86502	6662.8625
991.59999	6734.3625
995.33237	6831.9625
999.06217	6969.6625
1002.78939	7128.7625
1006.51404	7326.5625
1010.23611	7520.6625
1013.95561	7582.6625
1017.67255	7559.7625
1021.38692	7463.5625
1025.09872	7355.5625
1028.80796	7325.2625
1032.51465	7393.5625
1036.21877	7479.0625
1039.92035	7503.7625
1043.61937	7518.0625
1047.31584	7467.2625
1051.00976	7385.5625
1054.70114	7312.0625
1058.38998	7292.0625
1062.07627	7302.3625
1065.76003	7307.3625
1069.44126	7320.0625
1073.11995	7409.7625
1076.79611	7598.6625
1080.46974	7906.9625
1084.14085	8299.5625
1087.80943	8577.9625
1091.47549	8612.2625
1095.13903	8351.3625
1098.80005	7912.4625
1102.45857	7709.1625
1106.11456	7703.8625
1109.76805	7907.0625
1113.41903	8299.1625
1117.06751	8929.1625
1120.71348	9713.6625
1124.35696	10576.4625
1127.99793	11024.5625
1131.63641	10522.0625
1135.2724	9608.3625
1138.90589	8911.0625
1142.5369	8449.0625
1146.16542	8113.8625
1149.79145	7911.3625
1153.415	7824.9625
1157.03607	7867.1625
1160.65467	7995.4625
1164.27079	8348.7625
1167.88443	8874.9625
1171.49561	9769.4625
1175.10432	11270.1625
1178.71056	13312.6625
1182.31434	14894.5625
1185.91565	15139.6625
1189.51451	14335.6625
1193.11091	12997.6625
1196.70485	11745.0625
1200.29634	10989.2625
1203.88538	10402.2625
1207.47197	9588.2625
1211.05612	8887.5625
1214.63782	8435.1625
1218.21708	8219.3625
1221.79391	8160.3625
1225.36829	8135.5625
1228.94024	8130.0625
1232.50976	8125.8625
1236.07685	8135.2625
1239.6415	8207.4625
1243.20374	8300.2625
1246.76355	8403.9625
1250.32093	8491.9625
1253.8759	8704.4625
1257.42845	8995.8625
1260.97859	9355.5625
1264.52631	9746.2625
1268.07163	10062.2625
1271.61453	10284.8625
1275.15503	10396.1625
1278.69312	10412.8625
1282.22882	10540.8625
1285.76211	10901.6625
1289.29301	11401.3625
1292.82151	11839.4625
1296.34761	12391.4625
1299.87133	13361.5625
1303.39266	15161.7625
1306.9116	17885.9625
1310.42815	20446.7625
1313.94233	20856.0625
1317.45412	18849.8625
1320.96354	16228.0625
1324.47058	13925.4625
1327.97525	12253.1625
1331.47754	11421.8625
1334.97747	11207.1625
1338.47502	11525.8625
1341.97022	12362.9625
1345.46305	13745.3625
1348.95352	15493.7625
1352.44163	17634.3625
1355.92738	20748.8625
1359.41078	25260.6625
1362.89183	28289.8625
1366.37053	25656.7625
1369.84688	20049.4625
1373.32088	15717.4625
1376.79254	13240.4625
1380.26186	11824.1625
1383.72883	10943.7625
1387.19347	10216.4625
1390.65578	9565.3625
1394.11575	9115.0625
1397.57339	8831.2625
1401.0287	8693.4625
1404.48168	8709.7625
1407.93234	8793.6625
1411.38068	8955.2625
1414.82669	9136.0625
1418.27039	9236.6625
1421.71177	9146.7625
1425.15083	9071.6625
1428.58758	9101.3625
1432.02203	9271.4625
1435.45416	9347.7625
1438.88399	9260.8625
1442.31151	9166.7625
1445.73673	9177.7625
1449.15965	9232.2625
1452.58027	9130.7625
1455.9986	8987.5625
1459.41463	8952.4625
1462.82837	9039.7625
1466.23982	9290.8625
1469.64898	9579.8625
1473.05586	9704.7625
1476.46045	9787.3625
1479.86276	10002.8625
1483.26279	10332.2625
1486.66054	10856.3625
1490.05602	11609.4625
1493.44922	12712.5625
1496.84016	14436.3625
1500.22882	17138.2625
1503.61521	20872.4625
1506.99934	24857.2625
1510.38121	27489.5625
1513.76081	27019.6625
1517.13816	23542.0625
1520.51324	18923.4625
1523.88607	15270.0625
1527.25665	13094.4625
1530.62498	11906.0625
1533.99105	11238.4625
1537.35488	10862.4625
1540.71647	10698.4625
1544.07581	10730.3625
1547.4329	10902.7625
1550.78776	11023.8625
1554.14038	11164.6625
1557.49077	11290.8625
1560.83892	11525.3625
1564.18484	12052.4625
1567.52853	12711.4625
1570.86999	13225.4625
1574.20922	13448.5625
1577.54624	13152.2625
1580.88103	12054.0625
1584.2136	10789.2625
1587.54395	10040.2625
1590.87208	10043.3625
1594.19801	10604.6625
1597.52172	11444.4625
1600.84321	11760.7625
1604.16251	11405.9625
1607.47959	10761.0625
1610.79447	10013.4625
1614.10715	9277.2625
1617.41763	8704.1625
1620.7259	8433.7625
1624.03199	8286.4625
1627.33587	8335.5625
1630.63757	8603.2625
1633.93707	9085.5625
1637.23439	9910.5625
1640.52951	11226.1625
1643.82246	13222.1625
1647.11321	15628.0625
1650.40179	17056.1625
1653.68819	16113.8625
1656.97241	13447.9625
1660.25446	10860.6625
1663.53433	9186.6625
1666.81203	8252.6625
1670.08756	7712.3625
1673.36092	7390.4625
1676.63211	7200.5625
1679.90115	7043.8625
1683.16801	6914.5625
1686.43272	6833.0625
1689.69527	6767.1625
1692.95567	6722.8625
1696.2139	6708.4625
1699.46999	6684.7625
1702.72392	6657.1625
1705.97571	6640.0625
1709.22535	6655.8625
1712.47284	6650.9625
1715.71819	6638.1625
1718.96139	6616.0625
1722.20246	6597.8625
1725.44139	6559.6625
1728.67818	6488.6625
1731.91284	6437.0625
1735.14537	6393.7625
1738.37576	6359.9625
1741.60403	6334.2625
1744.83017	6318.2625
1748.05418	6304.9625
1751.27607	6265.8625
1754.49584	6256.0625
1757.71349	6248.6625
1760.92903	6229.1625
1764.14244	6227.2625
1767.35375	6205.4625
1770.56294	6182.5625
1773.77002	6168.9625
1776.97499	6128.6625
1780.17785	6112.3625
1783.37861	6104.7625
1786.57727	6097.1625
1789.77382	6094.4625
1792.96828	6087.7625
1796.16064	6088.2625
1799.3509	6064.5625
1802.53907	6054.0625
1805.72514	6032.1625
1808.90913	6029.3625
1812.09102	5992.5625
1815.27083	5976.3625
1818.44856	5955.6625
1821.6242	5941.3625
1824.79776	5928.8625
1827.96924	5928.4625
1831.13864	5928.4625
1834.30597	5886.6625
1837.47122	5882.8625
1840.6344	5891.2625
1843.7955	5883.5625
1846.95454	5869.3625
1850.11151	5873.8625
1853.26642	5866.4625
1856.41926	5885.3625
1859.57004	5869.7625
1862.71876	5857.2625
1865.86542	5860.6625
1869.01003	5877.9625
1872.15258	5880.6625
1875.29308	5875.0625
1878.43152	5866.0625
1881.56792	5884.1625
1884.70227	5861.2625
1887.83457	5849.7625
1890.96482	5852.1625
1894.09304	5823.5625
1897.21921	5827.0625
1900.34335	5828.1625
1903.46544	5824.6625
1906.58551	5831.5625
1909.70353	5820.0625
1912.81953	5806.7625
1915.93349	5795.2625
1919.04543	5803.2625
1922.15534	5795.4625
1925.26322	5791.3625
1928.36908	5783.4625
1931.47292	5749.3625
1934.57473	5732.5625
1937.67453	5709.4625
1940.77232	5700.6625
1943.86808	5678.9625
1946.96184	5674.4625
1950.05358	5653.0625
1953.14331	5654.9625
1956.23103	5637.1625
1959.31675	5612.9625
1962.40046	5593.5625
1965.48217	5600.7625
1968.56188	5597.2625
1971.63959	5589.0625
1974.7153	5559.0625
1977.78901	5556.7625
1980.86073	5521.2625
1983.93046	5519.6625
1986.99819	5478.0625
1990.06394	5470.8625
1993.1277	5434.1625
1996.18947	5410.7625
1999.24925	5416.7625
2002.30706	5386.6625
2005.36288	5374.8625
2008.41672	5347.2625
2011.46859	5345.8625
2014.51848	5331.2625
2017.56639	5299.8625
2020.61233	5295.2625
2023.6563	5286.7625
2026.6983	5283.2625
2029.73833	5264.9625
2032.7764	5249.5625
2035.8125	5243.3625
2038.84664	5228.8625
2041.87881	5231.0625
2044.90903	5217.4625
2047.93729	5215.1625
2050.96359	5205.4625
2053.98794	5197.8625
2057.01034	5203.4625
2060.03078	5196.8625
2063.04927	5172.3625
2066.06582	5159.8625
2069.08042	5168.4625
2072.09307	5164.0625
2075.10378	5154.8625
2078.11255	5157.3625
2081.11938	5169.8625
2084.12426	5147.3625
2087.12722	5161.7625
2090.12824	5141.4625
2093.12732	5137.3625
2096.12447	5146.7625
2099.11969	5139.9625
2102.11299	5165.3625
2105.10435	5160.4625
2108.09379	5155.1625
2111.08131	5158.3625
2114.0669	5156.0625
2117.05057	5169.0625
2120.03233	5181.9625
2123.01216	5178.5625
2125.99008	5190.3625
2128.96609	5193.4625
2131.94018	5219.9625
2134.91236	5199.5625
2137.88263	5211.1625
2140.851	5181.4625
2143.81746	5202.4625
2146.78201	5184.1625
2149.74466	5180.5625
2152.7054	5196.7625
2155.66425	5190.5625
2158.6212	5184.7625
2161.57625	5186.4625
2164.52941	5157.8625
2167.48067	5166.7625
2170.43004	5153.3625
2173.37752	5170.6625
2176.32311	5168.7625
2179.26681	5168.0625
2182.20863	5178.9625
2185.14856	5175.7625
2188.08661	5154.2625
2191.02278	5171.5625
2193.95707	5169.5625
2196.88948	5138.2625
2199.82001	5156.7625
2202.74867	5154.3625
2205.67545	5143.8625
2208.60037	5139.6625
2211.52341	5140.6625
2214.44458	5139.9625
2217.36388	5123.6625
2220.28132	5106.5625
2223.1969	5097.0625
2226.11061	5090.0625
2229.02246	5083.8625
2231.93245	5072.0625
2234.84058	5052.4625
2237.74686	5041.7625
2240.65128	5041.3625
2243.55385	5041.7625
2246.45456	5051.3625
2249.35343	5036.7625
2252.25044	5041.6625
2255.14561	5038.5625
2258.03893	5045.6625
2260.93041	5032.9625
2263.82004	5033.7625
2266.70783	5028.9625
2269.59378	5012.8625
2272.4779	4991.6625
2275.36017	5018.2625
2278.24061	4985.1625
2281.11922	4974.5625
2283.996	4956.5625
2286.87094	4944.9625
2289.74405	4915.6625
2292.61534	4915.9625
2295.4848	4908.5625
2298.35243	4911.1625
2301.21824	4914.0625
2304.08223	4906.2625
2306.94439	4912.2625
2309.80474	4894.0625
2312.66327	4919.3625
2315.51999	4895.6625
2318.37489	4893.8625
2321.22797	4890.9625
2324.07925	4892.9625
2326.92871	4893.6625
2329.77637	4889.2625
2332.62222	4867.9625
2335.46626	4867.4625
2338.3085	4859.6625
2341.14893	4843.3625
2343.98756	4851.1625
2346.8244	4860.0625
2349.65943	4861.6625
2352.49267	4854.0625
2355.32411	4868.4625
2358.15376	4874.0625
2360.98161	4883.5625
2363.80768	4894.9625
2366.63195	4894.4625
2369.45444	4908.1625
2372.27514	4897.5625
2375.09405	4885.5625
2377.91118	4885.5625
2380.72652	4860.5625
2383.54009	4824.8625
2386.35187	4829.2625
2389.16188	4791.6625
2391.97011	4774.5625
2394.77657	4763.7625
2397.58125	4763.0625
2400.38416	4746.3625
2403.18529	4719.7625
2405.98466	4715.1625
2408.78226	4712.4625
2411.57809	4693.3625
2414.37216	4688.2625
2417.16446	4699.2625
2419.955	4679.5625
2422.74378	4695.1625
2425.5308	4685.7625
2428.31606	4676.9625
2431.09956	4685.3625
2433.88131	4678.7625
2436.6613	4671.5625
2439.43954	4673.2625
2442.21603	4677.2625
2444.99077	4691.5625
2447.76377	4695.2625
2450.53501	4689.0625
2453.30451	4662.6625
2456.07226	4667.7625
2458.83827	4664.1625
2461.60254	4668.4625
2464.36507	4655.5625
2467.12586	4662.7625
2469.88492	4651.9625
2472.64224	4656.2625
2475.39782	4647.5625
2478.15167	4659.3625
2480.90379	4657.8625
2483.65417	4687.7625
2486.40283	4707.4625
2489.14976	4692.3625
2491.89497	4713.0625
2494.63845	4701.0625
2497.3802	4700.5625
2500.12024	4713.2625
2502.85855	4674.1625
2505.59514	4670.3625
2508.33002	4650.7625
2511.06318	4616.3625
2513.79462	4587.8625
2516.52435	4582.4625
2519.25237	4574.0625
2521.97867	4559.0625
2524.70327	4550.2625
2527.42616	4539.9625
2530.14734	4540.5625
2532.86681	4529.3625
2535.58458	4534.0625
2538.30065	4523.1625
2541.01501	4525.2625
2543.72768	4523.8625
2546.43864	4522.6625
2549.14791	4498.3625
2551.85548	4496.4625
2554.56136	4501.6625
2557.26554	4496.4625
2559.96803	4495.5625
2562.66883	4494.4625
2565.36794	4472.9625
2568.06536	4484.8625
2570.7611	4455.5625
2573.45514	4445.8625
2576.14751	4449.7625
2578.83819	4434.2625
2581.52719	4445.3625
2584.21451	4435.1625
2586.90015	4416.1625
2589.58411	4413.4625
2592.2664	4408.5625
2594.94701	4387.2625
2597.62594	4384.7625
2600.30321	4405.1625
2602.9788	4383.7625
2605.65273	4397.6625
2608.32498	4403.1625
2610.99557	4388.9625
2613.66449	4401.1625
2616.33175	4383.5625
2618.99734	4381.2625
2621.66128	4373.0625
2624.32355	4364.7625
2626.98416	4354.6625
2629.64311	4370.4625
2632.30041	4357.5625
2634.95605	4346.2625
2637.61004	4333.0625
2640.26238	4340.4625
2642.91306	4316.6625
2645.56209	4324.4625
2648.20948	4319.7625
2650.85521	4306.2625
2653.4993	4306.1625
2656.14175	4320.5625
2658.78255	4305.7625
2661.42171	4306.2625
2664.05923	4327.8625
2666.6951	4314.3625
2669.32934	4334.3625
2671.96194	4323.0625
2674.59291	4322.9625
2677.22224	4326.1625
2679.84993	4338.1625
2682.476	4330.0625
2685.10043	4332.1625
2687.72324	4324.8625
2690.34441	4319.9625
2692.96396	4327.4625
2695.58188	4327.0625
2698.19818	4334.4625
2700.81285	4302.5625
2703.4259	4298.2625
2706.03733	4316.9625
2708.64714	4311.8625
2711.25533	4334.7625
2713.86191	4328.9625
2716.46687	4338.3625
2719.07021	4317.2625
2721.67194	4331.6625
2724.27206	4329.6625
2726.87057	4319.3625
2729.46747	4300.2625
2732.06276	4329.0625
2734.65644	4321.5625
2737.24852	4311.4625
2739.83899	4310.9625
2742.42786	4308.2625
2745.01513	4281.3625
2747.60079	4278.0625
2750.18486	4278.3625
2752.76733	4274.3625
2755.3482	4274.8625
2757.92747	4251.3625
2760.50515	4254.5625
2763.08123	4254.6625
2765.65573	4250.2625
2768.22863	4228.7625
2770.79994	4244.3625
2773.36967	4229.2625
2775.9378	4221.8625
2778.50435	4246.0625
2781.06932	4223.2625
2783.6327	4223.6625
2786.1945	4225.8625
2788.75471	4225.7625
2791.31335	4200.2625
2793.87041	4205.9625
2796.42589	4209.5625
2798.97979	4215.1625
2801.53212	4193.8625
2804.08288	4207.9625
2806.63206	4194.4625
2809.17967	4207.3625
2811.72571	4183.1625
2814.27018	4173.7625
2816.81308	4183.2625
2819.35442	4189.7625
2821.89419	4183.2625
2824.43239	4197.1625
2826.96904	4191.0625
2829.50412	4196.6625
2832.03763	4174.7625
2834.56959	4187.0625
2837.1	4167.9625
2839.62884	4187.4625
2842.15613	4161.4625
2844.68186	4159.6625
2847.20604	4168.5625
2849.72867	4182.0625
2852.24974	4175.4625
2854.76927	4161.9625
2857.28724	4170.9625
2859.80367	4185.0625
2862.31855	4162.8625
2864.83189	4192.5625
2867.34368	4170.8625
2869.85393	4188.2625
2872.36264	4191.4625
2874.8698	4182.1625
2877.37543	4182.3625
2879.87952	4174.2625
2882.38207	4180.8625
2884.88308	4167.5625
2887.38256	4175.6625
2889.88051	4158.0625
2892.37692	4174.1625
2894.8718	4155.2625
2897.36515	4174.9625
2899.85698	4166.2625
2902.34727	4166.0625
2904.83604	4157.5625
2907.32328	4186.8625
2909.809	4193.2625
2912.29319	4173.1625
2914.77587	4151.2625
2917.25702	4152.1625
2919.73665	4141.3625
2922.21476	4148.7625
2924.69136	4140.9625
2927.16644	4140.1625
2929.64	4120.2625
2932.11205	4120.2625
2934.58258	4098.1625
2937.05161	4111.2625
2939.51912	4108.9625
2941.98513	4112.2625
2944.44962	4109.9625
2946.91261	4084.2625
2949.37409	4087.8625
2951.83407	4089.3625
2954.29254	4103.8625
2956.74951	4088.5625
2959.20498	4072.1625
2961.65895	4091.3625
2964.11142	4089.3625
2966.56239	4066.1625
2969.01186	4074.0625
2971.45984	4058.1625
2973.90632	4066.8625
2976.35131	4047.0625
2978.7948	4053.2625
2981.23681	4040.2625
2983.67732	4028.4625
2986.11635	4030.5625
2988.55388	4031.6625
2990.98993	4019.2625
2993.4245	3993.0625
2995.85758	4004.1625
2998.28917	4001.1625
3000.71928	3995.0625
3003.14791	3988.0625
3005.57506	3990.9625
3008.00073	3972.1625
3010.42493	3979.6625
3012.84764	3966.3625
3015.26888	3954.1625
3017.68865	3958.5625
3020.10694	3959.1625
3022.52376	3949.7625
3024.9391	3942.4625
3027.35298	3930.8625
3029.76539	3926.7625
3032.17632	3935.0625
3034.5858	3910.6625
3036.9938	3929.7625
3039.40034	3925.7625
3041.80542	3919.6625
3044.20903	3906.3625
3046.61118	3914.8625
3049.01187	3883.4625
3051.4111	3899.5625
3053.80888	3882.6625
3056.20519	3873.1625
3058.60005	3859.6625
3060.99345	3870.9625
3063.3854	3869.5625
3065.7759	3841.6625
3068.16494	3845.6625
3070.55254	3842.5625
3072.93868	3819.3625
3075.32338	3814.7625
3077.70662	3826.2625
3080.08842	3802.4625
3082.46878	3810.6625
3084.84769	3788.9625
3087.22515	3814.1625
3089.60118	3796.1625
3091.97576	3818.8625
3094.3489	3813.7625
3096.72061	3802.0625
3099.09087	3813.5625
3101.4597	3817.0625
3103.82709	3829.2625
3106.19305	3834.1625
3108.55757	3830.3625
3110.92066	3822.6625
3113.28232	3826.3625
3115.64255	3815.9625
