Data from AgNPs_UA_50uM_CRN_0uM_R6G_10uM_Q_RamanShift__23__12-38-01-782.txt Node

Date: Tue Jul 26 12:38:01 BST 2022
User: TCL
Spectrometer: QEP01345
Trigger mode: 4
Integration Time (sec): 7.000000E0
Scans to average: 10
Electric dark correction enabled: true
Nonlinearity correction enabled: false
Boxcar width: 0
XAxis mode: Raman Shifts
Number of Pixels in Spectrum: 1044
>>>>>Begin Spectral Data<<<<<
46.04893	-0.8875
50.45542	0.2125
54.85868	-0.0875
59.25871	-0.9875
63.6555	84.4125
68.04907	86.1125
72.43941	93.5125
76.82654	99.1125
81.21044	101.4125
85.59113	104.0125
89.96862	110.8125
94.34289	112.1125
98.71396	120.9125
103.08183	122.4125
107.4465	122.4125
111.80798	126.6125
116.16626	129.2125
120.52136	133.8125
124.87327	134.6125
129.222	143.1125
133.56755	150.5125
137.90993	155.8125
142.24913	168.7125
146.58517	185.8125
150.91804	206.5125
155.24774	233.1125
159.57429	289.3125
163.89768	364.5125
168.21792	470.4125
172.53501	632.1125
176.84895	867.5125
181.15975	1206.3125
185.46741	1690.2125
189.77193	2317.1125
194.07331	3086.0125
198.37157	3950.3125
202.6667	4876.4125
206.9587	5800.3125
211.24758	6714.8125
215.53334	7670.8125
219.81599	8706.8125
224.09553	9875.0125
228.37195	11175.2125
232.64527	12627.7125
236.91549	14051.1125
241.18261	15382.5125
245.44663	16558.6125
249.70755	17523.0125
253.96539	18313.1125
258.22014	19016.0125
262.4718	19563.5125
266.72039	19913.8125
270.96589	20111.5125
275.20832	19982.6125
279.44768	19700.1125
283.68397	19372.6125
287.91719	19119.9125
292.14735	19028.8125
296.37445	19290.8125
300.59849	19765.8125
304.81948	20311.9125
309.03742	20719.0125
313.25231	20672.9125
317.46415	20090.2125
321.67296	19200.6125
325.87872	18412.4125
330.08145	18082.0125
334.28114	18134.7125
338.47781	18448.8125
342.67145	18840.8125
346.86207	19413.0125
351.04966	20227.5125
355.23424	21146.6125
359.4158	21879.5125
363.59435	22331.4125
367.76989	22564.0125
371.94243	22672.7125
376.11196	22675.5125
380.27849	22712.1125
384.44203	22727.2125
388.60257	22691.7125
392.76012	22737.6125
396.91468	22914.4125
401.06626	23384.9125
405.21485	23722.4125
409.36047	23491.4125
413.50311	22770.8125
417.64277	22088.1125
421.77947	21657.0125
425.9132	21450.2125
430.04396	21446.5125
434.17176	21647.9125
438.2966	21943.4125
442.41849	22467.5125
446.53742	23101.3125
450.6534	23785.1125
454.76644	24249.0125
458.87653	24431.9125
462.98368	24286.5125
467.08789	23920.1125
471.18916	23434.0125
475.2875	22861.3125
479.38291	22364.8125
483.4754	22046.8125
487.56496	21789.1125
491.6516	21622.3125
495.73531	21505.9125
499.81612	21565.8125
503.89401	21738.7125
507.96899	21920.3125
512.04106	22054.6125
516.11023	22269.9125
520.1765	22467.0125
524.23987	22459.1125
528.30034	22380.4125
532.35792	22250.9125
536.41261	22030.1125
540.46441	21707.9125
544.51333	21575.2125
548.55936	21701.6125
552.60252	22012.8125
556.64279	22364.8125
560.6802	22528.4125
564.71473	22791.6125
568.7464	23246.1125
572.7752	23491.9125
576.80114	23141.0125
580.82422	22881.6125
584.84444	23001.7125
588.86181	23344.9125
592.87633	23692.7125
596.888	24188.2125
600.89682	24924.8125
604.9028	27358.5125
608.90594	32938.4125
612.90624	38629.0125
616.90371	36020.6125
620.89834	27863.2125
624.89015	24517.4125
628.87913	24035.0125
632.86528	24024.5125
636.84862	23920.9125
640.82913	23367.9125
644.80683	22422.6125
648.78172	21760.2125
652.75379	21788.2125
656.72306	22418.0125
660.68952	23183.6125
664.65319	23091.4125
668.61405	22501.0125
672.57211	22342.3125
676.52738	22339.8125
680.47986	22236.1125
684.42955	22037.0125
688.37646	22014.9125
692.32058	22116.2125
696.26192	22286.8125
700.20048	22553.8125
704.13626	22637.5125
708.06928	22428.4125
711.99952	22214.5125
715.927	22185.3125
719.85171	22244.9125
723.77365	22187.0125
727.69284	22092.2125
731.60928	21969.9125
735.52295	21986.1125
739.43388	22080.7125
743.34206	22259.8125
747.24749	22310.4125
751.15017	22418.7125
755.05012	22685.9125
758.94733	23542.7125
762.8418	25415.0125
766.73354	28434.4125
770.62254	31375.1125
774.50882	32689.4125
778.39237	31485.7125
782.27321	28360.8125
786.15132	25422.0125
790.02671	23640.8125
793.89938	22799.2125
797.76935	22482.2125
801.6366	22316.0125
805.50115	22209.9125
809.36299	22110.3125
813.22213	21922.0125
817.07857	21859.4125
820.93231	21861.9125
824.78336	21928.2125
828.63172	21976.0125
832.47738	22041.8125
836.32036	22107.5125
840.16066	22203.9125
843.99827	22249.1125
847.8332	22215.0125
851.66546	22106.7125
855.49504	22092.8125
859.32195	22058.5125
863.1462	22003.4125
866.96777	21875.2125
870.78668	21872.6125
874.60293	21937.7125
878.41652	21995.9125
882.22745	22080.9125
886.03573	22201.0125
889.84136	22180.6125
893.64433	22033.8125
897.44466	21954.6125
901.24235	21900.3125
905.0374	21836.1125
908.8298	21720.5125
912.61957	21743.3125
916.40671	21846.8125
920.19121	22100.6125
923.97308	22469.7125
927.75233	22806.9125
931.52895	23012.0125
935.30295	22812.7125
939.07433	22325.4125
942.84309	21925.6125
946.60924	21754.1125
950.37278	21700.0125
954.13371	21543.0125
957.89203	21391.3125
961.64774	21256.7125
965.40086	21190.2125
969.15137	21120.8125
972.89929	21055.5125
976.64461	21064.0125
980.38733	21103.5125
984.12747	21256.6125
987.86502	21519.0125
991.59999	21883.8125
995.33237	22496.5125
999.06217	23437.7125
1002.78939	24450.2125
1006.51404	24917.9125
1010.23611	25155.4125
1013.95561	25393.0125
1017.67255	25542.2125
1021.38692	25481.2125
1025.09872	25541.3125
1028.80796	26175.9125
1032.51465	27287.9125
1036.21877	28132.9125
1039.92035	28117.1125
1043.61937	27438.4125
1047.31584	26290.5125
1051.00976	25180.7125
1054.70114	24577.1125
1058.38998	24348.7125
1062.07627	24339.0125
1065.76003	24278.9125
1069.44126	24262.5125
1073.11995	24484.8125
1076.79611	24840.5125
1080.46974	25241.4125
1084.14085	25664.4125
1087.80943	26009.9125
1091.47549	25992.4125
1095.13903	25645.7125
1098.80005	25096.3125
1102.45857	24729.3125
1106.11456	24682.6125
1109.76805	24843.7125
1113.41903	25258.1125
1117.06751	25753.9125
1120.71348	26428.8125
1124.35696	27115.9125
1127.99793	27584.5125
1131.63641	27426.0125
1135.2724	26660.9125
1138.90589	26021.6125
1142.5369	25494.8125
1146.16542	25075.5125
1149.79145	24812.6125
1153.415	24754.7125
1157.03607	24911.1125
1160.65467	25331.1125
1164.27079	26075.8125
1167.88443	27293.3125
1171.49561	29097.7125
1175.10432	31800.6125
1178.71056	35381.7125
1182.31434	38565.1125
1185.91565	40049.7125
1189.51451	39641.9125
1193.11091	37655.6125
1196.70485	35250.6125
1200.29634	33342.9125
1203.88538	31826.8125
1207.47197	30344.3125
1211.05612	29096.5125
1214.63782	28522.6125
1218.21708	28417.0125
1221.79391	28749.5125
1225.36829	29033.9125
1228.94024	28878.6125
1232.50976	28395.9125
1236.07685	28016.8125
1239.6415	27930.2125
1243.20374	28061.4125
1246.76355	28398.5125
1250.32093	28822.6125
1253.8759	29522.2125
1257.42845	30402.4125
1260.97859	31311.0125
1264.52631	32160.1125
1268.07163	33046.3125
1271.61453	34009.3125
1275.15503	35015.2125
1278.69312	35945.6125
1282.22882	36752.4125
1285.76211	37446.9125
1289.29301	38046.0125
1292.82151	38765.6125
1296.34761	39926.9125
1299.87133	41952.7125
1303.39266	45083.9125
1306.9116	49551.5125
1310.42815	54109.6125
1313.94233	56310.9125
1317.45412	54906.1125
1320.96354	51568.3125
1324.47058	48130.3125
1327.97525	45209.6125
1331.47754	43479.0125
1334.97747	42764.6125
1338.47502	43089.2125
1341.97022	43956.0125
1345.46305	45158.4125
1348.95352	46663.1125
1352.44163	48679.7125
1355.92738	51858.8125
1359.41078	56986.4125
1362.89183	61202.2125
1366.37053	58910.3125
1369.84688	51107.3125
1373.32088	43822.9125
1376.79254	39359.0125
1380.26186	36963.6125
1383.72883	35708.6125
1387.19347	34753.6125
1390.65578	33768.8125
1394.11575	33070.2125
1397.57339	32849.1125
1401.0287	33098.3125
1404.48168	33479.0125
1407.93234	33935.9125
1411.38068	34338.7125
1414.82669	34515.4125
1418.27039	34234.0125
1421.71177	33591.4125
1425.15083	32981.2125
1428.58758	32723.6125
1432.02203	33020.5125
1435.45416	33511.0125
1438.88399	33709.9125
1442.31151	33717.8125
1445.73673	33793.0125
1449.15965	33902.1125
1452.58027	33769.0125
1455.9986	33552.6125
1459.41463	33503.6125
1462.82837	33857.1125
1466.23982	34515.9125
1469.64898	35230.0125
1473.05586	35824.4125
1476.46045	36210.8125
1479.86276	36601.8125
1483.26279	37012.1125
1486.66054	37534.2125
1490.05602	38272.0125
1493.44922	39363.3125
1496.84016	40933.2125
1500.22882	43339.1125
1503.61521	46729.2125
1506.99934	50576.5125
1510.38121	53444.6125
1513.76081	53640.1125
1517.13816	50668.5125
1520.51324	46055.6125
1523.88607	41942.8125
1527.25665	39215.7125
1530.62498	37707.2125
1533.99105	36670.9125
1537.35488	36074.9125
1540.71647	35743.7125
1544.07581	35493.6125
1547.4329	35241.5125
1550.78776	35017.8125
1554.14038	34790.0125
1557.49077	34803.9125
1560.83892	35015.7125
1564.18484	35482.1125
1567.52853	35950.3125
1570.86999	36253.2125
1574.20922	36462.9125
1577.54624	36211.5125
1580.88103	35222.0125
1584.2136	34271.5125
1587.54395	34179.6125
1590.87208	35519.8125
1594.19801	38096.2125
1597.52172	41171.6125
1600.84321	42666.0125
1604.16251	41492.4125
1607.47959	38696.2125
1610.79447	35511.3125
1614.10715	32642.6125
1617.41763	30396.0125
1620.7259	28969.5125
1624.03199	28328.9125
1627.33587	28498.2125
1630.63757	29325.4125
1633.93707	30929.0125
1637.23439	33246.6125
1640.52951	36181.7125
1643.82246	39633.7125
1647.11321	42746.0125
1650.40179	43759.4125
1653.68819	41349.0125
1656.97241	36412.4125
1660.25446	31533.6125
1663.53433	28065.9125
1666.81203	25962.0125
1670.08756	24663.4125
1673.36092	23839.7125
1676.63211	23298.0125
1679.90115	22862.6125
1683.16801	22546.0125
1686.43272	22319.2125
1689.69527	22159.4125
1692.95567	22042.6125
1696.2139	21949.3125
1699.46999	21886.0125
1702.72392	21862.7125
1705.97571	21834.6125
1709.22535	21818.0125
1712.47284	21807.4125
1715.71819	21809.5125
1718.96139	21707.5125
1722.20246	21633.6125
1725.44139	21556.9125
1728.67818	21469.4125
1731.91284	21368.4125
1735.14537	21271.1125
1738.37576	21221.5125
1741.60403	21122.3125
1744.83017	21057.3125
1748.05418	20981.6125
1751.27607	20936.8125
1754.49584	20928.5125
1757.71349	20869.5125
1760.92903	20861.9125
1764.14244	20821.1125
1767.35375	20833.9125
1770.56294	20812.8125
1773.77002	20774.6125
1776.97499	20765.1125
1780.17785	20747.5125
1783.37861	20700.2125
1786.57727	20704.7125
1789.77382	20694.0125
1792.96828	20697.0125
1796.16064	20680.6125
1799.3509	20675.6125
1802.53907	20656.0125
1805.72514	20618.0125
1808.90913	20539.2125
1812.09102	20484.9125
1815.27083	20444.0125
1818.44856	20383.9125
1821.6242	20344.0125
1824.79776	20331.6125
1827.96924	20319.2125
1831.13864	20312.3125
1834.30597	20346.9125
1837.47122	20296.6125
1840.6344	20311.6125
1843.7955	20306.7125
1846.95454	20310.6125
1850.11151	20286.8125
1853.26642	20271.5125
1856.41926	20282.2125
1859.57004	20280.6125
1862.71876	20211.0125
1865.86542	20237.8125
1869.01003	20239.9125
1872.15258	20239.7125
1875.29308	20263.4125
1878.43152	20198.6125
1881.56792	20231.6125
1884.70227	20264.2125
1887.83457	20231.3125
1890.96482	20203.4125
1894.09304	20205.6125
1897.21921	20168.7125
1900.34335	20160.1125
1903.46544	20137.6125
1906.58551	20157.6125
1909.70353	20164.0125
1912.81953	20192.7125
1915.93349	20172.1125
1919.04543	20123.1125
1922.15534	20085.0125
1925.26322	20076.2125
1928.36908	20044.0125
1931.47292	20010.0125
1934.57473	19974.7125
1937.67453	19939.5125
1940.77232	19883.8125
1943.86808	19857.2125
1946.96184	19830.6125
1950.05358	19780.4125
1953.14331	19712.1125
1956.23103	19691.1125
1959.31675	19645.9125
1962.40046	19574.6125
1965.48217	19523.0125
1968.56188	19490.2125
1971.63959	19466.7125
1974.7153	19400.6125
1977.78901	19383.0125
1980.86073	19320.1125
1983.93046	19301.5125
1986.99819	19191.6125
1990.06394	19173.2125
1993.1277	19118.2125
1996.18947	19067.8125
1999.24925	18994.6125
2002.30706	18955.4125
2005.36288	18932.2125
2008.41672	18875.0125
2011.46859	18848.1125
2014.51848	18816.6125
2017.56639	18729.7125
2020.61233	18706.5125
2023.6563	18657.2125
2026.6983	18653.6125
2029.73833	18612.9125
2032.7764	18597.9125
2035.8125	18578.5125
2038.84664	18592.1125
2041.87881	18590.3125
2044.90903	18549.0125
2047.93729	18485.8125
2050.96359	18486.5125
2053.98794	18482.6125
2057.01034	18479.4125
2060.03078	18503.9125
2063.04927	18487.4125
2066.06582	18479.2125
2069.08042	18486.5125
2072.09307	18429.6125
2075.10378	18386.7125
2078.11255	18327.6125
2081.11938	18332.3125
2084.12426	18319.4125
2087.12722	18331.0125
2090.12824	18347.7125
2093.12732	18367.9125
2096.12447	18310.4125
2099.11969	18325.3125
2102.11299	18313.0125
2105.10435	18396.4125
2108.09379	18371.6125
2111.08131	18424.6125
2114.0669	18377.5125
2117.05057	18417.3125
2120.03233	18467.6125
2123.01216	18506.2125
2125.99008	18503.4125
2128.96609	18498.5125
2131.94018	18511.5125
2134.91236	18528.7125
2137.88263	18554.9125
2140.851	18549.4125
2143.81746	18573.8125
2146.78201	18563.1125
2149.74466	18605.1125
2152.7054	18599.4125
2155.66425	18622.2125
2158.6212	18590.6125
2161.57625	18625.1125
2164.52941	18592.2125
2167.48067	18623.6125
2170.43004	18579.3125
2173.37752	18613.0125
2176.32311	18625.5125
2179.26681	18625.2125
2182.20863	18623.6125
2185.14856	18613.7125
2188.08661	18663.3125
2191.02278	18658.3125
2193.95707	18694.5125
2196.88948	18716.5125
2199.82001	18748.8125
2202.74867	18732.4125
2205.67545	18731.1125
2208.60037	18742.1125
2211.52341	18746.4125
2214.44458	18735.2125
2217.36388	18731.8125
2220.28132	18702.4125
2223.1969	18659.8125
2226.11061	18663.8125
2229.02246	18656.2125
2231.93245	18606.9125
2234.84058	18574.9125
2237.74686	18493.9125
2240.65128	18531.1125
2243.55385	18448.0125
2246.45456	18469.0125
2249.35343	18480.3125
2252.25044	18473.3125
2255.14561	18486.8125
2258.03893	18467.3125
2260.93041	18403.6125
2263.82004	18363.9125
2266.70783	18358.0125
2269.59378	18300.1125
2272.4779	18296.8125
2275.36017	18252.5125
2278.24061	18206.1125
2281.11922	18197.5125
2283.996	18187.5125
2286.87094	18138.3125
2289.74405	18155.7125
2292.61534	18121.5125
2295.4848	18107.9125
2298.35243	18114.8125
2301.21824	18154.9125
2304.08223	18171.9125
2306.94439	18189.3125
2309.80474	18224.1125
2312.66327	18261.7125
2315.51999	18277.3125
2318.37489	18295.4125
2321.22797	18284.3125
2324.07925	18271.5125
2326.92871	18221.9125
2329.77637	18214.7125
2332.62222	18225.9125
2335.46626	18233.1125
2338.3085	18261.1125
2341.14893	18312.3125
2343.98756	18324.4125
2346.8244	18374.5125
2349.65943	18430.5125
2352.49267	18417.7125
2355.32411	18408.3125
2358.15376	18384.5125
2360.98161	18367.5125
2363.80768	18362.9125
2366.63195	18311.7125
2369.45444	18260.3125
2372.27514	18237.7125
2375.09405	18221.3125
2377.91118	18214.7125
2380.72652	18152.9125
2383.54009	18081.1125
2386.35187	18045.2125
2389.16188	18050.0125
2391.97011	17984.8125
2394.77657	18004.2125
2397.58125	17954.5125
2400.38416	17941.5125
2403.18529	17918.7125
2405.98466	17846.1125
2408.78226	17781.6125
2411.57809	17751.8125
2414.37216	17746.0125
2417.16446	17741.3125
2419.955	17726.9125
2422.74378	17754.0125
2425.5308	17717.9125
2428.31606	17688.4125
2431.09956	17696.6125
2433.88131	17699.5125
2436.6613	17728.6125
2439.43954	17716.7125
2442.21603	17716.1125
2444.99077	17692.4125
2447.76377	17726.5125
2450.53501	17663.5125
2453.30451	17654.1125
2456.07226	17658.0125
2458.83827	17664.8125
2461.60254	17631.0125
2464.36507	17631.3125
2467.12586	17605.9125
2469.88492	17670.8125
2472.64224	17687.4125
2475.39782	17675.9125
2478.15167	17723.1125
2480.90379	17714.8125
2483.65417	17731.0125
2486.40283	17780.2125
2489.14976	17818.1125
2491.89497	17843.2125
2494.63845	17889.7125
2497.3802	17840.9125
2500.12024	17813.6125
2502.85855	17818.6125
2505.59514	17786.0125
2508.33002	17774.0125
2511.06318	17746.5125
2513.79462	17717.7125
2516.52435	17735.9125
2519.25237	17677.6125
2521.97867	17658.9125
2524.70327	17651.6125
2527.42616	17617.8125
2530.14734	17671.5125
2532.86681	17649.6125
2535.58458	17642.6125
2538.30065	17645.7125
2541.01501	17652.4125
2543.72768	17653.3125
2546.43864	17628.2125
2549.14791	17636.1125
2551.85548	17631.8125
2554.56136	17634.3125
2557.26554	17607.6125
2559.96803	17592.5125
2562.66883	17603.3125
2565.36794	17561.6125
2568.06536	17535.3125
2570.7611	17563.3125
2573.45514	17574.5125
2576.14751	17572.8125
2578.83819	17541.7125
2581.52719	17539.3125
2584.21451	17536.9125
2586.90015	17534.4125
2589.58411	17565.6125
2592.2664	17565.4125
2594.94701	17528.9125
2597.62594	17546.5125
2600.30321	17494.1125
2602.9788	17525.7125
2605.65273	17513.4125
2608.32498	17555.4125
2610.99557	17559.5125
2613.66449	17557.8125
2616.33175	17556.6125
2618.99734	17600.0125
2621.66128	17627.9125
2624.32355	17604.0125
2626.98416	17631.9125
2629.64311	17637.0125
2632.30041	17658.2125
2634.95605	17661.8125
2637.61004	17647.4125
2640.26238	17617.2125
2642.91306	17637.7125
2645.56209	17569.0125
2648.20948	17562.3125
2650.85521	17476.1125
2653.4993	17495.1125
2656.14175	17494.6125
2658.78255	17475.5125
2661.42171	17479.2125
2664.05923	17510.7125
2666.6951	17543.2125
2669.32934	17588.4125
2671.96194	17606.3125
2674.59291	17610.4125
2677.22224	17583.4125
2679.84993	17591.7125
2682.476	17588.7125
2685.10043	17586.5125
2687.72324	17559.4125
2690.34441	17496.7125
2692.96396	17520.9125
2695.58188	17498.4125
2698.19818	17468.1125
2700.81285	17464.2125
2703.4259	17476.8125
2706.03733	17495.4125
2708.64714	17478.2125
2711.25533	17486.8125
2713.86191	17474.0125
2716.46687	17516.1125
2719.07021	17518.7125
2721.67194	17546.9125
2724.27206	17558.0125
2726.87057	17549.9125
2729.46747	17516.7125
2732.06276	17572.7125
2734.65644	17515.2125
2737.24852	17577.8125
2739.83899	17547.8125
2742.42786	17572.9125
2745.01513	17547.7125
2747.60079	17526.9125
2750.18486	17480.3125
2752.76733	17473.8125
2755.3482	17461.2125
2757.92747	17468.1125
2760.50515	17454.9125
2763.08123	17472.1125
2765.65573	17489.7125
2768.22863	17486.1125
2770.79994	17505.6125
2773.36967	17485.3125
2775.9378	17494.0125
2778.50435	17507.3125
2781.06932	17475.7125
2783.6327	17513.1125
2786.1945	17486.0125
2788.75471	17495.0125
2791.31335	17445.2125
2793.87041	17410.3125
2796.42589	17362.8125
2798.97979	17346.6125
2801.53212	17328.2125
2804.08288	17319.9125
2806.63206	17258.2125
2809.17967	17260.0125
2811.72571	17195.6125
2814.27018	17238.2125
2816.81308	17235.3125
2819.35442	17273.9125
2821.89419	17228.3125
2824.43239	17255.7125
2826.96904	17248.9125
2829.50412	17220.1125
2832.03763	17147.4125
2834.56959	17134.6125
2837.1	17117.5125
2839.62884	17161.2125
2842.15613	17133.4125
2844.68186	17140.4125
2847.20604	17109.3125
2849.72867	17117.2125
2852.24974	17077.6125
2854.76927	17082.1125
2857.28724	17061.8125
2859.80367	17074.7125
2862.31855	17089.7125
2864.83189	17072.4125
2867.34368	17028.3125
2869.85393	17034.6125
2872.36264	17047.0125
2874.8698	17074.7125
2877.37543	17041.4125
2879.87952	17039.5125
2882.38207	17043.9125
2884.88308	17018.6125
2887.38256	17056.8125
2889.88051	17035.5125
2892.37692	17045.8125
2894.8718	17001.4125
2897.36515	17056.4125
2899.85698	17035.6125
2902.34727	17113.1125
2904.83604	17174.7125
2907.32328	17232.8125
2909.809	17178.3125
2912.29319	17206.1125
2914.77587	17170.4125
2917.25702	17202.4125
2919.73665	17207.2125
2922.21476	17160.9125
2924.69136	17133.9125
2927.16644	17121.8125
2929.64	17102.5125
2932.11205	17065.8125
2934.58258	17020.3125
2937.05161	17034.4125
2939.51912	17050.8125
2941.98513	17047.7125
2944.44962	17018.4125
2946.91261	16978.4125
2949.37409	17004.5125
2951.83407	17013.8125
2954.29254	17020.8125
2956.74951	17036.8125
2959.20498	16996.0125
2961.65895	16958.3125
2964.11142	16960.9125
2966.56239	16944.5125
2969.01186	16955.2125
2971.45984	16937.9125
2973.90632	16893.5125
2976.35131	16864.9125
2978.7948	16890.9125
2981.23681	16838.4125
2983.67732	16788.3125
2986.11635	16777.6125
2988.55388	16711.9125
2990.98993	16692.6125
2993.4245	16671.6125
2995.85758	16670.5125
2998.28917	16625.9125
3000.71928	16647.8125
3003.14791	16593.1125
3005.57506	16558.5125
3008.00073	16520.1125
3010.42493	16543.5125
3012.84764	16482.4125
3015.26888	16477.0125
3017.68865	16432.6125
3020.10694	16419.9125
3022.52376	16359.7125
3024.9391	16357.5125
3027.35298	16356.3125
