Data from AgNPs_UA_5uM_CRN_0uM_R6G_10uM_Q_RamanShift__18__11-10-15-311.txt Node

Date: Mon Jul 18 11:10:15 BST 2022
User: TCL
Spectrometer: QEP01345
Trigger mode: 4
Integration Time (sec): 7.000000E0
Scans to average: 10
Electric dark correction enabled: true
Nonlinearity correction enabled: false
Boxcar width: 0
XAxis mode: Raman Shifts
Number of Pixels in Spectrum: 1044
>>>>>Begin Spectral Data<<<<<
46.04893	-1.6625
50.45542	-1.5625
54.85868	-2.4625
59.25871	-2.0625
63.6555	159.7375
68.04907	167.8375
72.43941	171.5375
76.82654	175.5375
81.21044	184.7375
85.59113	187.5375
89.96862	191.5375
94.34289	194.3375
98.71396	208.1375
103.08183	213.2375
107.4465	218.4375
111.80798	225.4375
116.16626	234.7375
120.52136	247.8375
124.87327	257.0375
129.222	270.9375
133.56755	293.8375
137.90993	321.0375
142.24913	358.7375
146.58517	396.6375
150.91804	475.0375
155.24774	569.1375
159.57429	719.3375
163.89768	925.6375
168.21792	1240.4375
172.53501	1706.2375
176.84895	2392.7375
181.15975	3373.4375
185.46741	4732.4375
189.77193	6548.6375
194.07331	8726.5375
198.37157	11208.2375
202.6667	13826.8375
206.9587	16362.3375
211.24758	18890.5375
215.53334	21400.2375
219.81599	24135.3375
224.09553	27162.7375
228.37195	30608.0375
232.64527	34352.3375
236.91549	38162.1375
241.18261	41893.8375
245.44663	45240.0375
249.70755	48143.5375
253.96539	50661.1375
258.22014	52916.3375
262.4718	54636.5375
266.72039	55904.8375
270.96589	56429.3375
275.20832	56391.2375
279.44768	55895.2375
283.68397	55157.9375
287.91719	54650.6375
292.14735	54323.8375
296.37445	54434.4375
300.59849	54995.8375
304.81948	55712.6375
309.03742	56173.1375
313.25231	56060.6375
317.46415	55215.3375
321.67296	53842.4375
325.87872	52709.8375
330.08145	52267.9375
334.28114	52375.4375
338.47781	52966.4375
342.67145	53874.1375
346.86207	54972.4375
351.04966	56346.1375
355.23424	57861.1375
359.4158	59275.1375
363.59435	60275.4375
367.76989	60920.2375
371.94243	61361.8375
376.11196	61664.8375
380.27849	62061.1375
384.44203	62394.8375
388.60257	62732.0375
392.76012	63159.6375
396.91468	63976.7375
401.06626	64882.6375
405.21485	65485.5375
409.36047	65098.0375
413.50311	63927.4375
417.64277	63007.7375
421.77947	62551.3375
425.9132	62660.5375
430.04396	62882.8375
434.17176	63382.9375
438.2966	64263.9375
442.41849	65748.0375
446.53742	67777.0375
450.6534	70003.7375
454.76644	71611.9375
458.87653	71910.4375
462.98368	71287.3375
467.08789	70324.9375
471.18916	68933.9375
475.2875	67366.6375
479.38291	65957.4375
483.4754	64871.9375
487.56496	64097.6375
491.6516	63348.4375
495.73531	62978.4375
499.81612	63020.3375
503.89401	63450.0375
507.96899	63664.6375
512.04106	63704.1375
516.11023	63837.1375
520.1765	63989.8375
524.23987	64063.8375
528.30034	63923.0375
532.35792	63757.3375
536.41261	63081.7375
540.46441	62246.4375
544.51333	61992.1375
548.55936	62533.1375
552.60252	63630.9375
556.64279	64840.2375
560.6802	65727.7375
564.71473	66305.5375
568.7464	67158.4375
572.7752	68044.0375
576.80114	68421.6375
580.82422	69136.9375
584.84444	70406.9375
588.86181	72213.9375
592.87633	74154.0375
596.888	75059.6375
600.89682	75362.5375
604.9028	79157.1375
608.90594	89096.1375
612.90624	97676.5375
616.90371	89883.1375
620.89834	74571.3375
624.89015	68791.8375
628.87913	68434.6375
632.86528	68122.3375
636.84862	67304.4375
640.82913	65788.4375
644.80683	63789.6375
648.78172	62414.3375
652.75379	62471.5375
656.72306	63764.0375
660.68952	65316.9375
664.65319	65003.0375
668.61405	64011.3375
672.57211	63936.7375
676.52738	63965.7375
680.47986	63444.6375
684.42955	62830.8375
688.37646	62836.9375
692.32058	63323.7375
696.26192	64228.4375
700.20048	65076.1375
704.13626	65312.4375
708.06928	64687.5375
711.99952	64082.9375
715.927	63949.2375
719.85171	64283.8375
723.77365	64053.8375
727.69284	63411.9375
731.60928	62961.3375
735.52295	62997.6375
739.43388	63275.6375
743.34206	63652.7375
747.24749	63891.6375
751.15017	64221.3375
755.05012	65161.6375
758.94733	66994.4375
762.8418	70836.6375
766.73354	76675.3375
770.62254	82257.0375
774.50882	83745.9375
778.39237	80486.1375
782.27321	74967.8375
786.15132	69815.8375
790.02671	66444.6375
793.89938	64827.4375
797.76935	64208.5375
801.6366	64019.1375
805.50115	63700.6375
809.36299	63384.1375
813.22213	62904.3375
817.07857	62669.5375
820.93231	62404.2375
824.78336	62429.6375
828.63172	62488.0375
832.47738	62515.1375
836.32036	62543.2375
840.16066	62948.4375
843.99827	63217.3375
847.8332	62940.7375
851.66546	62757.8375
855.49504	62716.3375
859.32195	62758.4375
863.1462	62711.3375
866.96777	62458.0375
870.78668	62283.5375
874.60293	62407.9375
878.41652	62497.1375
882.22745	62916.8375
886.03573	63170.5375
889.84136	63077.2375
893.64433	62855.4375
897.44466	62527.7375
901.24235	62242.3375
905.0374	61997.4375
908.8298	61898.9375
912.61957	61874.4375
916.40671	62299.2375
920.19121	63058.8375
923.97308	64012.1375
927.75233	64799.1375
931.52895	65082.2375
935.30295	64420.7375
939.07433	63153.6375
942.84309	62303.6375
946.60924	61975.4375
950.37278	61847.5375
954.13371	61653.8375
957.89203	61414.8375
961.64774	61152.2375
965.40086	61007.5375
969.15137	60937.5375
972.89929	60849.8375
976.64461	60962.1375
980.38733	61238.2375
984.12747	61723.2375
987.86502	62450.4375
991.59999	63498.3375
995.33237	65142.0375
999.06217	67692.6375
1002.78939	70235.8375
1006.51404	71427.2375
1010.23611	71984.6375
1013.95561	72727.4375
1017.67255	73064.8375
1021.38692	72540.8375
1025.09872	72039.1375
1028.80796	72863.2375
1032.51465	75062.3375
1036.21877	77005.2375
1039.92035	76801.1375
1043.61937	75226.1375
1047.31584	72609.7375
1051.00976	70240.6375
1054.70114	69130.9375
1058.38998	69170.0375
1062.07627	69549.1375
1065.76003	69844.1375
1069.44126	70391.2375
1073.11995	71344.6375
1076.79611	72473.7375
1080.46974	73280.3375
1084.14085	74156.9375
1087.80943	75098.4375
1091.47549	75480.7375
1095.13903	74912.4375
1098.80005	73716.8375
1102.45857	72770.1375
1106.11456	72222.7375
1109.76805	72129.5375
1113.41903	72447.6375
1117.06751	73189.0375
1120.71348	74084.5375
1124.35696	74896.2375
1127.99793	75657.2375
1131.63641	75694.7375
1135.2724	74797.0375
1138.90589	73792.0375
1142.5369	73167.7375
1146.16542	72800.7375
1149.79145	72826.1375
1153.415	73062.3375
1157.03607	73547.7375
1160.65467	74913.4375
1164.27079	77403.7375
1167.88443	81025.2375
1171.49561	86175.9375
1175.10432	92831.7375
1178.71056	101397.4375
1182.31434	109247.4375
1185.91565	113127.1375
1189.51451	112338.5375
1193.11091	108207.0375
1196.70485	102791.5375
1200.29634	98157.3375
1203.88538	94457.9375
1207.47197	91503.4375
1211.05612	89216.4375
1214.63782	87802.7375
1218.21708	87578.4375
1221.79391	88211.4375
1225.36829	88846.8375
1228.94024	88105.0375
1232.50976	85999.8375
1236.07685	84202.3375
1239.6415	83473.0375
1243.20374	83560.5375
1246.76355	84325.7375
1250.32093	85865.2375
1253.8759	88098.8375
1257.42845	90721.3375
1260.97859	93432.7375
1264.52631	96076.7375
1268.07163	98967.8375
1271.61453	101666.3375
1275.15503	104639.4375
1278.69312	107408.8375
1282.22882	109468.1375
1285.76211	110985.7375
1289.29301	112465.7375
1292.82151	114338.5375
1296.34761	117632.5375
1299.87133	122721.2375
1303.39266	130490.3375
1306.9116	140857.4375
1310.42815	152097.7375
1313.94233	159454.1375
1317.45412	159603.2375
1320.96354	154653.0375
1324.47058	148087.2375
1327.97525	141878.6375
1331.47754	137510.0375
1334.97747	135130.6375
1338.47502	134482.3375
1341.97022	135201.2375
1345.46305	136092.9375
1348.95352	136938.7375
1352.44163	138753.0375
1355.92738	143549.3375
1359.41078	151639.2375
1362.89183	158310.1375
1366.37053	154238.1375
1369.84688	139609.3375
1373.32088	123893.4375
1376.79254	113457.1375
1380.26186	108619.8375
1383.72883	106998.5375
1387.19347	105752.3375
1390.65578	103683.6375
1394.11575	102197.1375
1397.57339	102276.3375
1401.0287	103680.5375
1404.48168	105208.5375
1407.93234	106124.8375
1411.38068	106251.9375
1414.82669	105213.3375
1418.27039	102799.0375
1421.71177	100171.5375
1425.15083	98303.2375
1428.58758	97850.3375
1432.02203	98968.8375
1435.45416	101121.2375
1438.88399	102860.1375
1442.31151	103802.2375
1445.73673	104334.7375
1449.15965	104544.5375
1452.58027	104495.9375
1455.9986	103951.6375
1459.41463	104417.4375
1462.82837	106115.8375
1466.23982	108585.3375
1469.64898	110873.3375
1473.05586	112094.1375
1476.46045	112647.7375
1479.86276	112537.3375
1483.26279	111836.0375
1486.66054	111570.6375
1490.05602	111979.8375
1493.44922	112824.2375
1496.84016	114544.7375
1500.22882	117668.2375
1503.61521	122697.3375
1506.99934	128375.1375
1510.38121	132743.2375
1513.76081	133066.9375
1517.13816	128578.9375
1520.51324	121585.2375
1523.88607	115342.1375
1527.25665	111411.4375
1530.62498	109530.8375
1533.99105	108293.0375
1537.35488	107516.0375
1540.71647	106822.1375
1544.07581	105867.8375
1547.4329	104653.6375
1550.78776	103075.0375
1554.14038	101781.7375
1557.49077	101106.2375
1560.83892	100867.1375
1564.18484	101365.3375
1567.52853	102176.0375
1570.86999	102987.0375
1574.20922	103668.2375
1577.54624	103552.6375
1580.88103	102166.7375
1584.2136	101147.4375
1587.54395	102599.2375
1590.87208	107619.6375
1594.19801	115887.4375
1597.52172	124983.0375
1600.84321	128861.0375
1604.16251	124801.7375
1607.47959	115851.3375
1610.79447	105760.5375
1614.10715	96560.2375
1617.41763	89367.5375
1620.7259	84643.7375
1624.03199	82331.8375
1627.33587	82488.4375
1630.63757	85126.9375
1633.93707	90599.4375
1637.23439	98857.9375
1640.52951	109616.6375
1643.82246	121129.2375
1647.11321	128936.9375
1650.40179	128969.7375
1653.68819	119484.7375
1656.97241	104495.1375
1660.25446	90493.7375
1663.53433	80620.1375
1666.81203	74306.9375
1670.08756	70411.4375
1673.36092	67869.7375
1676.63211	66118.6375
1679.90115	64870.0375
1683.16801	63871.2375
1686.43272	63084.3375
1689.69527	62599.6375
1692.95567	62180.3375
1696.2139	61877.3375
1699.46999	61662.1375
1702.72392	61536.7375
1705.97571	61513.5375
1709.22535	61408.4375
1712.47284	61403.2375
1715.71819	61418.0375
1718.96139	61330.4375
1722.20246	61071.5375
1725.44139	60695.2375
1728.67818	60356.1375
1731.91284	60058.2375
1735.14537	59827.5375
1738.37576	59565.6375
1741.60403	59414.1375
1744.83017	59219.7375
1748.05418	59093.3375
1751.27607	59040.0375
1754.49584	58822.4375
1757.71349	58810.9375
1760.92903	58709.3375
1764.14244	58685.4375
1767.35375	58631.5375
1770.56294	58446.7375
1773.77002	58432.8375
1776.97499	58382.1375
1780.17785	58334.1375
1783.37861	58178.9375
1786.57727	58089.2375
1789.77382	58063.7375
1792.96828	57917.9375
1796.16064	57834.2375
1799.3509	57885.1375
1802.53907	57748.0375
1805.72514	57646.2375
1808.90913	57512.6375
1812.09102	57433.4375
1815.27083	57313.6375
1818.44856	57221.8375
1821.6242	57177.0375
1824.79776	57098.5375
1827.96924	56996.9375
1831.13864	56862.8375
1834.30597	56882.4375
1837.47122	56790.2375
1840.6344	56824.3375
1843.7955	56869.5375
1846.95454	56852.5375
1850.11151	56781.3375
1853.26642	56687.8375
1856.41926	56659.0375
1859.57004	56665.9375
1862.71876	56669.3375
1865.86542	56652.3375
1869.01003	56709.0375
1872.15258	56774.3375
1875.29308	56669.0375
1878.43152	56576.3375
1881.56792	56515.3375
1884.70227	56473.9375
1887.83457	56456.3375
1890.96482	56377.3375
1894.09304	56453.8375
1897.21921	56418.4375
1900.34335	56387.0375
1903.46544	56358.5375
1906.58551	56342.0375
1909.70353	56258.8375
1912.81953	56181.1375
1915.93349	56063.9375
1919.04543	55973.3375
1922.15534	55975.8375
1925.26322	55902.8375
1928.36908	55767.4375
1931.47292	55756.6375
1934.57473	55629.5375
1937.67453	55571.4375
1940.77232	55392.5375
1943.86808	55221.4375
1946.96184	55089.4375
1950.05358	54900.5375
1953.14331	54758.7375
1956.23103	54585.7375
1959.31675	54453.1375
1962.40046	54333.6375
1965.48217	54185.9375
1968.56188	54034.7375
1971.63959	53939.1375
1974.7153	53848.6375
1977.78901	53688.9375
1980.86073	53542.6375
1983.93046	53342.1375
1986.99819	53206.2375
1990.06394	53073.2375
1993.1277	52984.6375
1996.18947	52799.4375
1999.24925	52717.0375
2002.30706	52583.7375
2005.36288	52562.6375
2008.41672	52501.4375
2011.46859	52308.7375
2014.51848	52194.8375
2017.56639	52077.2375
2020.61233	52059.0375
2023.6563	51945.1375
2026.6983	51818.1375
2029.73833	51625.0375
2032.7764	51481.8375
2035.8125	51505.5375
2038.84664	51401.0375
2041.87881	51363.1375
2044.90903	51302.6375
2047.93729	51178.5375
2050.96359	51287.2375
2053.98794	51234.1375
2057.01034	51191.4375
2060.03078	51154.7375
2063.04927	51056.8375
2066.06582	50982.0375
2069.08042	50969.9375
2072.09307	50987.5375
2075.10378	50935.8375
2078.11255	50866.6375
2081.11938	50913.9375
2084.12426	50807.3375
2087.12722	50768.9375
2090.12824	50699.3375
2093.12732	50742.9375
2096.12447	50782.3375
2099.11969	50788.8375
2102.11299	50921.8375
2105.10435	50922.9375
2108.09379	50900.4375
2111.08131	50956.0375
2114.0669	50969.9375
2117.05057	51017.5375
2120.03233	51073.2375
2123.01216	51107.1375
2125.99008	51129.4375
2128.96609	51271.3375
2131.94018	51282.8375
2134.91236	51370.9375
2137.88263	51404.8375
2140.851	51463.2375
2143.81746	51452.2375
2146.78201	51478.2375
2149.74466	51557.5375
2152.7054	51592.1375
2155.66425	51568.5375
2158.6212	51587.1375
2161.57625	51569.9375
2164.52941	51532.3375
2167.48067	51482.2375
2170.43004	51592.8375
2173.37752	51563.2375
2176.32311	51518.3375
2179.26681	51548.3375
2182.20863	51597.0375
2185.14856	51678.9375
2188.08661	51697.7375
2191.02278	51750.4375
2193.95707	51730.9375
2196.88948	51794.0375
2199.82001	51755.4375
2202.74867	51751.9375
2205.67545	51757.1375
2208.60037	51759.6375
2211.52341	51666.9375
2214.44458	51625.1375
2217.36388	51531.1375
2220.28132	51550.2375
2223.1969	51479.8375
2226.11061	51378.6375
2229.02246	51308.7375
2231.93245	51246.3375
2234.84058	51209.4375
2237.74686	51067.3375
2240.65128	50976.1375
2243.55385	50839.6375
2246.45456	50873.4375
2249.35343	50778.2375
2252.25044	50715.3375
2255.14561	50730.1375
2258.03893	50651.5375
2260.93041	50618.4375
2263.82004	50505.6375
2266.70783	50373.0375
2269.59378	50352.5375
2272.4779	50356.3375
2275.36017	50190.4375
2278.24061	50002.7375
2281.11922	49978.3375
2283.996	49900.0375
2286.87094	49880.6375
2289.74405	49847.2375
2292.61534	49815.5375
2295.4848	49755.1375
2298.35243	49813.0375
2301.21824	49899.3375
2304.08223	49850.8375
2306.94439	49950.4375
2309.80474	50049.2375
2312.66327	50096.4375
2315.51999	50104.6375
2318.37489	50210.2375
2321.22797	50157.8375
2324.07925	50101.1375
2326.92871	49968.1375
2329.77637	50068.6375
2332.62222	49990.2375
2335.46626	50021.3375
2338.3085	50052.1375
2341.14893	50204.6375
2343.98756	50164.8375
2346.8244	50207.4375
2349.65943	50339.8375
2352.49267	50321.4375
2355.32411	50321.8375
2358.15376	50223.4375
2360.98161	50204.4375
2363.80768	50181.8375
2366.63195	50101.7375
2369.45444	49970.9375
2372.27514	49853.1375
2375.09405	49773.4375
2377.91118	49714.5375
2380.72652	49530.3375
2383.54009	49456.5375
2386.35187	49418.4375
2389.16188	49399.7375
2391.97011	49340.8375
2394.77657	49293.1375
2397.58125	49270.3375
2400.38416	49127.6375
2403.18529	49031.6375
2405.98466	49046.6375
2408.78226	48963.4375
2411.57809	48890.5375
2414.37216	48786.1375
2417.16446	48749.6375
2419.955	48632.0375
2422.74378	48632.4375
2425.5308	48589.3375
2428.31606	48571.4375
2431.09956	48623.7375
2433.88131	48534.1375
2436.6613	48555.2375
2439.43954	48602.6375
2442.21603	48663.7375
2444.99077	48632.6375
2447.76377	48601.5375
2450.53501	48535.9375
2453.30451	48636.3375
2456.07226	48527.2375
2458.83827	48491.8375
2461.60254	48530.3375
2464.36507	48547.5375
2467.12586	48570.1375
2469.88492	48599.0375
2472.64224	48511.1375
2475.39782	48471.4375
2478.15167	48561.3375
2480.90379	48760.8375
2483.65417	48839.9375
2486.40283	48871.7375
2489.14976	48994.3375
2491.89497	48965.8375
2494.63845	49051.0375
2497.3802	48946.2375
2500.12024	48949.0375
2502.85855	48893.7375
2505.59514	48942.6375
2508.33002	48887.6375
2511.06318	48757.1375
2513.79462	48782.3375
2516.52435	48746.0375
2519.25237	48707.8375
2521.97867	48677.3375
2524.70327	48723.7375
2527.42616	48641.5375
2530.14734	48685.4375
2532.86681	48618.3375
2535.58458	48628.3375
2538.30065	48663.2375
2541.01501	48778.1375
2543.72768	48767.7375
2546.43864	48740.4375
2549.14791	48696.2375
2551.85548	48716.9375
2554.56136	48682.4375
2557.26554	48524.5375
2559.96803	48496.1375
2562.66883	48454.6375
2565.36794	48466.7375
2568.06536	48370.5375
2570.7611	48310.4375
2573.45514	48253.2375
2576.14751	48267.1375
2578.83819	48179.9375
2581.52719	48284.4375
2584.21451	48310.6375
2586.90015	48316.7375
2589.58411	48249.6375
2592.2664	48303.3375
2594.94701	48251.6375
2597.62594	48253.0375
2600.30321	48295.3375
2602.9788	48322.6375
2605.65273	48238.1375
2608.32498	48168.1375
2610.99557	48207.6375
2613.66449	48330.9375
2616.33175	48318.1375
2618.99734	48295.5375
2621.66128	48308.0375
2624.32355	48276.0375
2626.98416	48410.7375
2629.64311	48515.1375
2632.30041	48490.5375
2634.95605	48440.8375
2637.61004	48371.7375
2640.26238	48397.6375
2642.91306	48312.9375
2645.56209	48195.7375
2648.20948	48214.7375
2650.85521	48098.0375
2653.4993	48109.9375
2656.14175	48105.5375
2658.78255	48192.5375
2661.42171	48204.3375
2664.05923	48377.5375
2666.6951	48417.5375
2669.32934	48521.1375
2671.96194	48445.5375
2674.59291	48493.9375
2677.22224	48399.2375
2679.84993	48334.4375
2682.476	48280.4375
2685.10043	48260.1375
2687.72324	48151.7375
2690.34441	48143.9375
2692.96396	48071.3375
2695.58188	48075.3375
2698.19818	47984.8375
2700.81285	48076.7375
2703.4259	48051.7375
2706.03733	48139.0375
2708.64714	48142.1375
2711.25533	48197.4375
2713.86191	48197.8375
2716.46687	48367.9375
2719.07021	48364.5375
2721.67194	48424.1375
2724.27206	48335.7375
2726.87057	48463.3375
2729.46747	48338.4375
2732.06276	48405.3375
2734.65644	48451.0375
2737.24852	48472.3375
2739.83899	48361.3375
2742.42786	48404.3375
2745.01513	48279.8375
2747.60079	48235.6375
2750.18486	48261.8375
2752.76733	48335.3375
2755.3482	48283.7375
2757.92747	48346.9375
2760.50515	48291.5375
2763.08123	48305.4375
2765.65573	48161.1375
2768.22863	48240.9375
2770.79994	48234.8375
2773.36967	48294.3375
2775.9378	48290.3375
2778.50435	48219.9375
2781.06932	48267.2375
2783.6327	48367.1375
2786.1945	48291.0375
2788.75471	48196.8375
2791.31335	48051.5375
2793.87041	47970.1375
2796.42589	47847.2375
2798.97979	47866.9375
2801.53212	47799.3375
2804.08288	47815.4375
2806.63206	47733.7375
2809.17967	47638.1375
2811.72571	47529.5375
2814.27018	47492.8375
2816.81308	47339.3375
2819.35442	47239.6375
2821.89419	47108.4375
2824.43239	47166.1375
2826.96904	47044.5375
2829.50412	47107.2375
2832.03763	47123.7375
2834.56959	47130.1375
2837.1	47064.7375
2839.62884	47072.8375
2842.15613	46954.5375
2844.68186	46921.0375
2847.20604	46850.8375
2849.72867	46785.9375
2852.24974	46761.5375
2854.76927	46683.2375
2857.28724	46687.4375
2859.80367	46741.9375
2862.31855	46771.1375
2864.83189	46808.0375
2867.34368	46770.1375
2869.85393	46753.9375
2872.36264	46633.7375
2874.8698	46645.2375
2877.37543	46683.2375
2879.87952	46602.0375
2882.38207	46638.0375
2884.88308	46637.8375
2887.38256	46655.9375
2889.88051	46518.1375
2892.37692	46587.5375
2894.8718	46643.1375
2897.36515	46802.3375
2899.85698	46793.2375
2902.34727	46934.6375
2904.83604	47008.1375
2907.32328	47186.0375
2909.809	47265.9375
2912.29319	47329.6375
2914.77587	47387.1375
2917.25702	47380.8375
2919.73665	47199.4375
2922.21476	47325.8375
2924.69136	47217.5375
2927.16644	47167.3375
2929.64	47086.3375
2932.11205	46996.1375
2934.58258	46830.6375
2937.05161	46802.7375
2939.51912	46774.3375
2941.98513	46781.4375
2944.44962	46748.1375
2946.91261	46622.1375
2949.37409	46735.3375
2951.83407	46716.0375
2954.29254	46750.2375
2956.74951	46799.6375
2959.20498	46769.4375
2961.65895	46669.3375
2964.11142	46719.8375
2966.56239	46657.3375
2969.01186	46665.4375
2971.45984	46552.6375
2973.90632	46555.8375
2976.35131	46439.1375
2978.7948	46342.3375
2981.23681	46193.0375
2983.67732	46152.1375
2986.11635	46053.4375
2988.55388	46028.6375
2990.98993	45894.0375
2993.4245	45806.9375
2995.85758	45731.1375
2998.28917	45666.7375
3000.71928	45557.9375
3003.14791	45503.3375
3005.57506	45412.5375
3008.00073	45238.9375
3010.42493	45148.9375
3012.84764	45081.5375
