Data from AgNPs_UA_1uM_CRN_0uM_R6G_10uM_Q_RamanShift__7__12-18-55-872.txt Node

Date: Wed Jul 13 12:18:55 BST 2022
User: TCL
Spectrometer: QEP01345
Trigger mode: 4
Integration Time (sec): 7.000000E0
Scans to average: 10
Electric dark correction enabled: true
Nonlinearity correction enabled: false
Boxcar width: 0
XAxis mode: Raman Shifts
Number of Pixels in Spectrum: 1044
>>>>>Begin Spectral Data<<<<<
46.04893	0.475
50.45542	-2.525
54.85868	-2.725
59.25871	-0.525
63.6555	91.675
68.04907	97.775
72.43941	99.475
76.82654	107.075
81.21044	113.875
85.59113	114.575
89.96862	117.575
94.34289	124.275
98.71396	123.675
103.08183	128.475
107.4465	134.375
111.80798	132.275
116.16626	137.475
120.52136	145.375
124.87327	147.875
129.222	157.075
133.56755	165.275
137.90993	178.075
142.24913	194.175
146.58517	215.575
150.91804	247.475
155.24774	287.075
159.57429	355.675
163.89768	462.475
168.21792	602.375
172.53501	813.275
176.84895	1130.675
181.15975	1582.675
185.46741	2205.775
189.77193	3051.475
194.07331	4052.775
198.37157	5207.875
202.6667	6439.375
206.9587	7638.475
211.24758	8834.375
215.53334	10033.575
219.81599	11348.675
224.09553	12781.675
228.37195	14383.275
232.64527	16098.175
236.91549	17834.475
241.18261	19534.575
245.44663	21010.375
249.70755	22255.575
253.96539	23403.475
258.22014	24319.775
262.4718	25097.375
266.72039	25624.675
270.96589	25830.175
275.20832	25745.875
279.44768	25486.275
283.68397	25159.675
287.91719	24952.775
292.14735	24864.375
296.37445	25023.275
300.59849	25407.675
304.81948	25897.975
309.03742	26273.575
313.25231	26454.175
317.46415	26096.475
321.67296	25518.775
325.87872	24895.275
330.08145	24651.675
334.28114	24672.375
338.47781	24933.275
342.67145	25337.175
346.86207	25978.175
351.04966	26701.775
355.23424	27378.075
359.4158	27836.975
363.59435	28086.575
367.76989	28182.775
371.94243	28168.175
376.11196	28181.575
380.27849	28199.175
384.44203	28256.675
388.60257	28462.375
392.76012	28595.975
396.91468	28947.275
401.06626	29410.575
405.21485	29649.575
409.36047	29373.875
413.50311	28754.775
417.64277	28398.875
421.77947	28291.175
425.9132	28395.875
430.04396	28490.975
434.17176	28625.575
438.2966	28908.375
442.41849	29618.175
446.53742	30509.975
450.6534	31379.475
454.76644	31806.275
458.87653	31772.375
462.98368	31440.375
467.08789	30936.975
471.18916	30311.075
475.2875	29633.375
479.38291	29101.875
483.4754	28797.175
487.56496	28523.275
491.6516	28385.175
495.73531	28356.675
499.81612	28435.575
503.89401	28678.375
507.96899	28823.775
512.04106	28853.675
516.11023	28859.275
520.1765	28925.075
524.23987	28958.175
528.30034	28940.375
532.35792	28777.175
536.41261	28441.275
540.46441	28019.575
544.51333	27913.675
548.55936	28138.075
552.60252	28710.775
556.64279	29419.475
560.6802	29927.275
564.71473	30152.575
568.7464	30600.375
572.7752	31130.575
576.80114	31476.175
580.82422	32085.175
584.84444	33109.875
588.86181	34677.275
592.87633	36142.175
596.888	36169.375
600.89682	35075.875
604.9028	35540.575
608.90594	39265.275
612.90624	43054.375
616.90371	39766.075
620.89834	32797.575
624.89015	29995.175
628.87913	29721.275
632.86528	29857.775
636.84862	29904.875
640.82913	29310.275
644.80683	28565.875
648.78172	28220.775
652.75379	28360.275
656.72306	28963.775
660.68952	29549.775
664.65319	29202.875
668.61405	28679.275
672.57211	28618.675
676.52738	28727.475
680.47986	28574.975
684.42955	28288.175
688.37646	28179.675
692.32058	28485.575
696.26192	28943.975
700.20048	29415.275
704.13626	29590.675
708.06928	29465.975
711.99952	29277.575
715.927	29319.875
719.85171	29431.675
723.77365	29342.075
727.69284	28999.775
731.60928	28703.975
735.52295	28689.675
739.43388	28830.775
743.34206	28972.275
747.24749	29090.775
751.15017	29363.175
755.05012	29871.475
758.94733	30774.975
762.8418	32694.075
766.73354	35663.075
770.62254	38024.475
774.50882	38085.175
778.39237	36351.575
782.27321	33934.075
786.15132	31764.475
790.02671	30353.875
793.89938	29684.075
797.76935	29327.575
801.6366	29204.675
805.50115	29097.075
809.36299	28927.975
813.22213	28765.675
817.07857	28697.375
820.93231	28649.775
824.78336	28633.175
828.63172	28626.875
832.47738	28605.375
836.32036	28586.575
840.16066	28661.775
843.99827	28701.575
847.8332	28706.475
851.66546	28686.575
855.49504	28721.075
859.32195	28703.575
863.1462	28665.475
866.96777	28619.375
870.78668	28595.175
874.60293	28677.375
878.41652	28854.975
882.22745	28974.775
886.03573	29142.675
889.84136	29089.075
893.64433	29005.875
897.44466	28939.675
901.24235	28807.075
905.0374	28718.775
908.8298	28608.175
912.61957	28596.775
916.40671	28783.975
920.19121	29046.675
923.97308	29414.975
927.75233	29648.275
931.52895	29613.375
935.30295	29191.075
939.07433	28650.475
942.84309	28332.075
946.60924	28223.975
950.37278	28181.475
954.13371	28136.875
957.89203	28052.675
961.64774	27995.975
965.40086	27966.875
969.15137	27981.675
972.89929	27951.075
976.64461	27881.875
980.38733	28002.775
984.12747	28084.875
987.86502	28229.975
991.59999	28439.775
995.33237	28794.275
999.06217	29350.575
1002.78939	30028.175
1006.51404	30702.675
1010.23611	31206.675
1013.95561	31503.275
1017.67255	31496.375
1021.38692	31145.175
1025.09872	30601.375
1028.80796	30418.175
1032.51465	30686.575
1036.21877	30978.075
1039.92035	31051.875
1043.61937	30914.575
1047.31584	30594.275
1051.00976	30313.075
1054.70114	30171.875
1058.38998	30241.975
1062.07627	30377.475
1065.76003	30515.875
1069.44126	30808.375
1073.11995	31383.675
1076.79611	31919.075
1080.46974	32401.475
1084.14085	32780.275
1087.80943	33196.175
1091.47549	33326.775
1095.13903	32988.075
1098.80005	32400.675
1102.45857	31891.475
1106.11456	31533.375
1109.76805	31403.175
1113.41903	31511.275
1117.06751	31868.375
1120.71348	32362.075
1124.35696	32936.175
1127.99793	33344.475
1131.63641	33249.475
1135.2724	32694.775
1138.90589	32285.975
1142.5369	32125.175
1146.16542	32040.275
1149.79145	32116.975
1153.415	32179.575
1157.03607	32399.475
1160.65467	32977.075
1164.27079	34092.975
1167.88443	35542.775
1171.49561	37552.575
1175.10432	40388.275
1178.71056	44000.875
1182.31434	46793.175
1185.91565	47561.775
1189.51451	46479.875
1193.11091	44679.875
1196.70485	42862.275
1200.29634	41310.575
1203.88538	40181.375
1207.47197	39154.575
1211.05612	38291.475
1214.63782	37572.675
1218.21708	36995.875
1221.79391	36822.675
1225.36829	36863.475
1228.94024	36711.775
1232.50976	36119.175
1236.07685	35480.175
1239.6415	35020.675
1243.20374	34929.775
1246.76355	35173.175
1250.32093	35602.475
1253.8759	36238.075
1257.42845	37179.775
1260.97859	38279.175
1264.52631	39492.575
1268.07163	40617.675
1271.61453	41677.975
1275.15503	42608.275
1278.69312	43353.775
1282.22882	44035.875
1285.76211	44949.175
1289.29301	46275.975
1292.82151	47851.675
1296.34761	49815.275
1299.87133	52487.375
1303.39266	55869.775
1306.9116	60057.975
1310.42815	64106.675
1313.94233	66066.575
1317.45412	64849.675
1320.96354	61746.975
1324.47058	58777.575
1327.97525	56246.075
1331.47754	54435.875
1334.97747	53371.075
1338.47502	52840.975
1341.97022	52816.175
1345.46305	53207.475
1348.95352	54196.275
1352.44163	55775.675
1355.92738	58541.075
1359.41078	62737.375
1362.89183	66382.075
1366.37053	64809.375
1369.84688	58017.175
1373.32088	50711.775
1376.79254	46214.175
1380.26186	44408.775
1383.72883	43966.375
1387.19347	43564.975
1390.65578	42840.375
1394.11575	42404.275
1397.57339	42386.775
1401.0287	42621.075
1404.48168	42719.875
1407.93234	42564.675
1411.38068	42175.375
1414.82669	41504.175
1418.27039	40722.675
1421.71177	39807.875
1425.15083	39151.475
1428.58758	38957.175
1432.02203	39596.275
1435.45416	40625.075
1438.88399	41446.275
1442.31151	41812.375
1445.73673	41816.775
1449.15965	41647.175
1452.58027	41369.075
1455.9986	41047.875
1459.41463	41142.475
1462.82837	41726.575
1466.23982	42532.375
1469.64898	43164.775
1473.05586	43631.375
1476.46045	43836.075
1479.86276	43754.475
1483.26279	43809.475
1486.66054	43997.875
1490.05602	44671.475
1493.44922	45491.975
1496.84016	46841.575
1500.22882	48891.075
1503.61521	51807.975
1506.99934	55042.475
1510.38121	57541.575
1513.76081	57685.375
1517.13816	54950.375
1520.51324	51018.975
1523.88607	47727.975
1527.25665	45990.875
1530.62498	45306.975
1533.99105	44876.175
1537.35488	44338.475
1540.71647	43500.775
1544.07581	42604.975
1547.4329	41830.475
1550.78776	41226.375
1554.14038	40739.875
1557.49077	40641.775
1560.83892	40850.275
1564.18484	41265.975
1567.52853	41806.375
1570.86999	42479.175
1574.20922	42951.075
1577.54624	42978.675
1580.88103	42115.975
1584.2136	41310.375
1587.54395	41670.975
1590.87208	43395.975
1594.19801	46115.475
1597.52172	48933.075
1600.84321	49719.075
1604.16251	47918.675
1607.47959	44797.975
1610.79447	41485.775
1614.10715	38395.775
1617.41763	35947.175
1620.7259	34354.575
1624.03199	33621.075
1627.33587	33768.575
1630.63757	34655.975
1633.93707	36576.975
1637.23439	39980.775
1640.52951	45110.475
1643.82246	51265.775
1647.11321	56093.775
1650.40179	56920.175
1653.68819	52600.675
1656.97241	45530.375
1660.25446	38966.775
1663.53433	34601.275
1666.81203	31943.075
1670.08756	30383.875
1673.36092	29440.475
1676.63211	28813.275
1679.90115	28300.675
1683.16801	28051.075
1686.43272	27803.875
1689.69527	27555.575
1692.95567	27431.375
1696.2139	27332.775
1699.46999	27255.675
1702.72392	27244.675
1705.97571	27202.675
1709.22535	27199.675
1712.47284	27218.575
1715.71819	27196.775
1718.96139	27184.675
1722.20246	27029.675
1725.44139	26948.375
1728.67818	26829.075
1731.91284	26755.475
1735.14537	26604.575
1738.37576	26507.475
1741.60403	26425.275
1744.83017	26380.575
1748.05418	26317.475
1751.27607	26234.375
1754.49584	26176.175
1757.71349	26198.475
1760.92903	26175.875
1764.14244	26099.475
1767.35375	26108.275
1770.56294	26043.975
1773.77002	26064.375
1776.97499	26015.575
1780.17785	25974.375
1783.37861	25973.775
1786.57727	25873.375
1789.77382	25818.175
1792.96828	25819.275
1796.16064	25747.575
1799.3509	25721.475
1802.53907	25722.375
1805.72514	25671.875
1808.90913	25592.875
1812.09102	25529.275
1815.27083	25457.275
1818.44856	25398.775
1821.6242	25387.175
1824.79776	25352.675
1827.96924	25316.675
1831.13864	25307.475
1834.30597	25292.975
1837.47122	25245.275
1840.6344	25196.275
1843.7955	25250.575
1846.95454	25236.975
1850.11151	25210.675
1853.26642	25199.675
1856.41926	25143.475
1859.57004	25166.675
1862.71876	25158.775
1865.86542	25161.075
1869.01003	25186.475
1872.15258	25153.475
1875.29308	25119.175
1878.43152	25092.575
1881.56792	25014.375
1884.70227	25034.775
1887.83457	25023.275
1890.96482	24959.475
1894.09304	24951.675
1897.21921	24918.875
1900.34335	24894.075
1903.46544	24876.375
1906.58551	24883.975
1909.70353	24840.575
1912.81953	24844.275
1915.93349	24772.275
1919.04543	24736.675
1922.15534	24696.375
1925.26322	24657.575
1928.36908	24631.175
1931.47292	24551.275
1934.57473	24500.575
1937.67453	24434.275
1940.77232	24361.175
1943.86808	24325.775
1946.96184	24272.275
1950.05358	24216.375
1953.14331	24133.275
1956.23103	24054.075
1959.31675	24005.475
1962.40046	23956.775
1965.48217	23890.575
1968.56188	23838.675
1971.63959	23785.775
1974.7153	23695.575
1977.78901	23664.875
1980.86073	23608.475
1983.93046	23555.275
1986.99819	23423.975
1990.06394	23350.475
1993.1277	23324.275
1996.18947	23249.075
1999.24925	23232.875
2002.30706	23162.875
2005.36288	23071.475
2008.41672	22989.075
2011.46859	22926.975
2014.51848	22878.475
2017.56639	22831.175
2020.61233	22761.275
2023.6563	22687.975
2026.6983	22649.075
2029.73833	22645.075
2032.7764	22564.775
2035.8125	22504.975
2038.84664	22496.475
2041.87881	22480.975
2044.90903	22416.775
2047.93729	22372.475
2050.96359	22363.375
2053.98794	22313.975
2057.01034	22357.275
2060.03078	22305.575
2063.04927	22291.075
2066.06582	22277.475
2069.08042	22249.475
2072.09307	22267.175
2075.10378	22199.875
2078.11255	22189.075
2081.11938	22200.375
2084.12426	22180.575
2087.12722	22161.375
2090.12824	22140.175
2093.12732	22181.675
2096.12447	22170.075
2099.11969	22199.475
2102.11299	22171.675
2105.10435	22184.675
2108.09379	22213.275
2111.08131	22203.475
2114.0669	22216.475
2117.05057	22253.575
2120.03233	22284.775
2123.01216	22311.775
2125.99008	22354.075
2128.96609	22370.875
2131.94018	22397.475
2134.91236	22406.675
2137.88263	22419.075
2140.851	22435.775
2143.81746	22445.475
2146.78201	22416.575
2149.74466	22469.475
2152.7054	22450.375
2155.66425	22451.175
2158.6212	22438.775
2161.57625	22405.375
2164.52941	22432.975
2167.48067	22408.075
2170.43004	22404.875
2173.37752	22396.875
2176.32311	22448.475
2179.26681	22472.375
2182.20863	22451.275
2185.14856	22504.475
2188.08661	22464.175
2191.02278	22486.575
2193.95707	22439.775
2196.88948	22406.975
2199.82001	22432.375
2202.74867	22409.675
2205.67545	22378.775
2208.60037	22352.875
2211.52341	22348.975
2214.44458	22292.675
2217.36388	22247.575
2220.28132	22255.475
2223.1969	22188.075
2226.11061	22189.575
2229.02246	22135.375
2231.93245	22090.675
2234.84058	22065.875
2237.74686	22041.175
2240.65128	22021.175
2243.55385	22004.275
2246.45456	21965.875
2249.35343	21956.775
2252.25044	21934.375
2255.14561	21848.575
2258.03893	21839.075
2260.93041	21830.175
2263.82004	21783.275
2266.70783	21729.175
2269.59378	21688.075
2272.4779	21663.875
2275.36017	21585.675
2278.24061	21534.675
2281.11922	21537.375
2283.996	21486.475
2286.87094	21503.675
2289.74405	21454.375
2292.61534	21394.375
2295.4848	21399.575
2298.35243	21435.475
2301.21824	21366.575
2304.08223	21398.675
2306.94439	21387.475
2309.80474	21437.075
2312.66327	21438.775
2315.51999	21388.075
2318.37489	21364.775
2321.22797	21340.375
2324.07925	21298.775
2326.92871	21312.675
2329.77637	21281.675
2332.62222	21246.775
2335.46626	21236.075
2338.3085	21238.575
2341.14893	21177.975
2343.98756	21169.275
2346.8244	21172.875
2349.65943	21185.975
2352.49267	21204.275
2355.32411	21190.875
2358.15376	21219.275
2360.98161	21209.775
2363.80768	21186.975
2366.63195	21167.975
2369.45444	21191.975
2372.27514	21158.375
2375.09405	21108.075
2377.91118	21033.975
2380.72652	21009.375
2383.54009	20980.575
2386.35187	20907.075
2389.16188	20852.275
2391.97011	20815.775
2394.77657	20789.075
2397.58125	20742.575
2400.38416	20738.475
2403.18529	20709.575
2405.98466	20671.875
2408.78226	20636.775
2411.57809	20607.675
2414.37216	20619.275
2417.16446	20618.475
2419.955	20608.675
2422.74378	20621.375
2425.5308	20552.175
2428.31606	20591.175
2431.09956	20561.175
2433.88131	20545.375
2436.6613	20571.875
2439.43954	20507.975
2442.21603	20507.075
2444.99077	20542.975
2447.76377	20566.575
2450.53501	20512.875
2453.30451	20503.475
2456.07226	20480.375
2458.83827	20480.075
2461.60254	20438.275
2464.36507	20408.375
2467.12586	20412.675
2469.88492	20440.175
2472.64224	20435.175
2475.39782	20425.675
2478.15167	20440.575
2480.90379	20415.075
2483.65417	20464.575
2486.40283	20454.375
2489.14976	20440.775
2491.89497	20476.075
2494.63845	20454.075
2497.3802	20467.575
2500.12024	20444.275
2502.85855	20440.375
2505.59514	20372.075
2508.33002	20370.475
2511.06318	20359.175
2513.79462	20315.975
2516.52435	20261.275
2519.25237	20232.075
2521.97867	20264.175
2524.70327	20260.775
2527.42616	20220.175
2530.14734	20215.675
2532.86681	20203.875
2535.58458	20236.375
2538.30065	20216.075
2541.01501	20206.475
2543.72768	20137.375
2546.43864	20131.175
2549.14791	20110.075
2551.85548	20132.975
2554.56136	20063.875
2557.26554	20051.275
2559.96803	20038.975
2562.66883	20000.775
2565.36794	19999.975
2568.06536	19935.575
2570.7611	19950.775
2573.45514	20007.375
2576.14751	19964.475
2578.83819	19930.375
2581.52719	19907.575
2584.21451	19863.575
2586.90015	19853.475
2589.58411	19834.875
2592.2664	19807.975
2594.94701	19768.775
2597.62594	19768.875
2600.30321	19723.875
2602.9788	19734.375
2605.65273	19688.875
2608.32498	19707.575
2610.99557	19660.775
2613.66449	19671.975
2616.33175	19653.275
2618.99734	19689.475
2621.66128	19672.175
2624.32355	19657.975
2626.98416	19633.775
2629.64311	19619.475
2632.30041	19631.075
2634.95605	19569.675
2637.61004	19537.275
2640.26238	19503.375
2642.91306	19465.275
2645.56209	19443.375
2648.20948	19453.475
2650.85521	19415.875
2653.4993	19449.075
2656.14175	19465.775
2658.78255	19498.575
2661.42171	19495.475
2664.05923	19542.875
2666.6951	19546.175
2669.32934	19512.275
2671.96194	19526.775
2674.59291	19531.875
2677.22224	19518.875
2679.84993	19577.275
2682.476	19524.175
2685.10043	19552.975
2687.72324	19480.075
2690.34441	19488.375
2692.96396	19482.875
2695.58188	19514.475
2698.19818	19468.975
2700.81285	19477.875
2703.4259	19471.475
2706.03733	19492.375
2708.64714	19517.075
2711.25533	19547.275
2713.86191	19507.575
2716.46687	19551.475
2719.07021	19568.275
2721.67194	19578.975
2724.27206	19576.975
2726.87057	19582.275
2729.46747	19594.175
2732.06276	19635.375
2734.65644	19636.575
2737.24852	19643.775
2739.83899	19582.875
2742.42786	19582.075
2745.01513	19535.475
2747.60079	19530.275
2750.18486	19538.575
2752.76733	19502.275
2755.3482	19453.075
2757.92747	19489.075
2760.50515	19417.075
2763.08123	19463.775
2765.65573	19427.475
2768.22863	19442.475
2770.79994	19358.375
2773.36967	19414.075
2775.9378	19405.775
2778.50435	19389.075
2781.06932	19383.475
2783.6327	19348.675
2786.1945	19322.175
2788.75471	19308.275
2791.31335	19263.475
2793.87041	19238.275
2796.42589	19224.675
2798.97979	19210.775
2801.53212	19170.675
2804.08288	19142.075
2806.63206	19084.875
2809.17967	19017.375
2811.72571	18986.575
2814.27018	19031.075
2816.81308	18976.475
2819.35442	18953.875
2821.89419	18894.775
2824.43239	18898.375
2826.96904	18886.675
2829.50412	18875.075
2832.03763	18823.375
2834.56959	18829.575
2837.1	18806.875
2839.62884	18802.975
2842.15613	18751.175
2844.68186	18765.375
2847.20604	18775.975
2849.72867	18781.375
2852.24974	18721.075
2854.76927	18722.675
2857.28724	18697.675
2859.80367	18725.075
2862.31855	18690.475
2864.83189	18702.275
2867.34368	18627.175
2869.85393	18640.075
2872.36264	18623.675
2874.8698	18626.175
2877.37543	18605.175
2879.87952	18549.375
2882.38207	18552.675
2884.88308	18521.475
2887.38256	18548.775
2889.88051	18508.475
2892.37692	18554.675
2894.8718	18537.675
2897.36515	18612.175
2899.85698	18594.475
2902.34727	18650.575
2904.83604	18626.175
2907.32328	18648.875
2909.809	18663.275
2912.29319	18697.075
2914.77587	18699.475
2917.25702	18700.675
2919.73665	18680.275
2922.21476	18669.675
2924.69136	18614.075
2927.16644	18630.075
2929.64	18587.975
2932.11205	18556.975
2934.58258	18505.375
2937.05161	18572.175
2939.51912	18544.175
2941.98513	18535.775
2944.44962	18506.475
2946.91261	18428.875
2949.37409	18472.175
2951.83407	18459.375
2954.29254	18478.175
2956.74951	18477.975
2959.20498	18499.475
2961.65895	18426.675
2964.11142	18481.375
2966.56239	18479.875
2969.01186	18483.075
2971.45984	18436.775
2973.90632	18424.675
2976.35131	18349.075
2978.7948	18364.275
2981.23681	18311.375
2983.67732	18268.275
2986.11635	18225.175
2988.55388	18164.075
2990.98993	18178.075
2993.4245	18155.675
2995.85758	18060.575
2998.28917	18056.375
3000.71928	17983.275
3003.14791	17996.775
3005.57506	17981.075
3008.00073	17910.675
3010.42493	17905.675
3012.84764	17861.775
3015.26888	17859.375
3017.68865	17816.775
3020.10694	17781.475
3022.52376	17749.675
3024.9391	17738.175
3027.35298	17730.075
3029.76539	17688.975
3032.17632	17721.275
3034.5858	17651.275
3036.9938	17660.075
3039.40034	17622.575
3041.80542	17617.275
3044.20903	17568.275
3046.61118	17547.275
3049.01187	17479.475
3051.4111	17512.375
3053.80888	17500.775
3056.20519	17493.975
3058.60005	17418.175
3060.99345	17395.875
3063.3854	17349.375
3065.7759	17321.275
3068.16494	17270.975
3070.55254	17205.475
3072.93868	17199.775
3075.32338	17143.775
3077.70662	17117.875
3080.08842	17078.575
3082.46878	17082.975
3084.84769	17051.175
3087.22515	17014.275
3089.60118	17022.475
3091.97576	16998.075
3094.3489	17037.775
3096.72061	16998.475
3099.09087	17012.875
3101.4597	17039.875
3103.82709	17036.575
3106.19305	16994.275
3108.55757	16973.875
3110.92066	16926.175
3113.28232	16928.975
3115.64255	16894.675
3118.00134	16896.575
3120.35871	16851.675
3122.71466	16838.075
3125.06917	16828.175
3127.42226	16780.775
3129.77393	16775.075
