Data from AgNPs_APTES_FTO_UA_100uM_CRN_0uM_R6G_10uM_Scan_RamanShift__36__12-46-03-550.txt Node

Date: Thu Jun 23 12:46:03 BST 2022
User: TCL
Spectrometer: QEP01345
Trigger mode: 4
Integration Time (sec): 7.000000E0
Scans to average: 10
Electric dark correction enabled: true
Nonlinearity correction enabled: false
Boxcar width: 0
XAxis mode: Raman Shifts
Number of Pixels in Spectrum: 1044
>>>>>Begin Spectral Data<<<<<
46.04893	-1.4125
50.45542	-1.5125
54.85868	-3.4125
59.25871	-2.3125
63.6555	63.7875
68.04907	68.4875
72.43941	76.3875
76.82654	81.8875
81.21044	84.9875
85.59113	90.1875
89.96862	94.3875
94.34289	95.7875
98.71396	99.9875
103.08183	99.1875
107.4465	101.2875
111.80798	101.3875
116.16626	102.2875
120.52136	102.5875
124.87327	103.4875
129.222	102.1875
133.56755	103.9875
137.90993	103.8875
142.24913	103.3875
146.58517	103.8875
150.91804	103.3875
155.24774	116.2875
159.57429	120.9875
163.89768	134.0875
168.21792	155.8875
172.53501	189.4875
176.84895	234.1875
181.15975	308.3875
185.46741	415.6875
189.77193	552.5875
194.07331	720.2875
198.37157	917.8875
202.6667	1122.0875
206.9587	1321.7875
211.24758	1506.2875
215.53334	1686.0875
219.81599	1879.3875
224.09553	2070.8875
228.37195	2299.3875
232.64527	2555.4875
236.91549	2814.9875
241.18261	3087.4875
245.44663	3392.5875
249.70755	3681.6875
253.96539	3944.5875
258.22014	4178.3875
262.4718	4338.8875
266.72039	4450.3875
270.96589	4516.4875
275.20832	4532.8875
279.44768	4524.5875
283.68397	4480.8875
287.91719	4430.4875
292.14735	4388.6875
296.37445	4347.2875
300.59849	4321.4875
304.81948	4292.4875
309.03742	4292.9875
313.25231	4316.6875
317.46415	4329.4875
321.67296	4348.3875
325.87872	4376.0875
330.08145	4415.0875
334.28114	4463.6875
338.47781	4532.8875
342.67145	4606.3875
346.86207	4676.3875
351.04966	4732.3875
355.23424	4815.4875
359.4158	4883.4875
363.59435	4947.6875
367.76989	5033.2875
371.94243	5118.8875
376.11196	5179.1875
380.27849	5256.0875
384.44203	5326.5875
388.60257	5376.9875
392.76012	5459.7875
396.91468	5527.4875
401.06626	5603.7875
405.21485	5652.7875
409.36047	5725.8875
413.50311	5786.0875
417.64277	5863.7875
421.77947	5928.8875
425.9132	6002.9875
430.04396	6089.2875
434.17176	6164.5875
438.2966	6218.8875
442.41849	6273.2875
446.53742	6341.5875
450.6534	6428.3875
454.76644	6452.1875
458.87653	6513.8875
462.98368	6557.5875
467.08789	6600.1875
471.18916	6627.4875
475.2875	6683.1875
479.38291	6717.6875
483.4754	6773.0875
487.56496	6816.8875
491.6516	6887.8875
495.73531	6905.4875
499.81612	6923.1875
503.89401	6969.9875
507.96899	6992.6875
512.04106	7025.1875
516.11023	7050.2875
520.1765	7103.3875
524.23987	7166.6875
528.30034	7216.4875
532.35792	7302.6875
536.41261	7378.6875
540.46441	7450.6875
544.51333	7531.3875
548.55936	7613.4875
552.60252	7671.8875
556.64279	7733.0875
560.6802	7786.8875
564.71473	7810.2875
568.7464	7844.1875
572.7752	7900.6875
576.80114	7908.4875
580.82422	7931.0875
584.84444	7966.4875
588.86181	8009.4875
592.87633	8051.6875
596.888	8084.5875
600.89682	8120.1875
604.9028	8147.4875
608.90594	8180.4875
612.90624	8234.6875
616.90371	8273.7875
620.89834	8245.7875
624.89015	8293.2875
628.87913	8295.9875
632.86528	8339.9875
636.84862	8388.0875
640.82913	8414.8875
644.80683	8454.7875
648.78172	8486.2875
652.75379	8535.9875
656.72306	8557.5875
660.68952	8609.5875
664.65319	8625.6875
668.61405	8670.2875
672.57211	8710.7875
676.52738	8768.9875
680.47986	8798.6875
684.42955	8822.9875
688.37646	8893.2875
692.32058	8946.2875
696.26192	8978.2875
700.20048	9054.9875
704.13626	9116.5875
708.06928	9151.5875
711.99952	9179.8875
715.927	9209.1875
719.85171	9257.0875
723.77365	9295.8875
727.69284	9345.5875
731.60928	9340.4875
735.52295	9405.6875
739.43388	9448.0875
743.34206	9505.1875
747.24749	9559.4875
751.15017	9590.5875
755.05012	9651.1875
758.94733	9684.7875
762.8418	9737.5875
766.73354	9813.6875
770.62254	9872.2875
774.50882	9929.4875
778.39237	9986.9875
782.27321	10014.7875
786.15132	10038.8875
790.02671	10053.0875
793.89938	10067.2875
797.76935	10122.9875
801.6366	10185.9875
805.50115	10199.4875
809.36299	10254.6875
813.22213	10282.8875
817.07857	10364.5875
820.93231	10380.2875
824.78336	10440.1875
828.63172	10469.1875
832.47738	10502.5875
836.32036	10564.2875
840.16066	10580.9875
843.99827	10630.8875
847.8332	10688.3875
851.66546	10744.9875
855.49504	10785.8875
859.32195	10864.1875
863.1462	10897.4875
866.96777	10991.8875
870.78668	11060.1875
874.60293	11118.1875
878.41652	11207.0875
882.22745	11238.4875
886.03573	11278.7875
889.84136	11320.0875
893.64433	11357.3875
897.44466	11410.7875
901.24235	11439.4875
905.0374	11478.1875
908.8298	11514.3875
912.61957	11550.4875
916.40671	11588.9875
920.19121	11639.2875
923.97308	11690.0875
927.75233	11744.9875
931.52895	11817.1875
935.30295	11830.2875
939.07433	11892.6875
942.84309	11924.2875
946.60924	11968.8875
950.37278	11981.8875
954.13371	12027.6875
957.89203	12059.5875
961.64774	12072.4875
965.40086	12105.5875
969.15137	12146.0875
972.89929	12187.7875
976.64461	12213.8875
980.38733	12273.7875
984.12747	12300.0875
987.86502	12379.7875
991.59999	12416.5875
995.33237	12468.5875
999.06217	12555.5875
1002.78939	12604.6875
1006.51404	12670.7875
1010.23611	12732.0875
1013.95561	12799.5875
1017.67255	12867.9875
1021.38692	12925.0875
1025.09872	12992.9875
1028.80796	13047.1875
1032.51465	13114.5875
1036.21877	13183.6875
1039.92035	13254.3875
1043.61937	13343.8875
1047.31584	13442.4875
1051.00976	13504.2875
1054.70114	13613.1875
1058.38998	13672.5875
1062.07627	13757.2875
1065.76003	13931.5875
1069.44126	14006.5875
1073.11995	14083.3875
1076.79611	14182.6875
1080.46974	14247.0875
1084.14085	14303.2875
1087.80943	14392.3875
1091.47549	14485.7875
1095.13903	14505.6875
1098.80005	14567.7875
1102.45857	14618.8875
1106.11456	14645.4875
1109.76805	14688.2875
1113.41903	14735.7875
1117.06751	14753.9875
1120.71348	14809.0875
1124.35696	14851.6875
1127.99793	14869.3875
1131.63641	14858.8875
1135.2724	14937.4875
1138.90589	14950.8875
1142.5369	14981.6875
1146.16542	14983.5875
1149.79145	14966.8875
1153.415	15038.5875
1157.03607	15086.9875
1160.65467	15103.2875
1164.27079	15153.6875
1167.88443	15222.1875
1171.49561	15266.7875
1175.10432	15356.6875
1178.71056	15467.8875
1182.31434	15577.4875
1185.91565	15585.2875
1189.51451	15655.4875
1193.11091	15679.1875
1196.70485	15713.4875
1200.29634	15786.5875
1203.88538	15813.5875
1207.47197	15849.5875
1211.05612	15900.1875
1214.63782	15960.6875
1218.21708	15985.6875
1221.79391	16028.3875
1225.36829	16066.7875
1228.94024	16143.4875
1232.50976	16189.0875
1236.07685	16267.3875
1239.6415	16321.7875
1243.20374	16439.1875
1246.76355	16511.2875
1250.32093	16579.8875
1253.8759	16634.5875
1257.42845	16698.2875
1260.97859	16745.7875
1264.52631	16759.5875
1268.07163	16801.3875
1271.61453	16807.0875
1275.15503	16856.6875
1278.69312	16856.7875
1282.22882	16854.3875
1285.76211	16902.0875
1289.29301	16931.6875
1292.82151	16980.6875
1296.34761	17026.8875
1299.87133	17089.0875
1303.39266	17171.8875
1306.9116	17227.4875
1310.42815	17306.5875
1313.94233	17316.3875
1317.45412	17358.3875
1320.96354	17389.5875
1324.47058	17356.5875
1327.97525	17342.4875
1331.47754	17289.4875
1334.97747	17257.2875
1338.47502	17264.3875
1341.97022	17294.8875
1345.46305	17300.8875
1348.95352	17372.9875
1352.44163	17421.3875
1355.92738	17404.2875
1359.41078	17446.3875
1362.89183	17506.3875
1366.37053	17505.4875
1369.84688	17477.9875
1373.32088	17460.6875
1376.79254	17425.8875
1380.26186	17417.2875
1383.72883	17404.3875
1387.19347	17384.2875
1390.65578	17342.1875
1394.11575	17295.5875
1397.57339	17260.2875
1401.0287	17270.9875
1404.48168	17278.4875
1407.93234	17310.5875
1411.38068	17309.7875
1414.82669	17323.1875
1418.27039	17339.9875
1421.71177	17361.2875
1425.15083	17377.7875
1428.58758	17370.1875
1432.02203	17424.9875
1435.45416	17413.2875
1438.88399	17418.4875
1442.31151	17441.0875
1445.73673	17476.3875
1449.15965	17479.6875
1452.58027	17499.7875
1455.9986	17536.2875
1459.41463	17555.0875
1462.82837	17603.5875
1466.23982	17650.8875
1469.64898	17727.1875
1473.05586	17832.0875
1476.46045	17845.3875
1479.86276	17951.1875
1483.26279	18026.8875
1486.66054	18086.0875
1490.05602	18209.3875
1493.44922	18262.7875
1496.84016	18305.0875
1500.22882	18383.3875
1503.61521	18486.7875
1506.99934	18554.2875
1510.38121	18649.1875
1513.76081	18700.2875
1517.13816	18760.0875
1520.51324	18832.8875
1523.88607	18943.3875
1527.25665	18984.2875
1530.62498	19086.4875
1533.99105	19130.5875
1537.35488	19231.0875
1540.71647	19356.7875
1544.07581	19450.5875
1547.4329	19504.8875
1550.78776	19574.3875
1554.14038	19658.5875
1557.49077	19736.7875
1560.83892	19774.1875
1564.18484	19821.2875
1567.52853	19865.6875
1570.86999	19898.0875
1574.20922	19945.3875
1577.54624	19982.1875
1580.88103	20058.8875
1584.2136	20138.1875
1587.54395	20167.8875
1590.87208	20224.9875
1594.19801	20311.8875
1597.52172	20342.4875
1600.84321	20407.9875
1604.16251	20463.5875
1607.47959	20551.4875
1610.79447	20574.9875
1614.10715	20575.3875
1617.41763	20609.4875
1620.7259	20640.9875
1624.03199	20667.4875
1627.33587	20669.8875
1630.63757	20688.0875
1633.93707	20694.9875
1637.23439	20737.5875
1640.52951	20768.6875
1643.82246	20837.1875
1647.11321	20895.6875
1650.40179	20937.4875
1653.68819	21019.1875
1656.97241	21048.1875
1660.25446	21092.2875
1663.53433	21137.2875
1666.81203	21092.6875
1670.08756	21104.7875
1673.36092	21079.5875
1676.63211	21119.4875
1679.90115	21100.4875
1683.16801	21103.2875
1686.43272	21143.4875
1689.69527	21157.4875
1692.95567	21177.3875
1696.2139	21293.3875
1699.46999	21422.4875
1702.72392	21461.5875
1705.97571	21480.5875
1709.22535	21458.4875
1712.47284	21468.8875
1715.71819	21555.6875
1718.96139	21579.9875
1722.20246	21627.0875
1725.44139	21613.3875
1728.67818	21638.1875
1731.91284	21682.0875
1735.14537	21682.1875
1738.37576	21739.5875
1741.60403	21739.2875
1744.83017	21761.8875
1748.05418	21804.3875
1751.27607	21830.5875
1754.49584	21909.6875
1757.71349	21975.1875
1760.92903	22032.9875
1764.14244	22056.3875
1767.35375	22152.8875
1770.56294	22183.6875
1773.77002	22168.2875
1776.97499	22186.8875
1780.17785	22206.3875
1783.37861	22250.5875
1786.57727	22279.6875
1789.77382	22292.7875
1792.96828	22340.7875
1796.16064	22323.1875
1799.3509	22350.8875
1802.53907	22416.0875
1805.72514	22443.9875
1808.90913	22397.3875
1812.09102	22456.9875
1815.27083	22442.7875
1818.44856	22518.3875
1821.6242	22531.5875
1824.79776	22559.9875
1827.96924	22554.2875
1831.13864	22584.7875
1834.30597	22614.6875
1837.47122	22672.2875
1840.6344	22652.9875
1843.7955	22683.2875
1846.95454	22735.0875
1850.11151	22813.8875
1853.26642	22865.3875
1856.41926	22904.8875
1859.57004	22977.4875
1862.71876	23001.3875
1865.86542	23008.4875
1869.01003	23000.6875
1872.15258	23074.6875
1875.29308	23101.8875
1878.43152	23128.9875
1881.56792	23115.7875
1884.70227	23137.2875
1887.83457	23177.6875
1890.96482	23205.1875
1894.09304	23186.4875
1897.21921	23211.1875
1900.34335	23219.6875
1903.46544	23277.1875
1906.58551	23286.2875
1909.70353	23370.0875
1912.81953	23394.9875
1915.93349	23409.1875
1919.04543	23444.5875
1922.15534	23502.8875
1925.26322	23544.3875
1928.36908	23514.9875
1931.47292	23532.1875
1934.57473	23511.1875
1937.67453	23516.3875
1940.77232	23548.4875
1943.86808	23561.1875
1946.96184	23577.2875
1950.05358	23584.3875
1953.14331	23585.5875
1956.23103	23494.0875
1959.31675	23488.6875
1962.40046	23467.3875
1965.48217	23495.0875
1968.56188	23471.7875
1971.63959	23465.3875
1974.7153	23464.1875
1977.78901	23435.6875
1980.86073	23469.5875
1983.93046	23498.6875
1986.99819	23433.6875
1990.06394	23450.7875
1993.1277	23429.0875
1996.18947	23411.2875
1999.24925	23416.3875
2002.30706	23428.5875
2005.36288	23368.3875
2008.41672	23375.3875
2011.46859	23372.6875
2014.51848	23413.3875
2017.56639	23397.3875
2020.61233	23377.5875
2023.6563	23306.2875
2026.6983	23252.2875
2029.73833	23228.7875
2032.7764	23236.2875
2035.8125	23309.3875
2038.84664	23266.3875
2041.87881	23258.9875
2044.90903	23270.8875
2047.93729	23302.4875
2050.96359	23373.0875
2053.98794	23354.6875
2057.01034	23390.9875
2060.03078	23434.6875
2063.04927	23459.1875
2066.06582	23529.7875
2069.08042	23574.5875
2072.09307	23600.6875
2075.10378	23627.5875
2078.11255	23661.1875
2081.11938	23679.2875
2084.12426	23759.7875
2087.12722	23791.5875
2090.12824	23766.8875
2093.12732	23855.9875
2096.12447	23892.9875
2099.11969	23979.4875
2102.11299	24031.2875
2105.10435	24068.7875
2108.09379	24162.7875
2111.08131	24263.8875
2114.0669	24295.7875
2117.05057	24401.8875
2120.03233	24450.6875
2123.01216	24493.6875
2125.99008	24570.8875
2128.96609	24679.1875
2131.94018	24730.1875
2134.91236	24828.6875
2137.88263	24858.9875
2140.851	24928.0875
2143.81746	25001.6875
2146.78201	25065.6875
2149.74466	25057.0875
2152.7054	25123.0875
2155.66425	25223.1875
2158.6212	25277.6875
2161.57625	25271.7875
2164.52941	25303.5875
2167.48067	25380.0875
2170.43004	25446.7875
2173.37752	25528.5875
2176.32311	25599.5875
2179.26681	25632.3875
2182.20863	25722.0875
2185.14856	25750.4875
2188.08661	25802.2875
2191.02278	25869.0875
2193.95707	25858.4875
2196.88948	25907.2875
2199.82001	25953.3875
2202.74867	25951.0875
2205.67545	25973.7875
2208.60037	25991.1875
2211.52341	25980.8875
2214.44458	25971.4875
2217.36388	25969.1875
2220.28132	25979.2875
2223.1969	25974.7875
2226.11061	26010.4875
2229.02246	25964.5875
2231.93245	26032.7875
2234.84058	26031.4875
2237.74686	26036.5875
2240.65128	26092.4875
2243.55385	26116.4875
2246.45456	26140.5875
2249.35343	26152.5875
2252.25044	26173.8875
2255.14561	26182.8875
2258.03893	26277.1875
2260.93041	26277.5875
2263.82004	26238.1875
2266.70783	26278.1875
2269.59378	26179.6875
2272.4779	26183.8875
2275.36017	26214.0875
2278.24061	26191.4875
2281.11922	26206.9875
2283.996	26255.7875
2286.87094	26287.4875
2289.74405	26251.9875
2292.61534	26260.0875
2295.4848	26278.5875
2298.35243	26274.3875
2301.21824	26318.6875
2304.08223	26389.2875
2306.94439	26431.8875
2309.80474	26471.6875
2312.66327	26460.1875
2315.51999	26486.5875
2318.37489	26571.4875
2321.22797	26526.8875
2324.07925	26511.2875
2326.92871	26513.9875
2329.77637	26526.9875
2332.62222	26530.6875
2335.46626	26539.8875
2338.3085	26522.8875
2341.14893	26544.6875
2343.98756	26606.4875
2346.8244	26607.9875
2349.65943	26623.8875
2352.49267	26649.8875
2355.32411	26654.5875
2358.15376	26687.6875
2360.98161	26694.4875
2363.80768	26779.9875
2366.63195	26786.7875
2369.45444	26813.7875
2372.27514	26825.3875
2375.09405	26854.4875
2377.91118	26877.4875
2380.72652	26859.6875
2383.54009	26867.4875
2386.35187	26872.5875
2389.16188	26805.0875
2391.97011	26782.6875
2394.77657	26823.4875
2397.58125	26816.0875
2400.38416	26798.9875
2403.18529	26778.9875
2405.98466	26837.2875
2408.78226	26865.8875
2411.57809	26923.7875
2414.37216	26930.8875
2417.16446	26987.6875
2419.955	26937.5875
2422.74378	26979.3875
2425.5308	27047.9875
2428.31606	27094.3875
2431.09956	27155.8875
2433.88131	27130.1875
2436.6613	27132.8875
2439.43954	27155.3875
2442.21603	27082.9875
2444.99077	27099.5875
2447.76377	27123.7875
2450.53501	27199.9875
2453.30451	27210.7875
2456.07226	27158.1875
2458.83827	27149.1875
2461.60254	27213.7875
2464.36507	27232.9875
2467.12586	27259.8875
2469.88492	27229.5875
2472.64224	27230.5875
2475.39782	27225.6875
2478.15167	27326.0875
2480.90379	27304.2875
2483.65417	27421.1875
2486.40283	27427.5875
2489.14976	27463.1875
2491.89497	27479.4875
2494.63845	27538.8875
2497.3802	27562.2875
2500.12024	27557.9875
2502.85855	27566.6875
2505.59514	27507.8875
2508.33002	27483.9875
2511.06318	27544.9875
2513.79462	27554.1875
2516.52435	27502.1875
2519.25237	27505.9875
2521.97867	27524.8875
2524.70327	27546.4875
2527.42616	27563.1875
2530.14734	27614.5875
2532.86681	27700.6875
2535.58458	27727.7875
2538.30065	27728.6875
2541.01501	27732.6875
2543.72768	27753.3875
2546.43864	27703.5875
2549.14791	27713.1875
2551.85548	27731.5875
2554.56136	27661.6875
2557.26554	27645.2875
2559.96803	27666.5875
2562.66883	27618.4875
2565.36794	27639.3875
2568.06536	27613.5875
2570.7611	27575.2875
2573.45514	27584.6875
2576.14751	27572.1875
2578.83819	27570.7875
2581.52719	27569.7875
2584.21451	27563.3875
2586.90015	27579.5875
2589.58411	27562.9875
2592.2664	27545.5875
2594.94701	27510.3875
2597.62594	27559.7875
2600.30321	27491.6875
2602.9788	27523.0875
2605.65273	27553.8875
2608.32498	27576.1875
2610.99557	27554.9875
2613.66449	27620.7875
2616.33175	27579.9875
2618.99734	27538.2875
2621.66128	27517.5875
2624.32355	27553.5875
2626.98416	27504.2875
2629.64311	27468.6875
2632.30041	27449.3875
2634.95605	27404.3875
2637.61004	27395.5875
2640.26238	27464.9875
2642.91306	27455.8875
2645.56209	27442.6875
2648.20948	27447.2875
2650.85521	27460.2875
2653.4993	27477.0875
2656.14175	27504.0875
2658.78255	27573.7875
2661.42171	27586.9875
2664.05923	27666.6875
2666.6951	27658.2875
2669.32934	27738.0875
2671.96194	27733.3875
2674.59291	27804.9875
2677.22224	27814.7875
2679.84993	27793.8875
2682.476	27795.2875
2685.10043	27851.2875
2687.72324	27861.5875
2690.34441	27887.6875
2692.96396	27890.4875
2695.58188	27985.7875
2698.19818	27966.1875
2700.81285	27996.0875
2703.4259	28053.6875
2706.03733	28170.3875
2708.64714	28058.5875
2711.25533	28110.8875
2713.86191	28178.2875
2716.46687	28253.1875
2719.07021	28268.8875
2721.67194	28390.2875
2724.27206	28408.1875
2726.87057	28470.4875
2729.46747	28471.4875
2732.06276	28496.8875
2734.65644	28532.7875
2737.24852	28512.2875
2739.83899	28464.0875
2742.42786	28562.3875
2745.01513	28580.0875
2747.60079	28588.5875
2750.18486	28580.5875
2752.76733	28587.1875
2755.3482	28559.0875
2757.92747	28571.9875
2760.50515	28496.6875
2763.08123	28528.8875
2765.65573	28481.2875
2768.22863	28482.0875
2770.79994	28454.2875
2773.36967	28496.9875
2775.9378	28474.8875
2778.50435	28468.5875
2781.06932	28485.3875
2783.6327	28557.7875
2786.1945	28570.2875
2788.75471	28614.4875
2791.31335	28563.3875
2793.87041	28544.4875
2796.42589	28464.3875
2798.97979	28452.0875
2801.53212	28439.3875
2804.08288	28413.1875
2806.63206	28370.8875
2809.17967	28362.2875
2811.72571	28263.9875
2814.27018	28229.8875
2816.81308	28194.2875
2819.35442	28163.8875
2821.89419	28119.4875
2824.43239	28126.9875
2826.96904	28056.2875
2829.50412	28082.4875
2832.03763	28103.0875
2834.56959	28106.0875
2837.1	28096.5875
2839.62884	28091.6875
2842.15613	28083.7875
2844.68186	28152.7875
2847.20604	28146.4875
2849.72867	28176.2875
2852.24974	28147.9875
2854.76927	28145.3875
2857.28724	28099.9875
2859.80367	28078.3875
2862.31855	28055.4875
2864.83189	28014.5875
2867.34368	27990.8875
2869.85393	28013.8875
2872.36264	27992.4875
2874.8698	28021.8875
2877.37543	28087.6875
2879.87952	28068.0875
2882.38207	28079.4875
2884.88308	28025.2875
2887.38256	28071.9875
2889.88051	28081.5875
2892.37692	28140.6875
2894.8718	28233.7875
2897.36515	28280.6875
2899.85698	28258.7875
2902.34727	28325.0875
2904.83604	28351.1875
2907.32328	28465.2875
2909.809	28512.0875
2912.29319	28508.4875
2914.77587	28539.0875
2917.25702	28540.0875
2919.73665	28524.7875
2922.21476	28603.4875
2924.69136	28610.2875
2927.16644	28671.2875
2929.64	28595.0875
2932.11205	28590.2875
2934.58258	28558.3875
2937.05161	28611.6875
2939.51912	28669.4875
2941.98513	28655.9875
2944.44962	28663.6875
2946.91261	28614.3875
2949.37409	28696.9875
2951.83407	28709.2875
2954.29254	28772.6875
2956.74951	28844.7875
2959.20498	28913.7875
2961.65895	28870.4875
2964.11142	28973.6875
2966.56239	28981.3875
2969.01186	29044.4875
2971.45984	29010.5875
2973.90632	29042.4875
2976.35131	29067.8875
2978.7948	29036.7875
2981.23681	29029.0875
2983.67732	29037.6875
2986.11635	29051.7875
2988.55388	28985.0875
2990.98993	28953.0875
2993.4245	28866.8875
2995.85758	28926.1875
2998.28917	28878.0875
3000.71928	28861.9875
3003.14791	28819.9875
3005.57506	28809.6875
3008.00073	28746.8875
3010.42493	28747.3875
3012.84764	28768.0875
3015.26888	28816.3875
3017.68865	28692.2875
3020.10694	28711.0875
3022.52376	28680.4875
3024.9391	28708.3875
3027.35298	28689.5875
3029.76539	28725.7875
3032.17632	28801.7875
3034.5858	28745.9875
3036.9938	28795.6875
3039.40034	28821.6875
3041.80542	28809.0875
