Data from AgNPs_APTES_FTO_UA_100uM_CRN_0uM_R6G_10uM_Scan_RamanShift__37__12-47-13-551.txt Node

Date: Thu Jun 23 12:47:13 BST 2022
User: TCL
Spectrometer: QEP01345
Trigger mode: 4
Integration Time (sec): 7.000000E0
Scans to average: 10
Electric dark correction enabled: true
Nonlinearity correction enabled: false
Boxcar width: 0
XAxis mode: Raman Shifts
Number of Pixels in Spectrum: 1044
>>>>>Begin Spectral Data<<<<<
46.04893	-2.725
50.45542	-0.725
54.85868	-1.325
59.25871	-2.025
63.6555	62.075
68.04907	68.775
72.43941	74.275
76.82654	82.175
81.21044	85.575
85.59113	85.275
89.96862	91.475
94.34289	91.375
98.71396	96.675
103.08183	96.175
107.4465	100.575
111.80798	96.675
116.16626	100.575
120.52136	103.075
124.87327	97.575
129.222	99.375
133.56755	102.475
137.90993	99.275
142.24913	100.975
146.58517	98.275
150.91804	101.575
155.24774	111.775
159.57429	117.375
163.89768	130.475
168.21792	149.075
172.53501	191.075
176.84895	231.975
181.15975	305.275
185.46741	413.275
189.77193	546.575
194.07331	715.675
198.37157	909.975
202.6667	1113.375
206.9587	1308.375
211.24758	1493.275
215.53334	1670.375
219.81599	1857.175
224.09553	2064.275
228.37195	2279.675
232.64527	2523.675
236.91549	2798.175
241.18261	3067.675
245.44663	3380.475
249.70755	3661.975
253.96539	3910.075
258.22014	4128.375
262.4718	4314.075
266.72039	4404.175
270.96589	4471.875
275.20832	4494.775
279.44768	4473.575
283.68397	4444.675
287.91719	4407.475
292.14735	4350.175
296.37445	4310.275
300.59849	4270.875
304.81948	4264.375
309.03742	4264.275
313.25231	4273.575
317.46415	4293.675
321.67296	4306.875
325.87872	4330.075
330.08145	4373.075
334.28114	4427.075
338.47781	4496.075
342.67145	4544.675
346.86207	4616.375
351.04966	4677.975
355.23424	4775.675
359.4158	4849.875
363.59435	4914.675
367.76989	4983.075
371.94243	5067.075
376.11196	5128.775
380.27849	5212.475
384.44203	5276.075
388.60257	5335.475
392.76012	5433.475
396.91468	5477.675
401.06626	5521.575
405.21485	5599.575
409.36047	5675.275
413.50311	5740.575
417.64277	5811.675
421.77947	5886.775
425.9132	5952.675
430.04396	6041.175
434.17176	6104.575
438.2966	6155.375
442.41849	6220.875
446.53742	6287.175
450.6534	6342.875
454.76644	6392.975
458.87653	6444.275
462.98368	6483.875
467.08789	6532.275
471.18916	6575.975
475.2875	6610.475
479.38291	6660.275
483.4754	6705.675
487.56496	6747.475
491.6516	6801.275
495.73531	6835.275
499.81612	6847.475
503.89401	6898.775
507.96899	6916.175
512.04106	6948.375
516.11023	6993.975
520.1765	7029.775
524.23987	7116.775
528.30034	7162.975
532.35792	7227.875
536.41261	7313.475
540.46441	7368.375
544.51333	7450.375
548.55936	7541.675
552.60252	7587.375
556.64279	7651.275
560.6802	7707.475
564.71473	7728.975
568.7464	7772.675
572.7752	7800.875
576.80114	7835.275
580.82422	7851.675
584.84444	7888.175
588.86181	7931.575
592.87633	7955.175
596.888	7987.675
600.89682	8032.675
604.9028	8085.375
608.90594	8111.875
612.90624	8151.075
616.90371	8201.275
620.89834	8181.575
624.89015	8203.075
628.87913	8198.475
632.86528	8253.875
636.84862	8313.875
640.82913	8327.275
644.80683	8371.775
648.78172	8399.175
652.75379	8426.075
656.72306	8464.575
660.68952	8517.275
664.65319	8537.275
668.61405	8590.575
672.57211	8613.175
676.52738	8676.875
680.47986	8698.875
684.42955	8755.875
688.37646	8790.575
692.32058	8849.275
696.26192	8899.375
700.20048	8944.275
704.13626	9002.175
708.06928	9049.875
711.99952	9095.475
715.927	9126.975
719.85171	9137.775
723.77365	9190.575
727.69284	9225.475
731.60928	9253.175
735.52295	9298.175
739.43388	9351.475
743.34206	9385.475
747.24749	9446.075
751.15017	9492.575
755.05012	9525.975
758.94733	9595.575
762.8418	9640.075
766.73354	9704.875
770.62254	9763.075
774.50882	9819.775
778.39237	9868.675
782.27321	9895.975
786.15132	9917.175
790.02671	9960.675
793.89938	9981.775
797.76935	10022.975
801.6366	10037.575
805.50115	10083.575
809.36299	10152.775
813.22213	10191.175
817.07857	10218.875
820.93231	10270.075
824.78336	10318.575
828.63172	10367.075
832.47738	10413.175
836.32036	10428.275
840.16066	10477.775
843.99827	10538.875
847.8332	10575.275
851.66546	10624.775
855.49504	10680.875
859.32195	10736.975
863.1462	10807.075
866.96777	10872.875
870.78668	10920.075
874.60293	11020.375
878.41652	11074.775
882.22745	11111.175
886.03573	11153.075
889.84136	11210.975
893.64433	11251.075
897.44466	11247.675
901.24235	11286.375
905.0374	11344.875
908.8298	11384.075
912.61957	11420.275
916.40671	11490.075
920.19121	11513.975
923.97308	11569.375
927.75233	11626.375
931.52895	11664.875
935.30295	11694.575
939.07433	11738.075
942.84309	11797.075
946.60924	11823.375
950.37278	11874.875
954.13371	11888.275
957.89203	11916.775
961.64774	11955.575
965.40086	11994.575
969.15137	12017.775
972.89929	12063.275
976.64461	12090.975
980.38733	12124.875
984.12747	12190.275
987.86502	12226.875
991.59999	12278.275
995.33237	12348.075
999.06217	12423.975
1002.78939	12462.975
1006.51404	12524.475
1010.23611	12604.575
1013.95561	12637.575
1017.67255	12690.875
1021.38692	12766.175
1025.09872	12819.875
1028.80796	12917.275
1032.51465	12966.075
1036.21877	13032.175
1039.92035	13121.475
1043.61937	13172.375
1047.31584	13297.675
1051.00976	13385.775
1054.70114	13449.475
1058.38998	13537.375
1062.07627	13638.775
1065.76003	13769.875
1069.44126	13848.675
1073.11995	13931.275
1076.79611	14023.975
1080.46974	14097.375
1084.14085	14161.475
1087.80943	14226.275
1091.47549	14294.875
1095.13903	14349.875
1098.80005	14378.675
1102.45857	14440.875
1106.11456	14479.775
1109.76805	14557.975
1113.41903	14551.775
1117.06751	14590.175
1120.71348	14642.075
1124.35696	14703.075
1127.99793	14711.875
1131.63641	14730.375
1135.2724	14760.275
1138.90589	14780.475
1142.5369	14804.875
1146.16542	14809.675
1149.79145	14836.475
1153.415	14869.875
1157.03607	14931.275
1160.65467	14944.575
1164.27079	14991.675
1167.88443	15044.075
1171.49561	15120.975
1175.10432	15190.175
1178.71056	15281.975
1182.31434	15347.575
1185.91565	15429.975
1189.51451	15489.075
1193.11091	15509.075
1196.70485	15552.075
1200.29634	15572.675
1203.88538	15621.275
1207.47197	15669.875
1211.05612	15752.175
1214.63782	15782.375
1218.21708	15823.775
1221.79391	15824.575
1225.36829	15898.875
1228.94024	15930.875
1232.50976	16015.175
1236.07685	16078.275
1239.6415	16192.775
1243.20374	16237.375
1246.76355	16312.175
1250.32093	16391.675
1253.8759	16479.675
1257.42845	16524.975
1260.97859	16571.175
1264.52631	16555.775
1268.07163	16606.575
1271.61453	16612.575
1275.15503	16617.875
1278.69312	16628.575
1282.22882	16673.575
1285.76211	16708.775
1289.29301	16756.675
1292.82151	16784.475
1296.34761	16855.375
1299.87133	16946.675
1303.39266	17004.375
1306.9116	17021.775
1310.42815	17131.975
1313.94233	17131.675
1317.45412	17164.575
1320.96354	17177.175
1324.47058	17152.675
1327.97525	17140.775
1331.47754	17103.875
1334.97747	17081.475
1338.47502	17072.075
1341.97022	17077.175
1345.46305	17074.875
1348.95352	17110.275
1352.44163	17195.375
1355.92738	17234.375
1359.41078	17270.375
1362.89183	17298.775
1366.37053	17299.775
1369.84688	17311.875
1373.32088	17222.675
1376.79254	17191.675
1380.26186	17200.275
1383.72883	17155.475
1387.19347	17194.275
1390.65578	17128.675
1394.11575	17079.975
1397.57339	17076.375
1401.0287	17074.075
1404.48168	17097.375
1407.93234	17090.275
1411.38068	17117.475
1414.82669	17135.375
1418.27039	17135.775
1421.71177	17188.175
1425.15083	17190.075
1428.58758	17188.375
1432.02203	17204.775
1435.45416	17219.175
1438.88399	17249.275
1442.31151	17247.675
1445.73673	17284.375
1449.15965	17277.675
1452.58027	17317.975
1455.9986	17345.375
1459.41463	17365.175
1462.82837	17385.475
1466.23982	17426.975
1469.64898	17541.375
1473.05586	17589.875
1476.46045	17648.075
1479.86276	17743.775
1483.26279	17797.275
1486.66054	17921.075
1490.05602	17956.875
1493.44922	18044.875
1496.84016	18114.975
1500.22882	18153.775
1503.61521	18232.875
1506.99934	18358.975
1510.38121	18412.275
1513.76081	18491.275
1517.13816	18555.075
1520.51324	18635.075
1523.88607	18647.175
1527.25665	18780.975
1530.62498	18838.375
1533.99105	18921.275
1537.35488	19023.175
1540.71647	19151.575
1544.07581	19181.275
1547.4329	19280.475
1550.78776	19374.575
1554.14038	19461.975
1557.49077	19456.375
1560.83892	19549.675
1564.18484	19592.975
1567.52853	19620.875
1570.86999	19698.875
1574.20922	19705.475
1577.54624	19756.975
1580.88103	19856.775
1584.2136	19900.875
1587.54395	19944.475
1590.87208	20001.375
1594.19801	20044.175
1597.52172	20119.275
1600.84321	20197.775
1604.16251	20231.475
1607.47959	20284.975
1610.79447	20332.275
1614.10715	20340.275
1617.41763	20333.175
1620.7259	20375.075
1624.03199	20425.075
1627.33587	20408.675
1630.63757	20448.975
1633.93707	20456.475
1637.23439	20500.375
1640.52951	20546.475
1643.82246	20589.775
1647.11321	20659.475
1650.40179	20705.675
1653.68819	20737.475
1656.97241	20819.775
1660.25446	20874.375
1663.53433	20872.875
1666.81203	20859.975
1670.08756	20813.875
1673.36092	20855.675
1676.63211	20868.875
1679.90115	20906.575
1683.16801	20871.775
1686.43272	20874.175
1689.69527	20948.075
1692.95567	20986.375
1696.2139	21037.775
1699.46999	21152.475
1702.72392	21236.575
1705.97571	21214.075
1709.22535	21200.675
1712.47284	21230.175
1715.71819	21297.275
1718.96139	21364.575
1722.20246	21335.775
1725.44139	21397.575
1728.67818	21411.975
1731.91284	21428.875
1735.14537	21481.775
1738.37576	21454.475
1741.60403	21517.375
1744.83017	21502.575
1748.05418	21525.275
1751.27607	21581.775
1754.49584	21653.875
1757.71349	21726.775
1760.92903	21769.175
1764.14244	21866.275
1767.35375	21864.875
1770.56294	21950.775
1773.77002	21938.375
1776.97499	21976.975
1780.17785	21986.675
1783.37861	22025.675
1786.57727	22035.975
1789.77382	22051.975
1792.96828	22031.175
1796.16064	22039.575
1799.3509	22119.275
1802.53907	22162.075
1805.72514	22175.475
1808.90913	22160.575
1812.09102	22141.975
1815.27083	22178.375
1818.44856	22249.875
1821.6242	22294.475
1824.79776	22286.975
1827.96924	22317.075
1831.13864	22341.675
1834.30597	22385.875
1837.47122	22401.475
1840.6344	22393.575
1843.7955	22401.375
1846.95454	22484.275
1850.11151	22550.475
1853.26642	22604.775
1856.41926	22630.975
1859.57004	22725.975
1862.71876	22740.075
1865.86542	22717.175
1869.01003	22744.475
1872.15258	22821.575
1875.29308	22877.775
1878.43152	22896.875
1881.56792	22858.875
1884.70227	22865.875
1887.83457	22918.075
1890.96482	22918.175
1894.09304	22937.775
1897.21921	22956.575
1900.34335	22951.475
1903.46544	23038.275
1906.58551	23039.875
1909.70353	23038.675
1912.81953	23128.775
1915.93349	23111.675
1919.04543	23157.875
1922.15534	23238.175
1925.26322	23230.575
1928.36908	23251.875
1931.47292	23266.675
1934.57473	23253.975
1937.67453	23233.475
1940.77232	23269.575
1943.86808	23299.475
1946.96184	23302.775
1950.05358	23309.975
1953.14331	23309.875
1956.23103	23249.175
1959.31675	23202.575
1962.40046	23219.175
1965.48217	23235.075
1968.56188	23180.575
1971.63959	23212.575
1974.7153	23215.575
1977.78901	23155.775
1980.86073	23218.675
1983.93046	23198.675
1986.99819	23172.375
1990.06394	23179.775
1993.1277	23124.875
1996.18947	23141.775
1999.24925	23149.075
2002.30706	23125.675
2005.36288	23119.075
2008.41672	23132.375
2011.46859	23139.475
2014.51848	23172.975
2017.56639	23124.575
2020.61233	23096.175
2023.6563	23032.075
2026.6983	23012.275
2029.73833	22966.475
2032.7764	23002.575
2035.8125	23026.175
2038.84664	23013.275
2041.87881	23004.275
2044.90903	22990.675
2047.93729	23030.775
2050.96359	23059.575
2053.98794	23073.275
2057.01034	23098.575
2060.03078	23137.775
2063.04927	23213.875
2066.06582	23269.875
2069.08042	23336.275
2072.09307	23280.875
2075.10378	23371.475
2078.11255	23390.475
2081.11938	23444.575
2084.12426	23483.675
2087.12722	23498.575
2090.12824	23543.875
2093.12732	23597.675
2096.12447	23646.575
2099.11969	23704.775
2102.11299	23733.075
2105.10435	23797.775
2108.09379	23848.375
2111.08131	23945.175
2114.0669	23985.975
2117.05057	24114.275
2120.03233	24162.075
2123.01216	24194.675
2125.99008	24274.375
2128.96609	24351.575
2131.94018	24459.075
2134.91236	24511.675
2137.88263	24576.875
2140.851	24671.875
2143.81746	24708.375
2146.78201	24733.475
2149.74466	24797.575
2152.7054	24858.275
2155.66425	24948.975
2158.6212	24991.475
2161.57625	25014.675
2164.52941	25006.575
2167.48067	25071.675
2170.43004	25171.275
2173.37752	25279.075
2176.32311	25298.375
2179.26681	25388.775
2182.20863	25382.975
2185.14856	25443.675
2188.08661	25479.975
2191.02278	25563.975
2193.95707	25534.175
2196.88948	25602.375
2199.82001	25600.875
2202.74867	25665.475
2205.67545	25640.275
2208.60037	25741.175
2211.52341	25725.275
2214.44458	25721.375
2217.36388	25684.075
2220.28132	25692.575
2223.1969	25686.975
2226.11061	25680.575
2229.02246	25682.975
2231.93245	25691.175
2234.84058	25729.975
2237.74686	25740.475
2240.65128	25775.675
2243.55385	25774.675
2246.45456	25804.075
2249.35343	25835.075
2252.25044	25898.475
2255.14561	25904.475
2258.03893	25936.375
2260.93041	25962.875
2263.82004	25940.875
2266.70783	25909.275
2269.59378	25903.575
2272.4779	25906.875
2275.36017	25907.175
2278.24061	25888.275
2281.11922	25892.275
2283.996	25920.575
2286.87094	25967.275
2289.74405	25953.675
2292.61534	25989.375
2295.4848	25976.275
2298.35243	25999.875
2301.21824	26003.275
2304.08223	26100.175
2306.94439	26141.275
2309.80474	26183.875
2312.66327	26164.975
2315.51999	26158.475
2318.37489	26189.275
2321.22797	26197.475
2324.07925	26182.275
2326.92871	26151.275
2329.77637	26230.375
2332.62222	26203.575
2335.46626	26220.975
2338.3085	26215.875
2341.14893	26213.175
2343.98756	26307.975
2346.8244	26302.375
2349.65943	26335.675
2352.49267	26328.875
2355.32411	26344.875
2358.15376	26348.675
2360.98161	26409.175
2363.80768	26467.475
2366.63195	26488.075
2369.45444	26498.975
2372.27514	26538.075
2375.09405	26559.175
2377.91118	26556.175
2380.72652	26572.975
2383.54009	26586.375
2386.35187	26529.075
2389.16188	26509.875
2391.97011	26473.475
2394.77657	26512.475
2397.58125	26515.875
2400.38416	26490.575
2403.18529	26485.575
2405.98466	26518.775
2408.78226	26538.975
2411.57809	26621.875
2414.37216	26661.575
2417.16446	26688.675
2419.955	26616.675
2422.74378	26730.575
2425.5308	26710.175
2428.31606	26782.175
2431.09956	26817.775
2433.88131	26819.175
2436.6613	26836.875
2439.43954	26817.075
2442.21603	26836.975
2444.99077	26814.075
2447.76377	26826.375
2450.53501	26870.475
2453.30451	26887.675
2456.07226	26805.975
2458.83827	26851.075
2461.60254	26926.575
2464.36507	26909.075
2467.12586	26882.775
2469.88492	26897.975
2472.64224	26927.975
2475.39782	26930.975
2478.15167	27005.775
2480.90379	27010.475
2483.65417	27061.275
2486.40283	27108.975
2489.14976	27123.775
2491.89497	27153.575
2494.63845	27215.775
2497.3802	27219.675
2500.12024	27195.575
2502.85855	27206.475
2505.59514	27178.975
2508.33002	27199.575
2511.06318	27222.175
2513.79462	27203.775
2516.52435	27175.975
2519.25237	27152.375
2521.97867	27185.675
2524.70327	27236.575
2527.42616	27231.275
2530.14734	27281.775
2532.86681	27347.975
2535.58458	27429.775
2538.30065	27392.275
2541.01501	27386.375
2543.72768	27404.475
2546.43864	27406.775
2549.14791	27388.575
2551.85548	27399.775
2554.56136	27353.975
2557.26554	27316.375
2559.96803	27301.175
2562.66883	27350.275
2565.36794	27305.575
2568.06536	27304.775
2570.7611	27255.475
2573.45514	27277.875
2576.14751	27279.775
2578.83819	27244.775
2581.52719	27317.175
2584.21451	27278.775
2586.90015	27261.375
2589.58411	27216.275
2592.2664	27215.175
2594.94701	27210.975
2597.62594	27216.775
2600.30321	27176.675
2602.9788	27185.375
2605.65273	27215.175
2608.32498	27195.275
2610.99557	27269.275
2613.66449	27298.975
2616.33175	27264.775
2618.99734	27240.675
2621.66128	27179.875
2624.32355	27231.875
2626.98416	27197.875
2629.64311	27142.775
2632.30041	27076.775
2634.95605	27085.975
2637.61004	27088.575
2640.26238	27107.975
2642.91306	27142.275
2645.56209	27117.075
2648.20948	27127.775
2650.85521	27138.075
2653.4993	27177.975
2656.14175	27176.675
2658.78255	27276.875
2661.42171	27276.875
2664.05923	27296.275
2666.6951	27318.275
2669.32934	27426.175
2671.96194	27433.475
2674.59291	27490.075
2677.22224	27503.875
2679.84993	27551.775
2682.476	27513.875
2685.10043	27506.375
2687.72324	27573.475
2690.34441	27603.375
2692.96396	27557.175
2695.58188	27633.375
2698.19818	27675.675
2700.81285	27685.575
2703.4259	27729.275
2706.03733	27846.275
2708.64714	27769.675
2711.25533	27805.475
2713.86191	27848.675
2716.46687	27969.975
2719.07021	27937.175
2721.67194	28018.175
2724.27206	28052.775
2726.87057	28121.275
2729.46747	28133.075
2732.06276	28185.875
2734.65644	28164.775
2737.24852	28227.475
2739.83899	28208.575
2742.42786	28258.475
2745.01513	28225.375
2747.60079	28259.575
2750.18486	28253.775
2752.76733	28226.875
2755.3482	28198.475
2757.92747	28202.075
2760.50515	28197.875
2763.08123	28230.075
2765.65573	28126.075
2768.22863	28150.975
2770.79994	28153.675
2773.36967	28134.775
2775.9378	28142.975
2778.50435	28128.975
2781.06932	28151.575
2783.6327	28188.075
2786.1945	28266.575
2788.75471	28298.575
2791.31335	28252.675
2793.87041	28185.675
2796.42589	28096.375
2798.97979	28120.875
2801.53212	28049.675
2804.08288	28097.775
2806.63206	28026.775
2809.17967	28009.875
2811.72571	27891.475
2814.27018	27883.975
2816.81308	27810.875
2819.35442	27852.075
2821.89419	27784.875
2824.43239	27738.575
2826.96904	27768.775
2829.50412	27773.275
2832.03763	27743.475
2834.56959	27790.575
2837.1	27800.675
2839.62884	27765.675
2842.15613	27759.675
2844.68186	27811.975
2847.20604	27818.075
2849.72867	27815.175
2852.24974	27826.675
2854.76927	27796.375
2857.28724	27749.975
2859.80367	27756.275
2862.31855	27736.775
2864.83189	27743.675
2867.34368	27663.275
2869.85393	27692.775
2872.36264	27697.075
2874.8698	27733.475
2877.37543	27748.375
2879.87952	27770.675
2882.38207	27740.075
2884.88308	27722.875
2887.38256	27729.075
2889.88051	27704.875
2892.37692	27848.475
2894.8718	27861.775
2897.36515	27948.675
2899.85698	27972.675
2902.34727	27970.875
2904.83604	28069.775
2907.32328	28164.175
2909.809	28149.075
2912.29319	28212.875
2914.77587	28254.675
2917.25702	28212.875
2919.73665	28234.575
2922.21476	28313.175
2924.69136	28291.175
2927.16644	28365.475
2929.64	28322.275
2932.11205	28318.675
2934.58258	28241.375
2937.05161	28265.075
2939.51912	28316.075
2941.98513	28303.575
2944.44962	28331.375
2946.91261	28290.275
2949.37409	28368.475
2951.83407	28408.375
2954.29254	28432.275
2956.74951	28513.175
2959.20498	28559.475
2961.65895	28552.175
2964.11142	28633.375
2966.56239	28677.175
2969.01186	28669.975
2971.45984	28689.875
2973.90632	28735.475
2976.35131	28707.375
2978.7948	28719.075
2981.23681	28698.975
2983.67732	28744.175
2986.11635	28688.275
2988.55388	28617.075
2990.98993	28620.375
2993.4245	28568.775
2995.85758	28584.775
2998.28917	28555.675
3000.71928	28547.575
3003.14791	28497.275
3005.57506	28477.975
3008.00073	28438.775
3010.42493	28442.375
3012.84764	28440.275
3015.26888	28455.075
3017.68865	28385.375
3020.10694	28367.975
3022.52376	28331.575
3024.9391	28370.775
3027.35298	28363.475
3029.76539	28408.675
3032.17632	28446.775
3034.5858	28425.175
3036.9938	28484.375
3039.40034	28500.275
3041.80542	28443.075
3044.20903	28437.675
3046.61118	28541.075
3049.01187	28533.475
3051.4111	28574.075
3053.80888	28564.975
3056.20519	28449.575
3058.60005	28381.575
3060.99345	28363.575
3063.3854	28327.375
3065.7759	28285.475
3068.16494	28250.075
3070.55254	28240.675
3072.93868	28220.775
3075.32338	28184.575
3077.70662	28182.675
3080.08842	28124.375
3082.46878	28138.375
3084.84769	28081.175
3087.22515	28112.675
3089.60118	28128.675
3091.97576	28239.475
3094.3489	28296.375
3096.72061	28368.475
3099.09087	28401.275
3101.4597	28420.775
3103.82709	28462.675
3106.19305	28535.775
3108.55757	28599.875
3110.92066	28545.675
3113.28232	28619.275
3115.64255	28558.475
3118.00134	28601.675
3120.35871	28599.875
3122.71466	28498.575
3125.06917	28485.575
3127.42226	28448.275
3129.77393	28462.075
3132.12417	28477.375
3134.47299	28535.675
3136.82039	28475.175
3139.16636	28472.475
3141.51092	28472.375
3143.85406	28560.575
3146.19579	28603.275
