Data from AgNPs_APTES_FTO_UA_100uM_CRN_0uM_R6G_10uM_Scan_RamanShift__33__12-42-33-546.txt Node

Date: Thu Jun 23 12:42:33 BST 2022
User: TCL
Spectrometer: QEP01345
Trigger mode: 4
Integration Time (sec): 7.000000E0
Scans to average: 10
Electric dark correction enabled: true
Nonlinearity correction enabled: false
Boxcar width: 0
XAxis mode: Raman Shifts
Number of Pixels in Spectrum: 1044
>>>>>Begin Spectral Data<<<<<
46.04893	-1.125
50.45542	-1.425
54.85868	-3.225
59.25871	-1.925
63.6555	64.575
68.04907	68.875
72.43941	77.275
76.82654	80.575
81.21044	85.175
85.59113	88.175
89.96862	93.675
94.34289	94.375
98.71396	98.075
103.08183	95.975
107.4465	101.575
111.80798	98.875
116.16626	103.275
120.52136	102.675
124.87327	100.275
129.222	99.075
133.56755	104.475
137.90993	100.975
142.24913	100.975
146.58517	103.675
150.91804	101.375
155.24774	114.475
159.57429	120.075
163.89768	131.275
168.21792	158.375
172.53501	189.675
176.84895	233.775
181.15975	307.075
185.46741	417.775
189.77193	552.175
194.07331	720.975
198.37157	916.075
202.6667	1117.475
206.9587	1317.675
211.24758	1507.275
215.53334	1694.075
219.81599	1881.775
224.09553	2078.875
228.37195	2302.275
232.64527	2545.575
236.91549	2801.675
241.18261	3112.675
245.44663	3398.575
249.70755	3689.675
253.96539	3961.775
258.22014	4169.675
262.4718	4348.175
266.72039	4455.875
270.96589	4533.075
275.20832	4518.175
279.44768	4508.275
283.68397	4470.175
287.91719	4425.375
292.14735	4401.275
296.37445	4327.975
300.59849	4319.475
304.81948	4310.575
309.03742	4287.075
313.25231	4312.375
317.46415	4318.875
321.67296	4343.975
325.87872	4378.075
330.08145	4414.475
334.28114	4471.475
338.47781	4537.275
342.67145	4579.275
346.86207	4656.175
351.04966	4744.475
355.23424	4805.775
359.4158	4882.475
363.59435	4971.175
367.76989	5039.475
371.94243	5109.775
376.11196	5195.175
380.27849	5263.075
384.44203	5318.275
388.60257	5388.475
392.76012	5463.775
396.91468	5535.875
401.06626	5605.475
405.21485	5649.275
409.36047	5730.475
413.50311	5799.375
417.64277	5882.975
421.77947	5929.675
425.9132	6017.275
430.04396	6091.775
434.17176	6159.475
438.2966	6242.575
442.41849	6289.675
446.53742	6346.575
450.6534	6412.975
454.76644	6460.675
458.87653	6523.175
462.98368	6556.675
467.08789	6594.975
471.18916	6641.475
475.2875	6689.875
479.38291	6735.075
483.4754	6772.575
487.56496	6822.675
491.6516	6878.475
495.73531	6903.375
499.81612	6925.175
503.89401	6985.675
507.96899	7009.675
512.04106	7060.775
516.11023	7089.275
520.1765	7109.675
524.23987	7179.475
528.30034	7238.775
532.35792	7323.975
536.41261	7398.275
540.46441	7470.675
544.51333	7554.575
548.55936	7626.975
552.60252	7706.075
556.64279	7749.675
560.6802	7796.175
564.71473	7824.875
568.7464	7881.075
572.7752	7910.675
576.80114	7922.575
580.82422	7947.575
584.84444	7997.775
588.86181	8003.875
592.87633	8024.275
596.888	8099.675
600.89682	8131.775
604.9028	8171.875
608.90594	8219.975
612.90624	8259.875
616.90371	8303.675
620.89834	8298.175
624.89015	8315.475
628.87913	8356.575
632.86528	8365.375
636.84862	8400.475
640.82913	8442.775
644.80683	8493.275
648.78172	8498.075
652.75379	8540.175
656.72306	8601.775
660.68952	8630.775
664.65319	8672.975
668.61405	8687.975
672.57211	8754.075
676.52738	8783.775
680.47986	8832.175
684.42955	8870.075
688.37646	8928.775
692.32058	8972.375
696.26192	9020.875
700.20048	9068.775
704.13626	9144.175
708.06928	9171.175
711.99952	9215.075
715.927	9245.775
719.85171	9290.375
723.77365	9313.075
727.69284	9333.875
731.60928	9397.375
735.52295	9439.575
739.43388	9485.175
743.34206	9523.375
747.24749	9591.375
751.15017	9648.275
755.05012	9680.575
758.94733	9720.975
762.8418	9786.175
766.73354	9850.575
770.62254	9906.675
774.50882	9951.975
778.39237	10002.075
782.27321	10028.575
786.15132	10059.175
790.02671	10095.675
793.89938	10108.075
797.76935	10176.275
801.6366	10195.575
805.50115	10238.575
809.36299	10281.375
813.22213	10340.175
817.07857	10387.675
820.93231	10443.875
824.78336	10470.975
828.63172	10516.575
832.47738	10573.275
836.32036	10617.075
840.16066	10641.575
843.99827	10680.475
847.8332	10755.175
851.66546	10780.175
855.49504	10848.575
859.32195	10938.575
863.1462	10977.775
866.96777	11026.475
870.78668	11114.075
874.60293	11183.475
878.41652	11247.475
882.22745	11302.875
886.03573	11339.575
889.84136	11392.175
893.64433	11426.675
897.44466	11469.075
901.24235	11484.175
905.0374	11512.575
908.8298	11566.575
912.61957	11604.575
916.40671	11645.175
920.19121	11709.275
923.97308	11758.975
927.75233	11822.275
931.52895	11883.375
935.30295	11888.575
939.07433	11927.375
942.84309	12002.075
946.60924	12037.975
950.37278	12043.675
954.13371	12104.275
957.89203	12123.575
961.64774	12173.275
965.40086	12174.975
969.15137	12224.075
972.89929	12249.575
976.64461	12291.175
980.38733	12318.675
984.12747	12365.475
987.86502	12436.875
991.59999	12487.875
995.33237	12518.075
999.06217	12606.875
1002.78939	12673.275
1006.51404	12759.375
1010.23611	12789.975
1013.95561	12865.575
1017.67255	12937.175
1021.38692	12956.475
1025.09872	13053.875
1028.80796	13087.875
1032.51465	13180.175
1036.21877	13257.875
1039.92035	13339.475
1043.61937	13447.875
1047.31584	13528.275
1051.00976	13590.875
1054.70114	13664.275
1058.38998	13772.375
1062.07627	13880.875
1065.76003	13986.775
1069.44126	14047.975
1073.11995	14160.675
1076.79611	14246.575
1080.46974	14322.175
1084.14085	14419.775
1087.80943	14489.675
1091.47549	14533.575
1095.13903	14595.475
1098.80005	14648.875
1102.45857	14692.575
1106.11456	14728.275
1109.76805	14799.575
1113.41903	14806.475
1117.06751	14828.975
1120.71348	14897.775
1124.35696	14938.375
1127.99793	14968.675
1131.63641	14980.275
1135.2724	15017.175
1138.90589	15010.075
1142.5369	15069.775
1146.16542	15076.475
1149.79145	15094.175
1153.415	15108.575
1157.03607	15181.075
1160.65467	15204.075
1164.27079	15228.975
1167.88443	15297.775
1171.49561	15370.975
1175.10432	15423.075
1178.71056	15558.775
1182.31434	15625.175
1185.91565	15674.275
1189.51451	15742.775
1193.11091	15781.175
1196.70485	15834.575
1200.29634	15827.675
1203.88538	15869.675
1207.47197	15967.775
1211.05612	16024.375
1214.63782	16040.475
1218.21708	16108.075
1221.79391	16157.775
1225.36829	16146.875
1228.94024	16210.175
1232.50976	16297.675
1236.07685	16376.375
1239.6415	16463.875
1243.20374	16534.375
1246.76355	16605.275
1250.32093	16669.275
1253.8759	16728.475
1257.42845	16805.975
1260.97859	16832.775
1264.52631	16856.275
1268.07163	16892.475
1271.61453	16928.375
1275.15503	16917.475
1278.69312	16943.075
1282.22882	16937.975
1285.76211	17004.675
1289.29301	17035.675
1292.82151	17050.775
1296.34761	17122.575
1299.87133	17194.775
1303.39266	17302.875
1306.9116	17357.275
1310.42815	17401.675
1313.94233	17459.775
1317.45412	17429.475
1320.96354	17481.875
1324.47058	17466.675
1327.97525	17425.375
1331.47754	17390.875
1334.97747	17367.275
1338.47502	17397.675
1341.97022	17382.875
1345.46305	17383.775
1348.95352	17438.675
1352.44163	17479.375
1355.92738	17534.375
1359.41078	17576.875
1362.89183	17604.875
1366.37053	17596.875
1369.84688	17560.875
1373.32088	17548.675
1376.79254	17508.475
1380.26186	17552.075
1383.72883	17508.375
1387.19347	17511.475
1390.65578	17425.575
1394.11575	17391.575
1397.57339	17352.075
1401.0287	17381.875
1404.48168	17387.275
1407.93234	17397.775
1411.38068	17420.675
1414.82669	17448.375
1418.27039	17471.975
1421.71177	17461.675
1425.15083	17505.375
1428.58758	17481.175
1432.02203	17511.775
1435.45416	17518.375
1438.88399	17527.775
1442.31151	17568.775
1445.73673	17595.775
1449.15965	17603.475
1452.58027	17637.275
1455.9986	17654.275
1459.41463	17669.075
1462.82837	17684.175
1466.23982	17777.875
1469.64898	17855.875
1473.05586	17933.975
1476.46045	17967.975
1479.86276	18069.875
1483.26279	18159.075
1486.66054	18230.975
1490.05602	18292.475
1493.44922	18347.175
1496.84016	18428.675
1500.22882	18485.275
1503.61521	18584.175
1506.99934	18638.375
1510.38121	18746.275
1513.76081	18810.575
1517.13816	18861.075
1520.51324	18948.875
1523.88607	19026.175
1527.25665	19115.475
1530.62498	19184.475
1533.99105	19274.575
1537.35488	19366.075
1540.71647	19460.375
1544.07581	19529.975
1547.4329	19646.675
1550.78776	19719.775
1554.14038	19761.275
1557.49077	19836.675
1560.83892	19906.075
1564.18484	19973.775
1567.52853	19953.775
1570.86999	20034.375
1574.20922	20051.775
1577.54624	20105.675
1580.88103	20194.675
1584.2136	20254.275
1587.54395	20305.775
1590.87208	20342.275
1594.19801	20396.275
1597.52172	20471.875
1600.84321	20496.275
1604.16251	20580.475
1607.47959	20618.075
1610.79447	20677.475
1614.10715	20674.775
1617.41763	20741.875
1620.7259	20775.075
1624.03199	20788.975
1627.33587	20806.575
1630.63757	20795.875
1633.93707	20847.175
1637.23439	20872.675
1640.52951	20896.075
1643.82246	20980.375
1647.11321	21016.875
1650.40179	21077.175
1653.68819	21143.975
1656.97241	21199.975
1660.25446	21206.475
1663.53433	21266.675
1666.81203	21221.675
1670.08756	21211.975
1673.36092	21228.475
1676.63211	21245.775
1679.90115	21272.175
1683.16801	21245.275
1686.43272	21259.675
1689.69527	21307.475
1692.95567	21347.775
1696.2139	21446.275
1699.46999	21539.275
1702.72392	21578.975
1705.97571	21625.675
1709.22535	21591.375
1712.47284	21609.975
1715.71819	21708.475
1718.96139	21741.975
1722.20246	21750.075
1725.44139	21752.775
1728.67818	21810.775
1731.91284	21826.575
1735.14537	21801.875
1738.37576	21883.675
1741.60403	21897.175
1744.83017	21920.175
1748.05418	21934.175
1751.27607	21983.075
1754.49584	22035.975
1757.71349	22092.575
1760.92903	22184.375
1764.14244	22237.075
1767.35375	22279.775
1770.56294	22313.075
1773.77002	22363.475
1776.97499	22353.975
1780.17785	22365.675
1783.37861	22409.375
1786.57727	22414.475
1789.77382	22428.875
1792.96828	22448.875
1796.16064	22443.575
1799.3509	22508.075
1802.53907	22595.275
1805.72514	22605.975
1808.90913	22540.675
1812.09102	22591.075
1815.27083	22610.975
1818.44856	22640.575
1821.6242	22668.375
1824.79776	22719.575
1827.96924	22714.475
1831.13864	22745.575
1834.30597	22766.875
1837.47122	22816.775
1840.6344	22807.275
1843.7955	22861.175
1846.95454	22881.675
1850.11151	22979.275
1853.26642	22996.375
1856.41926	23030.075
1859.57004	23119.075
1862.71876	23114.575
1865.86542	23104.075
1869.01003	23195.975
1872.15258	23243.675
1875.29308	23285.975
1878.43152	23294.575
1881.56792	23280.875
1884.70227	23275.275
1887.83457	23299.075
1890.96482	23335.775
1894.09304	23312.675
1897.21921	23346.075
1900.34335	23376.575
1903.46544	23425.975
1906.58551	23425.875
1909.70353	23487.975
1912.81953	23531.775
1915.93349	23531.975
1919.04543	23592.675
1922.15534	23620.875
1925.26322	23684.175
1928.36908	23651.675
1931.47292	23704.975
1934.57473	23641.575
1937.67453	23651.475
1940.77232	23718.775
1943.86808	23690.475
1946.96184	23697.675
1950.05358	23719.775
1953.14331	23708.275
1956.23103	23676.575
1959.31675	23645.875
1962.40046	23655.875
1965.48217	23606.275
1968.56188	23645.875
1971.63959	23596.075
1974.7153	23602.675
1977.78901	23660.275
1980.86073	23622.175
1983.93046	23613.975
1986.99819	23605.275
1990.06394	23599.775
1993.1277	23555.075
1996.18947	23545.675
1999.24925	23596.875
2002.30706	23573.875
2005.36288	23490.575
2008.41672	23539.275
2011.46859	23527.075
2014.51848	23564.075
2017.56639	23533.875
2020.61233	23535.975
2023.6563	23488.975
2026.6983	23437.075
2029.73833	23399.475
2032.7764	23394.675
2035.8125	23395.975
2038.84664	23430.375
2041.87881	23403.575
2044.90903	23431.775
2047.93729	23445.875
2050.96359	23471.975
2053.98794	23495.875
2057.01034	23568.175
2060.03078	23551.675
2063.04927	23607.475
2066.06582	23696.075
2069.08042	23736.075
2072.09307	23761.775
2075.10378	23783.975
2078.11255	23800.575
2081.11938	23878.475
2084.12426	23898.075
2087.12722	23976.675
2090.12824	23967.375
2093.12732	24010.075
2096.12447	24072.875
2099.11969	24148.475
2102.11299	24158.475
2105.10435	24194.075
2108.09379	24275.375
2111.08131	24372.275
2114.0669	24437.675
2117.05057	24535.875
2120.03233	24623.975
2123.01216	24664.075
2125.99008	24747.575
2128.96609	24794.375
2131.94018	24910.975
2134.91236	24983.675
2137.88263	25059.375
2140.851	25111.775
2143.81746	25151.075
2146.78201	25173.875
2149.74466	25247.075
2152.7054	25331.375
2155.66425	25420.775
2158.6212	25419.675
2161.57625	25432.575
2164.52941	25484.975
2167.48067	25538.975
2170.43004	25590.275
2173.37752	25756.375
2176.32311	25718.775
2179.26681	25850.875
2182.20863	25842.775
2185.14856	25887.475
2188.08661	25967.975
2191.02278	26045.975
2193.95707	26032.575
2196.88948	26061.575
2199.82001	26081.175
2202.74867	26065.175
2205.67545	26116.075
2208.60037	26149.475
2211.52341	26137.475
2214.44458	26161.375
2217.36388	26083.175
2220.28132	26139.675
2223.1969	26141.675
2226.11061	26173.575
2229.02246	26167.575
2231.93245	26167.675
2234.84058	26191.375
2237.74686	26164.175
2240.65128	26276.475
2243.55385	26247.275
2246.45456	26287.475
2249.35343	26335.175
2252.25044	26343.975
2255.14561	26337.375
2258.03893	26398.375
2260.93041	26425.175
2263.82004	26430.375
2266.70783	26385.475
2269.59378	26351.675
2272.4779	26362.275
2275.36017	26304.675
2278.24061	26364.175
2281.11922	26339.475
2283.996	26397.975
2286.87094	26402.375
2289.74405	26418.275
2292.61534	26443.275
2295.4848	26445.175
2298.35243	26473.675
2301.21824	26497.675
2304.08223	26561.075
2306.94439	26563.075
2309.80474	26585.375
2312.66327	26688.275
2315.51999	26674.075
2318.37489	26700.575
2321.22797	26679.375
2324.07925	26689.275
2326.92871	26668.075
2329.77637	26712.575
2332.62222	26677.575
2335.46626	26721.175
2338.3085	26702.575
2341.14893	26720.175
2343.98756	26759.375
2346.8244	26752.975
2349.65943	26774.475
2352.49267	26795.575
2355.32411	26808.075
2358.15376	26854.175
2360.98161	26897.575
2363.80768	26908.475
2366.63195	26979.175
2369.45444	26998.675
2372.27514	26990.175
2375.09405	27019.675
2377.91118	27056.475
2380.72652	27064.475
2383.54009	27011.175
2386.35187	27056.675
2389.16188	26970.975
2391.97011	26953.375
2394.77657	26966.275
2397.58125	26980.375
2400.38416	26970.375
2403.18529	26946.775
2405.98466	27013.975
2408.78226	27054.975
2411.57809	27108.675
2414.37216	27141.075
2417.16446	27154.575
2419.955	27075.775
2422.74378	27168.375
2425.5308	27175.475
2428.31606	27201.075
2431.09956	27302.775
2433.88131	27334.275
2436.6613	27330.975
2439.43954	27284.975
2442.21603	27278.575
2444.99077	27260.575
2447.76377	27305.475
2450.53501	27314.475
2453.30451	27341.275
2456.07226	27331.875
2458.83827	27351.575
2461.60254	27363.375
2464.36507	27390.275
2467.12586	27384.275
2469.88492	27356.475
2472.64224	27411.575
2475.39782	27430.175
2478.15167	27463.275
2480.90379	27502.875
2483.65417	27550.975
2486.40283	27582.575
2489.14976	27610.675
2491.89497	27652.075
2494.63845	27732.975
2497.3802	27701.675
2500.12024	27684.475
2502.85855	27661.475
2505.59514	27652.775
2508.33002	27693.375
2511.06318	27690.675
2513.79462	27699.275
2516.52435	27671.375
2519.25237	27641.375
2521.97867	27631.175
2524.70327	27700.075
2527.42616	27715.375
2530.14734	27741.575
2532.86681	27828.175
2535.58458	27851.375
2538.30065	27893.675
2541.01501	27870.575
2543.72768	27933.475
2546.43864	27934.975
2549.14791	27915.575
2551.85548	27899.675
2554.56136	27858.375
2557.26554	27802.775
2559.96803	27783.275
2562.66883	27791.675
2565.36794	27794.975
2568.06536	27782.775
2570.7611	27746.975
2573.45514	27692.475
2576.14751	27746.975
2578.83819	27741.075
2581.52719	27762.975
2584.21451	27719.475
2586.90015	27747.175
2589.58411	27700.575
2592.2664	27705.675
2594.94701	27671.575
2597.62594	27723.475
2600.30321	27681.975
2602.9788	27660.875
2605.65273	27691.075
2608.32498	27675.575
2610.99557	27723.275
2613.66449	27768.375
2616.33175	27739.675
2618.99734	27713.675
2621.66128	27676.975
2624.32355	27687.675
2626.98416	27669.475
2629.64311	27622.375
2632.30041	27559.175
2634.95605	27539.875
2637.61004	27561.275
2640.26238	27537.575
2642.91306	27633.975
2645.56209	27612.375
2648.20948	27620.975
2650.85521	27587.575
2653.4993	27637.275
2656.14175	27632.975
2658.78255	27732.675
2661.42171	27787.575
2664.05923	27799.875
2666.6951	27800.575
2669.32934	27841.175
2671.96194	27892.975
2674.59291	27959.675
2677.22224	27936.975
2679.84993	27954.675
2682.476	27948.375
2685.10043	28021.375
2687.72324	27992.675
2690.34441	28050.575
2692.96396	28064.675
2695.58188	28110.275
2698.19818	28156.275
2700.81285	28134.975
2703.4259	28190.475
2706.03733	28272.675
2708.64714	28247.575
2711.25533	28271.975
2713.86191	28335.275
2716.46687	28442.475
2719.07021	28419.275
2721.67194	28525.175
2724.27206	28528.775
2726.87057	28618.675
2729.46747	28638.375
2732.06276	28661.675
2734.65644	28635.575
2737.24852	28690.475
2739.83899	28621.875
2742.42786	28749.175
2745.01513	28703.075
2747.60079	28726.075
2750.18486	28716.875
2752.76733	28767.675
2755.3482	28727.675
2757.92747	28751.575
2760.50515	28707.775
2763.08123	28691.775
2765.65573	28626.175
2768.22863	28625.075
2770.79994	28635.475
2773.36967	28648.675
2775.9378	28635.075
2778.50435	28639.875
2781.06932	28639.675
2783.6327	28692.675
2786.1945	28765.675
2788.75471	28787.675
2791.31335	28757.675
2793.87041	28713.875
2796.42589	28585.975
2798.97979	28594.075
2801.53212	28581.275
2804.08288	28556.775
2806.63206	28504.975
2809.17967	28531.175
2811.72571	28440.575
2814.27018	28329.075
2816.81308	28331.175
2819.35442	28324.275
2821.89419	28283.175
2824.43239	28237.175
2826.96904	28225.675
2829.50412	28290.975
2832.03763	28259.575
2834.56959	28303.075
2837.1	28253.475
2839.62884	28285.275
2842.15613	28255.575
2844.68186	28338.075
2847.20604	28336.975
2849.72867	28338.675
2852.24974	28335.675
2854.76927	28280.975
2857.28724	28273.175
2859.80367	28236.375
2862.31855	28207.775
2864.83189	28208.675
2867.34368	28167.475
2869.85393	28164.975
2872.36264	28189.975
2874.8698	28213.175
2877.37543	28201.975
2879.87952	28216.075
2882.38207	28178.475
2884.88308	28243.375
2887.38256	28230.775
2889.88051	28258.775
2892.37692	28294.675
2894.8718	28335.175
2897.36515	28434.575
2899.85698	28410.875
2902.34727	28461.875
2904.83604	28510.775
2907.32328	28624.875
2909.809	28626.375
2912.29319	28700.475
2914.77587	28685.275
2917.25702	28742.575
2919.73665	28703.175
2922.21476	28762.375
2924.69136	28742.475
2927.16644	28836.775
2929.64	28789.575
2932.11205	28786.875
2934.58258	28739.875
2937.05161	28776.275
2939.51912	28769.075
2941.98513	28824.375
2944.44962	28849.575
2946.91261	28807.475
2949.37409	28895.475
2951.83407	28916.175
2954.29254	28904.275
2956.74951	29010.775
2959.20498	29042.075
2961.65895	28992.175
2964.11142	29108.375
2966.56239	29121.375
2969.01186	29221.375
2971.45984	29227.175
2973.90632	29257.175
2976.35131	29201.675
2978.7948	29211.175
2981.23681	29172.575
2983.67732	29204.275
2986.11635	29208.675
2988.55388	29168.275
2990.98993	29093.175
2993.4245	29063.875
2995.85758	29084.975
2998.28917	29077.075
3000.71928	29044.475
3003.14791	28962.575
3005.57506	28997.275
3008.00073	28955.175
3010.42493	28903.675
3012.84764	28908.975
3015.26888	28943.675
3017.68865	28906.375
3020.10694	28855.475
3022.52376	28826.875
3024.9391	28882.575
3027.35298	28845.075
3029.76539	28838.075
3032.17632	28915.575
3034.5858	28911.575
3036.9938	28942.575
3039.40034	28968.275
3041.80542	28941.575
3044.20903	28981.075
3046.61118	29015.275
3049.01187	29033.575
3051.4111	29049.475
3053.80888	28973.675
3056.20519	28973.875
3058.60005	28839.275
3060.99345	28836.275
3063.3854	28822.175
3065.7759	28797.675
3068.16494	28745.175
3070.55254	28737.075
3072.93868	28733.175
3075.32338	28651.075
3077.70662	28619.375
3080.08842	28545.975
3082.46878	28600.675
3084.84769	28574.275
3087.22515	28546.775
3089.60118	28611.375
3091.97576	28711.075
3094.3489	28737.175
3096.72061	28805.575
3099.09087	28853.675
3101.4597	28901.275
3103.82709	29011.375
3106.19305	29003.975
3108.55757	29051.775
3110.92066	29031.875
3113.28232	29068.575
3115.64255	29074.275
3118.00134	29061.775
3120.35871	29103.075
3122.71466	28968.375
3125.06917	28938.275
3127.42226	28868.175
3129.77393	28975.875
3132.12417	28943.575
3134.47299	28945.075
3136.82039	28967.575
3139.16636	28945.475
3141.51092	28957.475
3143.85406	29030.475
3146.19579	29049.875
