Data from AgNPs_APTES_FTO_UA_100uM_CRN_0uM_R6G_10uM_Scan_RamanShift__2__12-06-23-502.txt Node

Date: Thu Jun 23 12:06:23 BST 2022
User: TCL
Spectrometer: QEP01345
Trigger mode: 4
Integration Time (sec): 7.000000E0
Scans to average: 10
Electric dark correction enabled: true
Nonlinearity correction enabled: false
Boxcar width: 0
XAxis mode: Raman Shifts
Number of Pixels in Spectrum: 1044
>>>>>Begin Spectral Data<<<<<
46.04893	-0.625
50.45542	0.575
54.85868	-1.025
59.25871	0.575
63.6555	33.175
68.04907	36.475
72.43941	44.275
76.82654	45.775
81.21044	49.275
85.59113	50.175
89.96862	55.475
94.34289	58.575
98.71396	53.875
103.08183	55.875
107.4465	58.075
111.80798	55.475
116.16626	57.475
120.52136	58.675
124.87327	57.575
129.222	58.575
133.56755	61.775
137.90993	60.075
142.24913	62.575
146.58517	60.175
150.91804	64.675
155.24774	75.275
159.57429	81.175
163.89768	89.975
168.21792	111.375
172.53501	136.375
176.84895	175.675
181.15975	238.475
185.46741	325.575
189.77193	445.575
194.07331	586.275
198.37157	770.575
202.6667	962.175
206.9587	1158.875
211.24758	1360.275
215.53334	1552.975
219.81599	1782.575
224.09553	2025.875
228.37195	2278.875
232.64527	2570.675
236.91549	2883.675
241.18261	3194.275
245.44663	3482.175
249.70755	3750.875
253.96539	3981.975
258.22014	4134.775
262.4718	4228.075
266.72039	4229.475
270.96589	4149.575
275.20832	3990.575
279.44768	3812.375
283.68397	3593.875
287.91719	3374.875
292.14735	3171.575
296.37445	3012.175
300.59849	2880.875
304.81948	2787.675
309.03742	2715.075
313.25231	2649.675
317.46415	2528.075
321.67296	2389.875
325.87872	2304.175
330.08145	2231.275
334.28114	2206.575
338.47781	2201.275
342.67145	2210.675
346.86207	2247.675
351.04966	2285.175
355.23424	2327.175
359.4158	2348.075
363.59435	2342.675
367.76989	2334.775
371.94243	2310.875
376.11196	2282.475
380.27849	2271.975
384.44203	2247.275
388.60257	2237.575
392.76012	2236.975
396.91468	2240.775
401.06626	2268.575
405.21485	2264.675
409.36047	2262.075
413.50311	2208.275
417.64277	2174.475
421.77947	2159.875
425.9132	2152.575
430.04396	2178.075
434.17176	2178.575
438.2966	2216.175
442.41849	2245.075
446.53742	2270.675
450.6534	2281.075
454.76644	2305.375
458.87653	2319.075
462.98368	2317.875
467.08789	2302.075
471.18916	2307.175
475.2875	2288.275
479.38291	2279.275
483.4754	2269.875
487.56496	2272.075
491.6516	2260.875
495.73531	2260.475
499.81612	2257.475
503.89401	2247.175
507.96899	2255.875
512.04106	2272.875
516.11023	2275.375
520.1765	2285.675
524.23987	2302.175
528.30034	2281.775
532.35792	2273.775
536.41261	2258.975
540.46441	2247.075
544.51333	2232.375
548.55936	2252.675
552.60252	2253.175
556.64279	2276.575
560.6802	2287.175
564.71473	2320.975
568.7464	2362.975
572.7752	2374.675
576.80114	2330.675
580.82422	2311.375
584.84444	2310.375
588.86181	2356.275
592.87633	2405.075
596.888	2491.475
600.89682	2639.175
604.9028	2891.775
608.90594	3342.675
612.90624	3864.275
616.90371	3931.575
620.89834	3526.675
624.89015	3289.675
628.87913	3150.475
632.86528	2969.275
636.84862	2798.975
640.82913	2627.175
644.80683	2470.875
648.78172	2421.875
652.75379	2408.075
656.72306	2450.075
660.68952	2514.875
664.65319	2565.875
668.61405	2576.775
672.57211	2641.475
676.52738	2717.075
680.47986	2786.075
684.42955	2841.775
688.37646	2868.675
692.32058	2858.775
696.26192	2850.275
700.20048	2828.175
704.13626	2818.975
708.06928	2775.875
711.99952	2743.375
715.927	2671.375
719.85171	2632.875
723.77365	2586.075
727.69284	2542.075
731.60928	2508.975
735.52295	2486.775
739.43388	2471.275
743.34206	2456.575
747.24749	2458.875
751.15017	2459.775
755.05012	2466.375
758.94733	2500.475
762.8418	2613.675
766.73354	2781.775
770.62254	2954.475
774.50882	3027.475
778.39237	2968.675
782.27321	2819.575
786.15132	2676.175
790.02671	2587.975
793.89938	2550.875
797.76935	2553.875
801.6366	2555.375
805.50115	2573.675
809.36299	2605.975
813.22213	2602.275
817.07857	2632.875
820.93231	2643.775
824.78336	2617.675
828.63172	2610.975
832.47738	2598.775
836.32036	2599.975
840.16066	2601.275
843.99827	2600.575
847.8332	2591.475
851.66546	2595.675
855.49504	2602.475
859.32195	2616.375
863.1462	2639.375
866.96777	2679.875
870.78668	2729.775
874.60293	2750.275
878.41652	2820.275
882.22745	2878.475
886.03573	2973.775
889.84136	3075.775
893.64433	3204.175
897.44466	3272.475
901.24235	3361.275
905.0374	3412.275
908.8298	3503.475
912.61957	3564.675
916.40671	3656.575
920.19121	3761.775
923.97308	3825.775
927.75233	3884.175
931.52895	3892.475
935.30295	3816.375
939.07433	3681.575
942.84309	3521.675
946.60924	3391.175
950.37278	3258.675
954.13371	3165.875
957.89203	3088.575
961.64774	3022.675
965.40086	2945.975
969.15137	2885.575
972.89929	2837.675
976.64461	2808.375
980.38733	2755.975
984.12747	2730.275
987.86502	2696.175
991.59999	2695.075
995.33237	2674.375
999.06217	2688.575
1002.78939	2698.675
1006.51404	2685.275
1010.23611	2688.575
1013.95561	2686.875
1017.67255	2676.075
1021.38692	2676.775
1025.09872	2675.075
1028.80796	2685.375
1032.51465	2697.575
1036.21877	2713.475
1039.92035	2763.675
1043.61937	2817.875
1047.31584	2861.075
1051.00976	2876.475
1054.70114	2871.475
1058.38998	2821.375
1062.07627	2755.275
1065.76003	2684.975
1069.44126	2619.975
1073.11995	2576.575
1076.79611	2542.075
1080.46974	2529.375
1084.14085	2545.175
1087.80943	2554.375
1091.47549	2551.075
1095.13903	2513.175
1098.80005	2475.075
1102.45857	2443.575
1106.11456	2436.675
1109.76805	2444.875
1113.41903	2469.775
1117.06751	2503.975
1120.71348	2554.575
1124.35696	2608.575
1127.99793	2661.375
1131.63641	2685.875
1135.2724	2627.775
1138.90589	2588.675
1142.5369	2553.975
1146.16542	2517.675
1149.79145	2504.175
1153.415	2476.175
1157.03607	2477.375
1160.65467	2479.775
1164.27079	2510.775
1167.88443	2537.375
1171.49561	2587.975
1175.10432	2698.175
1178.71056	2863.275
1182.31434	2972.175
1185.91565	2983.275
1189.51451	2906.375
1193.11091	2818.775
1196.70485	2715.575
1200.29634	2690.175
1203.88538	2653.575
1207.47197	2602.975
1211.05612	2556.675
1214.63782	2536.875
1218.21708	2523.675
1221.79391	2532.675
1225.36829	2542.275
1228.94024	2554.175
1232.50976	2572.875
1236.07685	2581.775
1239.6415	2622.375
1243.20374	2628.575
1246.76355	2659.475
1250.32093	2678.175
1253.8759	2705.775
1257.42845	2732.675
1260.97859	2777.975
1264.52631	2815.075
1268.07163	2862.975
1271.61453	2914.875
1275.15503	2951.575
1278.69312	2962.775
1282.22882	2974.775
1285.76211	3010.975
1289.29301	3079.075
1292.82151	3141.275
1296.34761	3203.275
1299.87133	3287.875
1303.39266	3417.075
1306.9116	3620.575
1310.42815	3832.375
1313.94233	3933.575
1317.45412	3847.375
1320.96354	3658.475
1324.47058	3481.675
1327.97525	3365.675
1331.47754	3298.775
1334.97747	3270.675
1338.47502	3296.075
1341.97022	3337.775
1345.46305	3440.575
1348.95352	3606.375
1352.44163	3803.775
1355.92738	4023.975
1359.41078	4347.875
1362.89183	4699.675
1366.37053	4753.975
1369.84688	4386.175
1373.32088	3989.975
1376.79254	3765.475
1380.26186	3670.875
1383.72883	3638.375
1387.19347	3620.375
1390.65578	3576.275
1394.11575	3564.275
1397.57339	3548.575
1401.0287	3526.775
1404.48168	3492.275
1407.93234	3470.175
1411.38068	3440.275
1414.82669	3423.075
1418.27039	3410.575
1421.71177	3398.875
1425.15083	3358.175
1428.58758	3301.475
1432.02203	3258.875
1435.45416	3238.875
1438.88399	3165.075
1442.31151	3142.775
1445.73673	3101.375
1449.15965	3081.575
1452.58027	3035.575
1455.9986	3021.775
1459.41463	3032.275
1462.82837	3012.575
1466.23982	3033.875
1469.64898	3043.475
1473.05586	3063.675
1476.46045	3060.275
1479.86276	3094.875
1483.26279	3100.875
1486.66054	3120.275
1490.05602	3159.275
1493.44922	3219.175
1496.84016	3310.675
1500.22882	3476.075
1503.61521	3693.775
1506.99934	3978.675
1510.38121	4237.875
1513.76081	4307.675
1517.13816	4142.075
1520.51324	3803.675
1523.88607	3463.075
1527.25665	3257.975
1530.62498	3130.675
1533.99105	3036.875
1537.35488	2982.175
1540.71647	2942.075
1544.07581	2932.075
1547.4329	2908.575
1550.78776	2920.575
1554.14038	2912.375
1557.49077	2904.675
1560.83892	2905.075
1564.18484	2931.775
1567.52853	2969.075
1570.86999	3009.775
1574.20922	3037.875
1577.54624	3020.275
1580.88103	2933.575
1584.2136	2821.075
1587.54395	2713.775
1590.87208	2671.775
1594.19801	2665.775
1597.52172	2699.975
1600.84321	2696.975
1604.16251	2663.775
1607.47959	2621.275
1610.79447	2593.675
1614.10715	2561.075
1617.41763	2525.775
1620.7259	2530.775
1624.03199	2524.975
1627.33587	2522.775
1630.63757	2537.975
1633.93707	2562.775
1637.23439	2588.775
1640.52951	2628.975
1643.82246	2726.475
1647.11321	2886.775
1650.40179	3010.575
1653.68819	3013.575
1656.97241	2856.675
1660.25446	2628.375
1663.53433	2465.775
1666.81203	2355.775
1670.08756	2284.675
1673.36092	2237.475
1676.63211	2199.875
1679.90115	2182.875
1683.16801	2163.075
1686.43272	2132.075
1689.69527	2120.175
1692.95567	2100.675
1696.2139	2091.075
1699.46999	2081.575
1702.72392	2065.375
1705.97571	2062.675
1709.22535	2060.375
1712.47284	2037.975
1715.71819	2045.875
1718.96139	2035.475
1722.20246	2031.475
1725.44139	2021.875
1728.67818	1999.475
1731.91284	2001.975
1735.14537	1985.775
1738.37576	1976.675
1741.60403	1977.375
1744.83017	1952.675
1748.05418	1961.875
1751.27607	1949.575
1754.49584	1943.575
1757.71349	1941.975
1760.92903	1931.775
1764.14244	1924.575
1767.35375	1929.675
1770.56294	1925.275
1773.77002	1924.975
1776.97499	1911.575
1780.17785	1923.175
1783.37861	1907.775
1786.57727	1914.675
1789.77382	1899.075
1792.96828	1907.275
1796.16064	1902.875
1799.3509	1893.175
1802.53907	1893.275
1805.72514	1897.075
1808.90913	1884.975
1812.09102	1875.075
1815.27083	1866.175
1818.44856	1882.975
1821.6242	1870.475
1824.79776	1872.175
1827.96924	1857.575
1831.13864	1857.675
1834.30597	1857.275
1837.47122	1863.275
1840.6344	1861.275
1843.7955	1850.775
1846.95454	1836.675
1850.11151	1848.975
1853.26642	1854.075
1856.41926	1845.575
1859.57004	1856.175
1862.71876	1835.775
1865.86542	1833.575
1869.01003	1829.675
1872.15258	1843.275
1875.29308	1836.575
1878.43152	1826.175
1881.56792	1823.475
1884.70227	1809.975
1887.83457	1808.475
1890.96482	1808.875
1894.09304	1808.975
1897.21921	1800.775
1900.34335	1804.975
1903.46544	1799.275
1906.58551	1809.175
1909.70353	1791.975
1912.81953	1795.075
1915.93349	1797.775
1919.04543	1795.275
1922.15534	1795.675
1925.26322	1791.675
1928.36908	1781.475
1931.47292	1788.275
1934.57473	1780.575
1937.67453	1769.575
1940.77232	1774.475
1943.86808	1767.275
1946.96184	1768.875
1950.05358	1764.875
1953.14331	1757.375
1956.23103	1746.775
1959.31675	1746.775
1962.40046	1734.075
1965.48217	1733.775
1968.56188	1732.075
1971.63959	1732.175
1974.7153	1719.175
1977.78901	1710.075
1980.86073	1712.075
1983.93046	1708.375
1986.99819	1697.975
1990.06394	1701.675
1993.1277	1685.575
1996.18947	1680.475
1999.24925	1675.875
2002.30706	1671.775
2005.36288	1667.575
2008.41672	1671.975
2011.46859	1664.275
2014.51848	1665.075
2017.56639	1660.575
2020.61233	1661.575
2023.6563	1653.175
2026.6983	1654.075
2029.73833	1642.575
2032.7764	1645.975
2035.8125	1652.875
2038.84664	1646.375
2041.87881	1656.675
2044.90903	1654.775
2047.93729	1671.375
2050.96359	1677.575
2053.98794	1694.575
2057.01034	1701.475
2060.03078	1720.675
2063.04927	1739.875
2066.06582	1749.475
2069.08042	1767.875
2072.09307	1785.575
2075.10378	1802.275
2078.11255	1814.575
2081.11938	1824.275
2084.12426	1848.375
2087.12722	1861.175
2090.12824	1867.075
2093.12732	1872.675
2096.12447	1871.375
2099.11969	1869.075
2102.11299	1867.975
2105.10435	1855.975
2108.09379	1851.475
2111.08131	1836.375
2114.0669	1824.575
2117.05057	1805.975
2120.03233	1784.575
2123.01216	1770.575
2125.99008	1766.975
2128.96609	1744.275
2131.94018	1724.975
2134.91236	1721.275
2137.88263	1705.275
2140.851	1686.975
2143.81746	1674.975
2146.78201	1668.975
2149.74466	1662.075
2152.7054	1647.175
2155.66425	1646.475
2158.6212	1640.475
2161.57625	1622.475
2164.52941	1617.575
2167.48067	1613.375
2170.43004	1612.275
2173.37752	1611.875
2176.32311	1600.175
2179.26681	1601.775
2182.20863	1602.875
2185.14856	1590.175
2188.08661	1594.475
2191.02278	1588.275
2193.95707	1584.475
2196.88948	1578.575
2199.82001	1575.875
2202.74867	1579.875
2205.67545	1571.175
2208.60037	1567.475
2211.52341	1578.875
2214.44458	1564.275
2217.36388	1558.675
2220.28132	1566.675
2223.1969	1550.075
2226.11061	1546.775
2229.02246	1547.975
2231.93245	1532.875
2234.84058	1543.475
2237.74686	1543.675
2240.65128	1538.275
2243.55385	1529.675
2246.45456	1525.875
2249.35343	1532.475
2252.25044	1526.575
2255.14561	1525.275
2258.03893	1522.475
2260.93041	1524.475
2263.82004	1509.875
2266.70783	1511.975
2269.59378	1507.675
2272.4779	1510.375
2275.36017	1502.675
2278.24061	1493.175
2281.11922	1494.875
2283.996	1489.775
2286.87094	1495.575
2289.74405	1491.575
2292.61534	1487.675
2295.4848	1492.475
2298.35243	1491.575
2301.21824	1479.375
2304.08223	1482.375
2306.94439	1486.875
2309.80474	1486.075
2312.66327	1481.575
2315.51999	1476.775
2318.37489	1474.375
2321.22797	1470.475
2324.07925	1461.275
2326.92871	1469.675
2329.77637	1467.475
2332.62222	1464.975
2335.46626	1458.175
2338.3085	1450.675
2341.14893	1453.875
2343.98756	1449.575
2346.8244	1446.475
2349.65943	1441.775
2352.49267	1446.675
2355.32411	1443.975
2358.15376	1436.975
2360.98161	1434.075
2363.80768	1442.675
2366.63195	1443.075
2369.45444	1438.475
2372.27514	1440.775
2375.09405	1439.375
2377.91118	1435.475
2380.72652	1425.375
2383.54009	1424.675
2386.35187	1429.175
2389.16188	1411.775
2391.97011	1411.775
2394.77657	1407.575
2397.58125	1404.375
2400.38416	1406.775
2403.18529	1398.675
2405.98466	1396.475
2408.78226	1391.875
2411.57809	1389.575
2414.37216	1395.475
2417.16446	1395.775
2419.955	1388.775
2422.74378	1397.175
2425.5308	1382.575
2428.31606	1391.175
2431.09956	1383.175
2433.88131	1384.675
2436.6613	1376.875
2439.43954	1378.175
2442.21603	1385.575
2444.99077	1372.275
2447.76377	1378.975
2450.53501	1379.275
2453.30451	1371.275
2456.07226	1372.675
2458.83827	1364.475
2461.60254	1368.575
2464.36507	1363.875
2467.12586	1358.875
2469.88492	1365.975
2472.64224	1358.575
2475.39782	1362.875
2478.15167	1367.575
2480.90379	1351.075
2483.65417	1351.775
2486.40283	1360.175
2489.14976	1351.575
2491.89497	1354.775
2494.63845	1358.575
2497.3802	1351.975
2500.12024	1345.875
2502.85855	1346.375
2505.59514	1346.075
2508.33002	1346.075
2511.06318	1335.175
2513.79462	1345.875
2516.52435	1337.575
2519.25237	1333.875
2521.97867	1327.675
2524.70327	1321.275
2527.42616	1326.675
2530.14734	1327.875
2532.86681	1313.875
2535.58458	1313.175
2538.30065	1318.075
2541.01501	1314.175
2543.72768	1317.475
2546.43864	1316.775
2549.14791	1315.875
2551.85548	1307.475
2554.56136	1307.575
2557.26554	1308.775
2559.96803	1303.975
2562.66883	1301.375
2565.36794	1294.375
2568.06536	1288.875
2570.7611	1291.975
2573.45514	1291.375
2576.14751	1291.275
2578.83819	1284.875
2581.52719	1287.375
2584.21451	1287.175
2586.90015	1277.875
2589.58411	1284.775
2592.2664	1280.775
2594.94701	1273.375
2597.62594	1270.575
2600.30321	1267.875
2602.9788	1271.375
2605.65273	1267.175
2608.32498	1264.875
2610.99557	1258.875
2613.66449	1254.175
2616.33175	1263.775
2618.99734	1254.075
2621.66128	1261.075
2624.32355	1249.075
2626.98416	1243.075
2629.64311	1243.975
2632.30041	1242.775
2634.95605	1238.575
2637.61004	1227.975
2640.26238	1233.075
2642.91306	1228.775
2645.56209	1227.075
2648.20948	1231.275
2650.85521	1233.875
2653.4993	1233.275
2656.14175	1225.475
2658.78255	1226.175
2661.42171	1236.775
2664.05923	1234.775
2666.6951	1235.675
2669.32934	1231.775
2671.96194	1228.975
2674.59291	1236.275
2677.22224	1236.375
2679.84993	1229.475
2682.476	1231.175
2685.10043	1221.275
2687.72324	1235.175
2690.34441	1233.375
2692.96396	1220.675
2695.58188	1227.075
2698.19818	1239.275
2700.81285	1232.775
2703.4259	1222.575
2706.03733	1206.475
2708.64714	1213.475
2711.25533	1226.375
2713.86191	1233.075
2716.46687	1232.675
2719.07021	1233.175
2721.67194	1232.675
2724.27206	1218.375
2726.87057	1239.475
2729.46747	1230.375
2732.06276	1237.275
2734.65644	1232.175
2737.24852	1234.475
2739.83899	1229.775
2742.42786	1225.275
2745.01513	1224.075
2747.60079	1223.375
2750.18486	1225.975
2752.76733	1221.675
2755.3482	1220.475
2757.92747	1220.175
2760.50515	1225.775
2763.08123	1214.975
2765.65573	1211.475
2768.22863	1214.775
2770.79994	1212.375
2773.36967	1210.475
2775.9378	1214.075
2778.50435	1196.275
2781.06932	1203.975
2783.6327	1201.575
2786.1945	1208.075
2788.75471	1196.675
2791.31335	1193.875
2793.87041	1195.975
2796.42589	1196.475
2798.97979	1186.975
2801.53212	1189.575
2804.08288	1185.575
2806.63206	1191.175
2809.17967	1186.875
2811.72571	1181.675
2814.27018	1176.275
2816.81308	1174.175
2819.35442	1174.475
2821.89419	1173.175
2824.43239	1168.775
2826.96904	1161.175
2829.50412	1168.775
2832.03763	1158.675
2834.56959	1164.375
2837.1	1161.175
2839.62884	1158.975
2842.15613	1160.575
2844.68186	1162.175
2847.20604	1161.775
2849.72867	1162.675
2852.24974	1168.475
2854.76927	1169.075
2857.28724	1156.875
2859.80367	1161.775
2862.31855	1157.475
2864.83189	1165.775
2867.34368	1161.775
2869.85393	1161.275
2872.36264	1159.675
2874.8698	1164.175
2877.37543	1159.175
2879.87952	1162.075
2882.38207	1156.375
2884.88308	1156.375
2887.38256	1167.875
2889.88051	1162.675
2892.37692	1165.575
2894.8718	1170.975
2897.36515	1178.775
2899.85698	1184.275
2902.34727	1180.175
2904.83604	1199.775
2907.32328	1190.975
2909.809	1202.075
2912.29319	1204.175
2914.77587	1210.575
2917.25702	1221.675
2919.73665	1222.175
2922.21476	1220.875
2924.69136	1227.675
2927.16644	1232.875
2929.64	1228.875
2932.11205	1222.475
2934.58258	1229.375
2937.05161	1218.475
2939.51912	1209.975
2941.98513	1216.875
2944.44962	1205.275
2946.91261	1196.175
2949.37409	1186.975
2951.83407	1192.475
2954.29254	1180.575
2956.74951	1184.075
2959.20498	1177.375
2961.65895	1173.875
2964.11142	1171.175
2966.56239	1166.775
2969.01186	1163.475
2971.45984	1168.075
2973.90632	1166.275
2976.35131	1156.075
2978.7948	1156.475
2981.23681	1154.975
2983.67732	1156.275
2986.11635	1157.775
2988.55388	1143.575
2990.98993	1150.375
2993.4245	1142.975
2995.85758	1148.075
2998.28917	1140.875
3000.71928	1135.875
3003.14791	1138.075
3005.57506	1139.575
3008.00073	1132.175
3010.42493	1140.275
3012.84764	1138.575
3015.26888	1143.075
3017.68865	1136.575
3020.10694	1141.575
3022.52376	1135.475
3024.9391	1133.775
3027.35298	1132.075
3029.76539	1135.975
3032.17632	1127.775
3034.5858	1131.675
3036.9938	1143.575
3039.40034	1144.675
3041.80542	1137.775
3044.20903	1137.975
3046.61118	1141.375
3049.01187	1144.375
3051.4111	1148.975
3053.80888	1150.375
3056.20519	1146.675
3058.60005	1142.275
3060.99345	1144.775
3063.3854	1144.375
3065.7759	1146.575
3068.16494	1137.475
3070.55254	1146.875
3072.93868	1148.675
3075.32338	1147.075
3077.70662	1148.875
3080.08842	1147.075
3082.46878	1151.275
3084.84769	1157.175
3087.22515	1160.475
3089.60118	1156.275
3091.97576	1172.675
3094.3489	1162.275
3096.72061	1171.375
3099.09087	1176.975
3101.4597	1173.575
3103.82709	1176.175
3106.19305	1188.375
3108.55757	1189.475
3110.92066	1187.975
3113.28232	1194.575
3115.64255	1199.375
3118.00134	1201.775
3120.35871	1209.775
3122.71466	1214.675
3125.06917	1213.975
3127.42226	1212.175
3129.77393	1215.075
3132.12417	1218.575
3134.47299	1221.375
3136.82039	1228.375
3139.16636	1233.975
3141.51092	1238.275
3143.85406	1251.175
3146.19579	1253.475
3148.53609	1262.175
3150.87499	1265.375
3153.21246	1272.775
3155.54853	1283.775
3157.88318	1280.875
3160.21642	1289.375
3162.54826	1301.975
3164.87868	1307.075
3167.2077	1313.375
3169.5353	1323.275
3171.86151	1326.275
3174.18631	1331.975
3176.5097	1334.375
3178.83169	1340.875
3181.15228	1344.275
3183.47147	1343.775
3185.78926	1342.875
3188.10565	1342.975
3190.42065	1349.575
3192.73424	1355.975
3195.04645	1357.975
3197.35725	1361.675
3199.66667	1367.275
3201.97469	1369.475
3204.28132	1378.475
3206.58656	1383.875
3208.8904	1383.675
3211.19287	1387.875
3213.49394	1391.275
3215.79363	1402.975
3218.09193	1398.875
3220.38884	1399.775
3222.68438	1401.375
3224.97853	1408.275
3227.2713	1418.175
3229.56269	1415.975
3231.8527	1415.275
3234.14133	1411.775
3236.42858	1418.175
3238.71446	1410.975
