Data from AgNPs_APTES_FTO_UA_100uM_CRN_0uM_R6G_10uM_Scan_RamanShift__15__12-21-33-521.txt Node

Date: Thu Jun 23 12:21:33 BST 2022
User: TCL
Spectrometer: QEP01345
Trigger mode: 4
Integration Time (sec): 7.000000E0
Scans to average: 10
Electric dark correction enabled: true
Nonlinearity correction enabled: false
Boxcar width: 0
XAxis mode: Raman Shifts
Number of Pixels in Spectrum: 1044
>>>>>Begin Spectral Data<<<<<
46.04893	-0.2625
50.45542	-0.0625
54.85868	-0.8625
59.25871	-1.6625
63.6555	31.0375
68.04907	30.8375
72.43941	34.2375
76.82654	40.9375
81.21044	43.2375
85.59113	41.0375
89.96862	48.1375
94.34289	46.8375
98.71396	49.5375
103.08183	49.4375
107.4465	48.8375
111.80798	49.4375
116.16626	46.1375
120.52136	49.2375
124.87327	51.2375
129.222	51.0375
133.56755	49.8375
137.90993	47.9375
142.24913	50.4375
146.58517	46.7375
150.91804	51.9375
155.24774	59.1375
159.57429	63.1375
163.89768	68.3375
168.21792	83.6375
172.53501	100.3375
176.84895	118.5375
181.15975	164.1375
185.46741	223.9375
189.77193	301.3375
194.07331	394.1375
198.37157	506.3375
202.6667	618.3375
206.9587	737.1375
211.24758	858.8375
215.53334	975.0375
219.81599	1101.6375
224.09553	1236.5375
228.37195	1390.3375
232.64527	1547.9375
236.91549	1703.3375
241.18261	1863.0375
245.44663	2005.0375
249.70755	2122.0375
253.96539	2211.3375
258.22014	2284.1375
262.4718	2328.9375
266.72039	2353.0375
270.96589	2360.3375
275.20832	2325.3375
279.44768	2278.7375
283.68397	2227.6375
287.91719	2171.9375
292.14735	2143.0375
296.37445	2124.0375
300.59849	2147.1375
304.81948	2192.6375
309.03742	2219.4375
313.25231	2227.4375
317.46415	2175.6375
321.67296	2092.9375
325.87872	2019.9375
330.08145	1966.0375
334.28114	1948.4375
338.47781	1964.7375
342.67145	1987.6375
346.86207	2032.1375
351.04966	2084.3375
355.23424	2160.0375
359.4158	2224.2375
363.59435	2243.7375
367.76989	2246.6375
371.94243	2243.4375
376.11196	2231.1375
380.27849	2229.1375
384.44203	2225.5375
388.60257	2232.8375
392.76012	2225.7375
396.91468	2238.8375
401.06626	2271.8375
405.21485	2284.7375
409.36047	2266.5375
413.50311	2193.1375
417.64277	2133.2375
421.77947	2091.0375
425.9132	2072.8375
430.04396	2076.8375
434.17176	2093.2375
438.2966	2115.1375
442.41849	2145.6375
446.53742	2182.8375
450.6534	2210.6375
454.76644	2239.1375
458.87653	2237.7375
462.98368	2216.3375
467.08789	2215.9375
471.18916	2199.4375
475.2875	2177.5375
479.38291	2159.6375
483.4754	2152.8375
487.56496	2164.2375
491.6516	2187.7375
495.73531	2190.6375
499.81612	2203.0375
503.89401	2211.5375
507.96899	2220.0375
512.04106	2233.0375
516.11023	2239.7375
520.1765	2248.9375
524.23987	2253.9375
528.30034	2234.2375
532.35792	2222.5375
536.41261	2204.7375
540.46441	2180.8375
544.51333	2149.5375
548.55936	2139.5375
552.60252	2161.4375
556.64279	2173.4375
560.6802	2184.3375
564.71473	2194.7375
568.7464	2250.1375
572.7752	2260.4375
576.80114	2229.7375
580.82422	2193.5375
584.84444	2192.7375
588.86181	2232.4375
592.87633	2252.7375
596.888	2295.5375
600.89682	2333.4375
604.9028	2519.6375
608.90594	2990.3375
612.90624	3564.5375
616.90371	3476.4375
620.89834	2824.2375
624.89015	2489.6375
628.87913	2418.8375
632.86528	2453.6375
636.84862	2476.5375
640.82913	2437.2375
644.80683	2333.5375
648.78172	2266.8375
652.75379	2227.5375
656.72306	2252.7375
660.68952	2293.3375
664.65319	2276.4375
668.61405	2216.3375
672.57211	2208.3375
676.52738	2236.2375
680.47986	2287.4375
684.42955	2339.7375
688.37646	2365.9375
692.32058	2327.6375
696.26192	2277.3375
700.20048	2234.2375
704.13626	2209.9375
708.06928	2203.9375
711.99952	2188.8375
715.927	2175.0375
719.85171	2187.9375
723.77365	2195.2375
727.69284	2197.7375
731.60928	2183.0375
735.52295	2180.2375
739.43388	2171.9375
743.34206	2168.6375
747.24749	2166.0375
751.15017	2149.8375
755.05012	2169.1375
758.94733	2225.5375
762.8418	2358.2375
766.73354	2598.7375
770.62254	2849.1375
774.50882	2964.4375
778.39237	2884.8375
782.27321	2633.7375
786.15132	2412.1375
790.02671	2281.7375
793.89938	2215.1375
797.76935	2200.7375
801.6366	2205.0375
805.50115	2235.6375
809.36299	2256.2375
813.22213	2259.4375
817.07857	2226.4375
820.93231	2204.0375
824.78336	2180.1375
828.63172	2159.0375
832.47738	2155.1375
836.32036	2143.6375
840.16066	2141.0375
843.99827	2142.6375
847.8332	2147.4375
851.66546	2142.2375
855.49504	2136.1375
859.32195	2123.4375
863.1462	2134.3375
866.96777	2144.4375
870.78668	2158.6375
874.60293	2183.0375
878.41652	2229.5375
882.22745	2261.6375
886.03573	2306.4375
889.84136	2329.5375
893.64433	2338.7375
897.44466	2321.5375
901.24235	2310.8375
905.0374	2317.9375
908.8298	2317.8375
912.61957	2340.5375
916.40671	2389.2375
920.19121	2449.5375
923.97308	2511.4375
927.75233	2543.6375
931.52895	2564.1375
935.30295	2511.5375
939.07433	2444.6375
942.84309	2349.7375
946.60924	2278.7375
950.37278	2216.6375
954.13371	2169.9375
957.89203	2113.3375
961.64774	2089.4375
965.40086	2044.9375
969.15137	2019.9375
972.89929	1993.3375
976.64461	1969.9375
980.38733	1956.6375
984.12747	1939.3375
987.86502	1938.1375
991.59999	1939.9375
995.33237	1944.1375
999.06217	1956.9375
1002.78939	1976.7375
1006.51404	1995.9375
1010.23611	2022.3375
1013.95561	2047.5375
1017.67255	2054.5375
1021.38692	2047.0375
1025.09872	2019.7375
1028.80796	2006.0375
1032.51465	1990.8375
1036.21877	1978.9375
1039.92035	1980.8375
1043.61937	1977.7375
1047.31584	1967.1375
1051.00976	1973.2375
1054.70114	1966.8375
1058.38998	1958.3375
1062.07627	1949.4375
1065.76003	1959.7375
1069.44126	1952.6375
1073.11995	1965.1375
1076.79611	1971.3375
1080.46974	1984.9375
1084.14085	2007.2375
1087.80943	2022.2375
1091.47549	2018.3375
1095.13903	1993.2375
1098.80005	1955.8375
1102.45857	1913.7375
1106.11456	1896.1375
1109.76805	1900.7375
1113.41903	1939.4375
1117.06751	1989.2375
1120.71348	2061.4375
1124.35696	2152.5375
1127.99793	2264.1375
1131.63641	2318.8375
1135.2724	2279.1375
1138.90589	2216.1375
1142.5369	2144.8375
1146.16542	2063.8375
1149.79145	2012.3375
1153.415	1963.0375
1157.03607	1948.5375
1160.65467	1936.7375
1164.27079	1961.9375
1167.88443	2012.6375
1171.49561	2092.3375
1175.10432	2256.7375
1178.71056	2459.4375
1182.31434	2644.9375
1185.91565	2699.3375
1189.51451	2616.5375
1193.11091	2495.6375
1196.70485	2384.8375
1200.29634	2304.0375
1203.88538	2250.4375
1207.47197	2150.2375
1211.05612	2056.8375
1214.63782	1997.7375
1218.21708	1967.2375
1221.79391	1952.5375
1225.36829	1950.9375
1228.94024	1947.3375
1232.50976	1950.2375
1236.07685	1937.0375
1239.6415	1950.6375
1243.20374	1960.4375
1246.76355	1965.3375
1250.32093	1971.7375
1253.8759	1992.3375
1257.42845	2029.9375
1260.97859	2076.9375
1264.52631	2112.6375
1268.07163	2162.9375
1271.61453	2218.2375
1275.15503	2242.6375
1278.69312	2254.8375
1282.22882	2262.2375
1285.76211	2284.2375
1289.29301	2360.0375
1292.82151	2435.1375
1296.34761	2496.6375
1299.87133	2600.1375
1303.39266	2737.2375
1306.9116	2968.3375
1310.42815	3215.8375
1313.94233	3363.3375
1317.45412	3288.6375
1320.96354	3106.2375
1324.47058	2878.3375
1327.97525	2689.9375
1331.47754	2559.8375
1334.97747	2505.4375
1338.47502	2510.2375
1341.97022	2548.2375
1345.46305	2666.9375
1348.95352	2863.5375
1352.44163	3112.7375
1355.92738	3410.4375
1359.41078	3808.3375
1362.89183	4221.0375
1366.37053	4275.5375
1369.84688	3786.4375
1373.32088	3253.0375
1376.79254	2911.4375
1380.26186	2731.4375
1383.72883	2632.2375
1387.19347	2558.8375
1390.65578	2500.8375
1394.11575	2444.1375
1397.57339	2408.9375
1401.0287	2378.7375
1404.48168	2351.3375
1407.93234	2297.7375
1411.38068	2273.4375
1414.82669	2249.0375
1418.27039	2207.3375
1421.71177	2201.0375
1425.15083	2160.1375
1428.58758	2120.5375
1432.02203	2093.1375
1435.45416	2093.8375
1438.88399	2062.5375
1442.31151	2057.9375
1445.73673	2032.2375
1449.15965	2017.8375
1452.58027	2017.3375
1455.9986	2005.8375
1459.41463	1991.8375
1462.82837	2006.4375
1466.23982	2020.7375
1469.64898	2049.1375
1473.05586	2075.1375
1476.46045	2072.8375
1479.86276	2095.5375
1483.26279	2110.6375
1486.66054	2161.1375
1490.05602	2202.3375
1493.44922	2277.0375
1496.84016	2403.4375
1500.22882	2600.3375
1503.61521	2875.0375
1506.99934	3216.4375
1510.38121	3544.1375
1513.76081	3678.8375
1517.13816	3520.0375
1520.51324	3122.6375
1523.88607	2736.9375
1527.25665	2465.8375
1530.62498	2305.2375
1533.99105	2206.6375
1537.35488	2144.1375
1540.71647	2105.9375
1544.07581	2087.4375
1547.4329	2071.6375
1550.78776	2087.9375
1554.14038	2091.9375
1557.49077	2121.7375
1560.83892	2144.3375
1564.18484	2182.2375
1567.52853	2260.5375
1570.86999	2306.5375
1574.20922	2355.2375
1577.54624	2360.8375
1580.88103	2261.4375
1584.2136	2107.4375
1587.54395	2005.5375
1590.87208	1949.6375
1594.19801	1956.9375
1597.52172	2024.2375
1600.84321	2054.6375
1604.16251	2005.9375
1607.47959	1938.0375
1610.79447	1880.4375
1614.10715	1831.7375
1617.41763	1782.0375
1620.7259	1739.4375
1624.03199	1731.7375
1627.33587	1739.0375
1630.63757	1740.0375
1633.93707	1772.9375
1637.23439	1835.4375
1640.52951	1927.1375
1643.82246	2101.3375
1647.11321	2317.6375
1650.40179	2521.1375
1653.68819	2495.8375
1656.97241	2303.0375
1660.25446	2002.6375
1663.53433	1776.9375
1666.81203	1634.5375
1670.08756	1552.7375
1673.36092	1506.3375
1676.63211	1491.5375
1679.90115	1462.9375
1683.16801	1447.6375
1686.43272	1424.4375
1689.69527	1416.0375
1692.95567	1378.3375
1696.2139	1355.2375
1699.46999	1319.0375
1702.72392	1289.9375
1705.97571	1295.2375
1709.22535	1287.2375
1712.47284	1293.6375
1715.71819	1288.2375
1718.96139	1261.7375
1722.20246	1242.7375
1725.44139	1233.9375
1728.67818	1218.7375
1731.91284	1202.0375
1735.14537	1190.4375
1738.37576	1178.2375
1741.60403	1166.9375
1744.83017	1144.2375
1748.05418	1136.7375
1751.27607	1117.3375
1754.49584	1096.5375
1757.71349	1082.0375
1760.92903	1053.7375
1764.14244	1053.2375
1767.35375	1057.5375
1770.56294	1048.3375
1773.77002	1057.2375
1776.97499	1064.2375
1780.17785	1073.0375
1783.37861	1082.8375
1786.57727	1084.2375
1789.77382	1083.6375
1792.96828	1079.2375
1796.16064	1082.6375
1799.3509	1070.9375
1802.53907	1066.8375
1805.72514	1059.7375
1808.90913	1065.2375
1812.09102	1057.5375
1815.27083	1054.6375
1818.44856	1044.6375
1821.6242	1045.4375
1824.79776	1052.3375
1827.96924	1039.3375
1831.13864	1031.5375
1834.30597	1031.5375
1837.47122	1032.4375
1840.6344	1025.2375
1843.7955	1025.1375
1846.95454	1024.9375
1850.11151	1021.5375
1853.26642	1016.8375
1856.41926	1017.0375
1859.57004	1012.5375
1862.71876	1012.6375
1865.86542	1022.0375
1869.01003	999.6375
1872.15258	999.5375
1875.29308	999.2375
1878.43152	990.6375
1881.56792	1005.5375
1884.70227	989.1375
1887.83457	988.3375
1890.96482	981.6375
1894.09304	974.0375
1897.21921	980.0375
1900.34335	977.8375
1903.46544	969.5375
1906.58551	968.7375
1909.70353	969.0375
1912.81953	965.3375
1915.93349	963.3375
1919.04543	961.9375
1922.15534	959.1375
1925.26322	952.5375
1928.36908	953.7375
1931.47292	947.1375
1934.57473	943.2375
1937.67453	938.1375
1940.77232	935.9375
1943.86808	930.1375
1946.96184	933.8375
1950.05358	918.5375
1953.14331	921.2375
1956.23103	911.9375
1959.31675	915.2375
1962.40046	906.5375
1965.48217	909.5375
1968.56188	897.8375
1971.63959	897.2375
1974.7153	894.8375
1977.78901	894.6375
1980.86073	884.1375
1983.93046	893.3375
1986.99819	882.8375
1990.06394	879.1375
1993.1277	879.7375
1996.18947	867.3375
1999.24925	862.2375
2002.30706	862.6375
2005.36288	860.1375
2008.41672	859.1375
2011.46859	853.7375
2014.51848	855.0375
2017.56639	844.2375
2020.61233	842.9375
2023.6563	839.0375
2026.6983	830.8375
2029.73833	833.4375
2032.7764	832.7375
2035.8125	835.8375
2038.84664	828.2375
2041.87881	830.7375
2044.90903	819.3375
2047.93729	824.8375
2050.96359	821.4375
2053.98794	818.6375
2057.01034	824.3375
2060.03078	811.9375
2063.04927	824.0375
2066.06582	820.1375
2069.08042	819.3375
2072.09307	804.6375
2075.10378	812.8375
2078.11255	815.9375
2081.11938	817.1375
2084.12426	805.9375
2087.12722	813.0375
2090.12824	816.3375
2093.12732	814.3375
2096.12447	803.7375
2099.11969	809.6375
2102.11299	811.0375
2105.10435	807.1375
2108.09379	806.6375
2111.08131	808.5375
2114.0669	800.7375
2117.05057	797.9375
2120.03233	809.7375
2123.01216	805.3375
2125.99008	803.4375
2128.96609	800.8375
2131.94018	798.8375
2134.91236	791.3375
2137.88263	791.7375
2140.851	787.7375
2143.81746	791.8375
2146.78201	790.0375
2149.74466	787.6375
2152.7054	781.8375
2155.66425	777.1375
2158.6212	780.1375
2161.57625	770.0375
2164.52941	771.6375
2167.48067	768.9375
2170.43004	772.2375
2173.37752	768.9375
2176.32311	759.3375
2179.26681	764.8375
2182.20863	761.7375
2185.14856	761.9375
2188.08661	761.5375
2191.02278	752.0375
2193.95707	759.6375
2196.88948	756.1375
2199.82001	754.9375
2202.74867	758.8375
2205.67545	747.4375
2208.60037	749.4375
2211.52341	744.7375
2214.44458	745.1375
2217.36388	737.5375
2220.28132	742.6375
2223.1969	732.8375
2226.11061	736.4375
2229.02246	729.8375
2231.93245	734.1375
2234.84058	728.8375
2237.74686	723.2375
2240.65128	728.4375
2243.55385	724.9375
2246.45456	715.6375
2249.35343	713.9375
2252.25044	713.1375
2255.14561	715.4375
2258.03893	713.2375
2260.93041	705.4375
2263.82004	703.2375
2266.70783	708.3375
2269.59378	704.6375
2272.4779	700.0375
2275.36017	700.6375
2278.24061	701.2375
2281.11922	698.0375
2283.996	693.8375
2286.87094	695.4375
2289.74405	681.7375
2292.61534	691.2375
2295.4848	685.9375
2298.35243	687.7375
2301.21824	685.1375
2304.08223	681.7375
2306.94439	681.2375
2309.80474	672.7375
2312.66327	678.9375
2315.51999	677.1375
2318.37489	675.7375
2321.22797	672.8375
2324.07925	668.7375
2326.92871	665.6375
2329.77637	670.6375
2332.62222	662.8375
2335.46626	654.3375
2338.3085	656.2375
2341.14893	654.7375
2343.98756	654.8375
2346.8244	655.3375
2349.65943	657.4375
2352.49267	647.7375
2355.32411	652.5375
2358.15376	650.0375
2360.98161	649.7375
2363.80768	647.5375
2366.63195	652.2375
2369.45444	647.0375
2372.27514	647.6375
2375.09405	651.0375
2377.91118	649.0375
2380.72652	645.8375
2383.54009	637.8375
2386.35187	638.0375
2389.16188	637.4375
2391.97011	634.4375
2394.77657	637.4375
2397.58125	629.5375
2400.38416	626.6375
2403.18529	621.8375
2405.98466	620.5375
2408.78226	616.5375
2411.57809	609.4375
2414.37216	618.1375
2417.16446	615.4375
2419.955	606.7375
2422.74378	612.1375
2425.5308	606.2375
2428.31606	612.0375
2431.09956	611.3375
2433.88131	603.5375
2436.6613	608.0375
2439.43954	607.7375
2442.21603	603.4375
2444.99077	603.9375
2447.76377	601.1375
2450.53501	596.2375
2453.30451	600.1375
2456.07226	602.5375
2458.83827	597.2375
2461.60254	593.8375
2464.36507	593.2375
2467.12586	595.1375
2469.88492	594.9375
2472.64224	596.3375
2475.39782	591.1375
2478.15167	583.5375
2480.90379	585.5375
2483.65417	589.9375
2486.40283	581.9375
2489.14976	585.7375
2491.89497	584.3375
2494.63845	582.7375
2497.3802	575.9375
2500.12024	580.4375
2502.85855	579.8375
2505.59514	578.0375
2508.33002	575.9375
2511.06318	580.2375
2513.79462	574.8375
2516.52435	571.3375
2519.25237	566.9375
2521.97867	563.0375
2524.70327	568.4375
2527.42616	566.5375
2530.14734	561.8375
2532.86681	563.0375
2535.58458	559.7375
2538.30065	554.2375
2541.01501	558.8375
2543.72768	557.4375
2546.43864	556.6375
2549.14791	555.2375
2551.85548	549.8375
2554.56136	548.0375
2557.26554	550.9375
2559.96803	547.1375
2562.66883	545.8375
2565.36794	544.0375
2568.06536	549.6375
2570.7611	543.1375
2573.45514	544.3375
2576.14751	542.8375
2578.83819	538.7375
2581.52719	536.1375
2584.21451	534.4375
2586.90015	534.6375
2589.58411	528.8375
2592.2664	533.3375
2594.94701	535.0375
2597.62594	530.5375
2600.30321	527.5375
2602.9788	522.3375
2605.65273	524.3375
2608.32498	521.1375
2610.99557	523.6375
2613.66449	520.1375
2616.33175	525.0375
2618.99734	519.7375
2621.66128	522.1375
2624.32355	517.8375
2626.98416	511.8375
2629.64311	506.6375
2632.30041	514.8375
2634.95605	511.6375
2637.61004	510.3375
2640.26238	502.6375
2642.91306	506.9375
2645.56209	501.9375
2648.20948	504.7375
2650.85521	504.8375
2653.4993	505.0375
2656.14175	505.0375
2658.78255	501.4375
2661.42171	505.2375
2664.05923	503.0375
2666.6951	506.8375
2669.32934	511.7375
2671.96194	510.4375
2674.59291	504.7375
2677.22224	509.2375
2679.84993	502.4375
2682.476	501.3375
2685.10043	506.3375
2687.72324	503.2375
2690.34441	502.2375
2692.96396	506.5375
2695.58188	502.9375
2698.19818	500.5375
2700.81285	503.4375
2703.4259	481.8375
2706.03733	445.7375
2708.64714	471.6375
2711.25533	483.3375
2713.86191	488.3375
2716.46687	495.8375
2719.07021	495.5375
2721.67194	498.0375
2724.27206	498.2375
2726.87057	492.9375
2729.46747	502.2375
2732.06276	496.9375
2734.65644	503.0375
2737.24852	495.5375
2739.83899	496.3375
2742.42786	496.3375
2745.01513	489.6375
2747.60079	496.4375
2750.18486	491.4375
2752.76733	491.7375
2755.3482	491.9375
2757.92747	497.7375
2760.50515	489.7375
2763.08123	487.7375
2765.65573	492.2375
2768.22863	489.3375
2770.79994	486.0375
2773.36967	480.9375
2775.9378	490.1375
2778.50435	483.9375
2781.06932	484.3375
2783.6327	480.5375
2786.1945	485.4375
2788.75471	488.9375
2791.31335	480.3375
2793.87041	480.8375
2796.42589	477.0375
2798.97979	477.5375
2801.53212	472.7375
2804.08288	481.0375
2806.63206	475.0375
2809.17967	476.0375
2811.72571	473.1375
2814.27018	475.2375
2816.81308	475.2375
2819.35442	475.4375
2821.89419	472.5375
2824.43239	462.7375
2826.96904	470.0375
2829.50412	476.4375
2832.03763	471.8375
2834.56959	469.6375
2837.1	472.8375
2839.62884	470.8375
2842.15613	466.0375
2844.68186	474.8375
2847.20604	475.1375
2849.72867	478.5375
2852.24974	483.4375
2854.76927	476.4375
2857.28724	463.3375
2859.80367	478.4375
2862.31855	471.2375
2864.83189	480.1375
2867.34368	475.5375
2869.85393	479.1375
2872.36264	476.8375
2874.8698	483.3375
2877.37543	485.8375
2879.87952	486.0375
2882.38207	482.8375
2884.88308	481.3375
2887.38256	487.5375
2889.88051	486.7375
2892.37692	486.5375
2894.8718	496.4375
2897.36515	489.9375
2899.85698	494.9375
2902.34727	494.7375
2904.83604	502.5375
2907.32328	507.0375
2909.809	508.3375
2912.29319	507.3375
2914.77587	514.4375
2917.25702	521.1375
2919.73665	518.8375
2922.21476	522.5375
2924.69136	523.3375
2927.16644	524.0375
2929.64	524.5375
2932.11205	529.2375
2934.58258	521.3375
2937.05161	525.2375
2939.51912	518.9375
2941.98513	516.6375
2944.44962	515.3375
2946.91261	509.1375
2949.37409	504.2375
2951.83407	506.2375
2954.29254	498.7375
2956.74951	497.2375
2959.20498	493.2375
2961.65895	489.2375
2964.11142	486.1375
2966.56239	486.2375
2969.01186	487.2375
2971.45984	484.4375
2973.90632	482.3375
2976.35131	481.4375
2978.7948	473.9375
2981.23681	477.3375
2983.67732	476.9375
2986.11635	472.9375
2988.55388	473.3375
2990.98993	472.7375
2993.4245	473.2375
2995.85758	475.5375
2998.28917	467.9375
3000.71928	467.2375
3003.14791	472.3375
3005.57506	468.5375
3008.00073	474.6375
3010.42493	476.1375
3012.84764	472.6375
3015.26888	478.6375
3017.68865	474.6375
3020.10694	477.7375
3022.52376	476.7375
3024.9391	481.4375
3027.35298	478.3375
3029.76539	476.1375
3032.17632	478.8375
3034.5858	477.7375
3036.9938	487.4375
3039.40034	480.6375
3041.80542	480.8375
3044.20903	487.7375
3046.61118	488.1375
3049.01187	490.0375
3051.4111	496.4375
3053.80888	501.2375
3056.20519	493.7375
3058.60005	496.5375
3060.99345	497.6375
3063.3854	506.5375
3065.7759	508.1375
3068.16494	506.2375
3070.55254	506.5375
3072.93868	507.8375
3075.32338	509.0375
3077.70662	510.0375
3080.08842	513.8375
3082.46878	517.8375
3084.84769	517.0375
3087.22515	523.8375
3089.60118	524.7375
3091.97576	533.6375
3094.3489	531.2375
3096.72061	536.5375
3099.09087	548.0375
3101.4597	561.7375
3103.82709	559.0375
3106.19305	550.0375
3108.55757	550.8375
3110.92066	561.2375
3113.28232	566.5375
3115.64255	570.4375
3118.00134	569.5375
3120.35871	576.8375
3122.71466	576.6375
3125.06917	586.1375
3127.42226	584.9375
3129.77393	587.7375
3132.12417	596.1375
3134.47299	604.3375
3136.82039	609.0375
3139.16636	615.2375
3141.51092	621.6375
3143.85406	623.3375
3146.19579	626.4375
3148.53609	630.2375
3150.87499	644.5375
3153.21246	648.6375
3155.54853	657.0375
3157.88318	661.1375
3160.21642	655.6375
3162.54826	668.3375
3164.87868	677.5375
3167.2077	684.5375
3169.5353	692.1375
3171.86151	693.5375
3174.18631	693.2375
3176.5097	708.4375
3178.83169	707.7375
3181.15228	713.3375
