Data from AgNPs_APTES_FTO_UA_100uM_CRN_0uM_R6G_10uM_Scan_RamanShift__38__13-07-03-574.txt Node

Date: Thu Jun 23 13:07:03 BST 2022
User: TCL
Spectrometer: QEP01345
Trigger mode: 4
Integration Time (sec): 7.000000E0
Scans to average: 10
Electric dark correction enabled: true
Nonlinearity correction enabled: false
Boxcar width: 0
XAxis mode: Raman Shifts
Number of Pixels in Spectrum: 1044
>>>>>Begin Spectral Data<<<<<
46.04893	0.475
50.45542	-0.025
54.85868	-1.225
59.25871	-0.225
63.6555	-0.125
68.04907	-2.425
72.43941	2.875
76.82654	3.375
81.21044	0.175
85.59113	-2.225
89.96862	1.475
94.34289	3.075
98.71396	0.175
103.08183	-1.225
107.4465	-1.725
111.80798	-4.425
116.16626	-1.625
120.52136	0.975
124.87327	-1.825
129.222	-5.225
133.56755	-0.225
137.90993	-1.425
142.24913	-2.125
146.58517	-0.625
150.91804	-3.425
155.24774	2.375
159.57429	1.375
163.89768	-0.125
168.21792	1.475
172.53501	1.575
176.84895	-4.925
181.15975	0.175
185.46741	2.475
189.77193	2.475
194.07331	3.375
198.37157	6.475
202.6667	8.875
206.9587	10.375
211.24758	10.875
215.53334	10.975
219.81599	14.075
224.09553	14.675
228.37195	17.075
232.64527	19.675
236.91549	20.575
241.18261	19.875
245.44663	25.875
249.70755	25.975
253.96539	29.775
258.22014	29.675
262.4718	35.375
266.72039	37.275
270.96589	33.375
275.20832	33.775
279.44768	32.075
283.68397	32.875
287.91719	32.675
292.14735	29.875
296.37445	29.075
300.59849	32.875
304.81948	29.575
309.03742	29.975
313.25231	34.375
317.46415	32.475
321.67296	30.575
325.87872	31.875
330.08145	29.275
334.28114	30.975
338.47781	37.275
342.67145	29.975
346.86207	33.375
351.04966	30.175
355.23424	31.375
359.4158	33.675
363.59435	29.075
367.76989	34.675
371.94243	31.975
376.11196	36.975
380.27849	38.975
384.44203	38.675
388.60257	39.075
392.76012	42.175
396.91468	38.575
401.06626	49.375
405.21485	48.275
409.36047	52.775
413.50311	58.575
417.64277	74.075
421.77947	90.275
425.9132	114.775
430.04396	129.175
434.17176	131.875
438.2966	116.975
442.41849	85.775
446.53742	81.075
450.6534	69.675
454.76644	72.175
458.87653	57.675
462.98368	55.975
467.08789	50.175
471.18916	49.275
475.2875	52.475
479.38291	54.375
483.4754	60.475
487.56496	66.275
491.6516	71.675
495.73531	70.575
499.81612	63.975
503.89401	58.975
507.96899	57.475
512.04106	52.475
516.11023	46.575
520.1765	46.275
524.23987	48.375
528.30034	45.375
532.35792	46.175
536.41261	47.275
540.46441	42.275
544.51333	42.275
548.55936	43.175
552.60252	45.975
556.64279	41.975
560.6802	43.175
564.71473	43.375
568.7464	45.775
572.7752	37.975
576.80114	43.275
580.82422	44.975
584.84444	42.875
588.86181	48.675
592.87633	47.875
596.888	48.875
600.89682	53.475
604.9028	57.475
608.90594	54.575
612.90624	42.075
616.90371	41.075
620.89834	42.975
624.89015	35.975
628.87913	36.575
632.86528	37.275
636.84862	36.875
640.82913	34.975
644.80683	38.275
648.78172	32.275
652.75379	35.275
656.72306	32.375
660.68952	36.875
664.65319	35.475
668.61405	32.875
672.57211	32.075
676.52738	34.875
680.47986	35.575
684.42955	39.875
688.37646	45.375
692.32058	49.975
696.26192	62.875
700.20048	85.075
704.13626	108.475
708.06928	110.275
711.99952	99.875
715.927	88.475
719.85171	72.575
723.77365	59.875
727.69284	55.775
731.60928	52.475
735.52295	53.675
739.43388	48.075
743.34206	48.775
747.24749	44.075
751.15017	39.775
755.05012	38.675
758.94733	35.475
762.8418	33.675
766.73354	35.475
770.62254	39.875
774.50882	36.775
778.39237	40.075
782.27321	35.575
786.15132	31.075
790.02671	36.375
793.89938	36.375
797.76935	37.575
801.6366	37.975
805.50115	36.975
809.36299	43.675
813.22213	41.175
817.07857	42.075
820.93231	39.475
824.78336	41.375
828.63172	36.975
832.47738	36.275
836.32036	37.475
840.16066	38.975
843.99827	34.075
847.8332	32.275
851.66546	37.875
855.49504	38.675
859.32195	33.075
863.1462	33.875
866.96777	38.375
870.78668	32.075
874.60293	33.175
878.41652	33.875
882.22745	33.675
886.03573	30.575
889.84136	33.575
893.64433	32.075
897.44466	32.275
901.24235	37.875
905.0374	30.975
908.8298	29.375
912.61957	38.275
916.40671	33.175
920.19121	32.175
923.97308	32.675
927.75233	33.875
931.52895	35.275
935.30295	30.375
939.07433	33.775
942.84309	30.875
946.60924	34.775
950.37278	29.875
954.13371	29.975
957.89203	28.275
961.64774	26.975
965.40086	29.275
969.15137	25.775
972.89929	26.975
976.64461	29.575
980.38733	26.175
984.12747	26.775
987.86502	30.975
991.59999	29.075
995.33237	28.975
999.06217	30.775
1002.78939	25.375
1006.51404	26.975
1010.23611	22.875
1013.95561	26.875
1017.67255	31.075
1021.38692	30.575
1025.09872	25.175
1028.80796	26.675
1032.51465	25.875
1036.21877	28.775
1039.92035	28.375
1043.61937	25.775
1047.31584	25.275
1051.00976	22.875
1054.70114	29.075
1058.38998	26.775
1062.07627	26.575
1065.76003	29.075
1069.44126	29.575
1073.11995	31.375
1076.79611	27.575
1080.46974	35.375
1084.14085	35.775
1087.80943	30.575
1091.47549	34.775
1095.13903	36.575
1098.80005	32.875
1102.45857	33.275
1106.11456	35.775
1109.76805	37.975
1113.41903	35.075
1117.06751	32.875
1120.71348	33.675
1124.35696	33.475
1127.99793	36.275
1131.63641	32.475
1135.2724	33.175
1138.90589	31.975
1142.5369	31.675
1146.16542	30.675
1149.79145	31.475
1153.415	28.775
1157.03607	25.675
1160.65467	29.075
1164.27079	24.975
1167.88443	28.975
1171.49561	31.575
1175.10432	27.675
1178.71056	30.475
1182.31434	27.475
1185.91565	29.775
1189.51451	29.975
1193.11091	26.475
1196.70485	26.475
1200.29634	29.675
1203.88538	28.775
1207.47197	32.475
1211.05612	31.875
1214.63782	32.975
1218.21708	33.075
1221.79391	32.875
1225.36829	36.275
1228.94024	35.675
1232.50976	38.575
1236.07685	41.575
1239.6415	51.175
1243.20374	56.775
1246.76355	64.075
1250.32093	78.775
1253.8759	83.075
1257.42845	89.275
1260.97859	97.875
1264.52631	96.875
1268.07163	89.675
1271.61453	83.175
1275.15503	76.475
1278.69312	62.175
1282.22882	54.375
1285.76211	44.675
1289.29301	45.875
1292.82151	36.575
1296.34761	30.675
1299.87133	28.475
1303.39266	29.675
1306.9116	29.375
1310.42815	23.875
1313.94233	18.975
1317.45412	18.175
1320.96354	23.275
1324.47058	32.275
1327.97525	49.175
1331.47754	21.675
1334.97747	14.375
1338.47502	18.675
1341.97022	15.675
1345.46305	18.275
1348.95352	17.475
1352.44163	16.875
1355.92738	16.975
1359.41078	16.475
1362.89183	19.775
1366.37053	24.275
1369.84688	21.175
1373.32088	24.575
1376.79254	34.075
1380.26186	52.775
1383.72883	72.775
1387.19347	96.375
1390.65578	96.875
1394.11575	74.275
1397.57339	52.175
1401.0287	32.375
1404.48168	22.675
1407.93234	19.575
1411.38068	15.975
1414.82669	16.575
1418.27039	12.975
1421.71177	11.975
1425.15083	13.575
1428.58758	17.675
1432.02203	15.675
1435.45416	11.775
1438.88399	11.575
1442.31151	15.275
1445.73673	24.075
1449.15965	29.475
1452.58027	15.175
1455.9986	8.375
1459.41463	10.175
1462.82837	9.975
1466.23982	7.575
1469.64898	8.475
1473.05586	10.575
1476.46045	5.575
1479.86276	11.175
1483.26279	12.675
1486.66054	10.175
1490.05602	10.075
1493.44922	9.275
1496.84016	10.375
1500.22882	12.075
1503.61521	8.875
1506.99934	10.975
1510.38121	9.975
1513.76081	14.775
1517.13816	9.975
1520.51324	13.175
1523.88607	10.275
1527.25665	11.775
1530.62498	12.775
1533.99105	11.875
1537.35488	9.275
1540.71647	12.175
1544.07581	13.175
1547.4329	11.975
1550.78776	11.075
1554.14038	14.775
1557.49077	14.875
1560.83892	13.675
1564.18484	11.375
1567.52853	18.475
1570.86999	14.575
1574.20922	13.775
1577.54624	17.375
1580.88103	19.575
1584.2136	19.975
1587.54395	23.975
1590.87208	24.375
1594.19801	26.875
1597.52172	34.975
1600.84321	33.775
1604.16251	36.875
1607.47959	26.675
1610.79447	29.975
1614.10715	30.175
1617.41763	35.275
1620.7259	42.275
1624.03199	47.975
1627.33587	56.875
1630.63757	62.275
1633.93707	74.775
1637.23439	90.075
1640.52951	98.975
1643.82246	120.775
1647.11321	136.375
1650.40179	154.875
1653.68819	185.875
1656.97241	202.075
1660.25446	199.075
1663.53433	197.475
1666.81203	177.175
1670.08756	154.375
1673.36092	132.875
1676.63211	103.575
1679.90115	90.475
1683.16801	90.375
1686.43272	87.475
1689.69527	111.975
1692.95567	156.275
1696.2139	236.975
1699.46999	313.275
1702.72392	314.675
1705.97571	241.175
1709.22535	156.175
1712.47284	103.975
1715.71819	67.975
1718.96139	51.675
1722.20246	42.775
1725.44139	36.975
1728.67818	37.175
1731.91284	37.075
1735.14537	40.175
1738.37576	39.175
1741.60403	51.175
1744.83017	56.075
1748.05418	70.775
1751.27607	94.175
1754.49584	136.075
1757.71349	182.775
1760.92903	204.575
1764.14244	199.275
1767.35375	192.575
1770.56294	196.475
1773.77002	174.775
1776.97499	125.975
1780.17785	85.175
1783.37861	55.675
1786.57727	41.175
1789.77382	31.075
1792.96828	25.675
1796.16064	20.675
1799.3509	16.475
1802.53907	12.875
1805.72514	10.675
1808.90913	15.475
1812.09102	9.475
1815.27083	7.875
1818.44856	10.275
1821.6242	9.275
1824.79776	11.275
1827.96924	9.775
1831.13864	5.475
1834.30597	6.175
1837.47122	6.175
1840.6344	7.175
1843.7955	8.175
1846.95454	8.075
1850.11151	5.475
1853.26642	5.775
1856.41926	4.275
1859.57004	7.475
1862.71876	4.775
1865.86542	6.575
1869.01003	5.075
1872.15258	4.075
1875.29308	8.375
1878.43152	6.275
1881.56792	7.975
1884.70227	2.775
1887.83457	5.175
1890.96482	1.575
1894.09304	4.175
1897.21921	7.475
1900.34335	4.575
1903.46544	2.375
1906.58551	3.175
1909.70353	3.675
1912.81953	2.275
1915.93349	1.975
1919.04543	5.275
1922.15534	5.575
1925.26322	3.575
1928.36908	6.175
1931.47292	3.375
1934.57473	0.675
1937.67453	1.275
1940.77232	2.675
1943.86808	0.675
1946.96184	5.375
1950.05358	2.175
1953.14331	2.975
1956.23103	2.275
1959.31675	4.575
1962.40046	1.975
1965.48217	2.375
1968.56188	1.175
1971.63959	0.775
1974.7153	2.075
1977.78901	2.275
1980.86073	4.775
1983.93046	1.075
1986.99819	2.875
1990.06394	4.975
1993.1277	6.675
1996.18947	2.975
1999.24925	2.675
2002.30706	6.975
2005.36288	4.875
2008.41672	3.175
2011.46859	2.675
2014.51848	6.275
2017.56639	1.975
2020.61233	2.475
2023.6563	1.375
2026.6983	4.875
2029.73833	1.275
2032.7764	3.075
2035.8125	0.375
2038.84664	2.475
2041.87881	6.575
2044.90903	1.875
2047.93729	2.675
2050.96359	4.475
2053.98794	5.275
2057.01034	1.675
2060.03078	1.775
2063.04927	4.175
2066.06582	2.675
2069.08042	0.875
2072.09307	0.075
2075.10378	3.475
2078.11255	1.675
2081.11938	5.775
2084.12426	1.375
2087.12722	0.075
2090.12824	5.875
2093.12732	5.175
2096.12447	3.975
2099.11969	1.075
2102.11299	-0.925
2105.10435	1.575
2108.09379	0.475
2111.08131	1.975
2114.0669	0.475
2117.05057	0.675
2120.03233	2.475
2123.01216	-0.425
2125.99008	0.675
2128.96609	0.675
2131.94018	3.675
2134.91236	0.075
2137.88263	-0.125
2140.851	3.375
2143.81746	0.275
2146.78201	2.475
2149.74466	2.375
2152.7054	2.475
2155.66425	2.875
2158.6212	0.475
2161.57625	0.775
2164.52941	1.175
2167.48067	-0.125
2170.43004	-0.525
2173.37752	-0.925
2176.32311	1.175
2179.26681	0.375
2182.20863	3.475
2185.14856	0.075
2188.08661	0.475
2191.02278	-1.925
2193.95707	-0.025
2196.88948	-0.125
2199.82001	0.075
2202.74867	-0.225
2205.67545	0.875
2208.60037	-1.125
2211.52341	2.975
2214.44458	-0.525
2217.36388	-4.025
2220.28132	2.875
2223.1969	-0.725
2226.11061	-2.125
2229.02246	1.675
2231.93245	-1.025
2234.84058	0.175
2237.74686	1.575
2240.65128	-0.725
2243.55385	1.175
2246.45456	0.575
2249.35343	0.075
2252.25044	0.075
2255.14561	6.075
2258.03893	4.575
2260.93041	15.975
2263.82004	1.375
2266.70783	3.475
2269.59378	3.175
2272.4779	-0.525
2275.36017	3.575
2278.24061	1.975
2281.11922	0.775
2283.996	0.375
2286.87094	-0.025
2289.74405	-2.425
2292.61534	3.975
2295.4848	2.375
2298.35243	0.775
2301.21824	1.575
2304.08223	-0.925
2306.94439	5.575
2309.80474	1.875
2312.66327	3.375
2315.51999	3.075
2318.37489	-1.025
2321.22797	6.475
2324.07925	4.475
2326.92871	4.675
2329.77637	5.075
2332.62222	5.975
2335.46626	4.975
2338.3085	4.475
2341.14893	4.875
2343.98756	6.075
2346.8244	1.175
2349.65943	4.375
2352.49267	3.275
2355.32411	1.975
2358.15376	-0.125
2360.98161	-2.125
2363.80768	1.075
2366.63195	-1.325
2369.45444	1.675
2372.27514	-1.125
2375.09405	-0.325
2377.91118	1.375
2380.72652	-1.325
2383.54009	1.575
2386.35187	-2.625
2389.16188	2.675
2391.97011	-1.225
2394.77657	3.575
2397.58125	-0.225
2400.38416	1.875
2403.18529	3.575
2405.98466	2.275
2408.78226	3.475
2411.57809	3.175
2414.37216	2.075
2417.16446	3.875
2419.955	0.275
2422.74378	-0.525
2425.5308	-0.025
2428.31606	-0.125
2431.09956	2.775
2433.88131	0.275
2436.6613	3.075
2439.43954	-1.525
2442.21603	1.675
2444.99077	0.375
2447.76377	-0.425
2450.53501	0.575
2453.30451	0.475
2456.07226	-0.325
2458.83827	0.375
2461.60254	1.475
2464.36507	-1.125
2467.12586	-0.725
2469.88492	0.175
2472.64224	3.575
2475.39782	10.575
2478.15167	11.275
2480.90379	3.475
2483.65417	0.375
2486.40283	1.975
2489.14976	1.775
2491.89497	1.975
2494.63845	14.375
2497.3802	12.175
2500.12024	2.175
2502.85855	0.275
2505.59514	1.275
2508.33002	-2.325
2511.06318	0.875
2513.79462	2.475
2516.52435	5.075
2519.25237	-0.425
2521.97867	-1.225
2524.70327	1.975
2527.42616	-1.425
2530.14734	-1.225
2532.86681	-3.125
2535.58458	-1.325
2538.30065	2.775
2541.01501	-2.225
2543.72768	-2.525
2546.43864	1.675
2549.14791	1.175
2551.85548	3.175
2554.56136	0.775
2557.26554	0.675
2559.96803	-2.425
2562.66883	-2.425
2565.36794	1.275
2568.06536	-2.625
2570.7611	1.175
2573.45514	-0.125
2576.14751	0.875
2578.83819	1.075
2581.52719	-0.225
2584.21451	-2.625
2586.90015	2.275
2589.58411	0.775
2592.2664	2.575
2594.94701	1.875
2597.62594	-1.025
2600.30321	-1.425
2602.9788	2.175
2605.65273	-0.125
2608.32498	-0.225
2610.99557	-1.325
2613.66449	-1.425
2616.33175	0.575
2618.99734	-0.425
2621.66128	0.175
2624.32355	3.675
2626.98416	0.775
2629.64311	-1.725
2632.30041	3.075
2634.95605	-2.125
2637.61004	-1.325
2640.26238	2.775
2642.91306	1.975
2645.56209	1.975
2648.20948	4.075
2650.85521	3.175
2653.4993	3.375
2656.14175	2.375
2658.78255	-0.725
2661.42171	1.875
2664.05923	1.375
2666.6951	-2.325
2669.32934	2.275
2671.96194	-0.325
2674.59291	0.875
2677.22224	1.975
2679.84993	-2.825
2682.476	-2.825
2685.10043	-0.725
2687.72324	-0.725
2690.34441	-1.125
2692.96396	2.075
2695.58188	-0.325
2698.19818	-0.525
2700.81285	2.475
2703.4259	14.475
2706.03733	47.075
2708.64714	26.375
2711.25533	17.875
2713.86191	9.575
2716.46687	8.975
2719.07021	3.275
2721.67194	2.475
2724.27206	0.375
2726.87057	-3.425
2729.46747	-1.025
2732.06276	-0.425
2734.65644	-0.825
2737.24852	-0.625
2739.83899	-1.525
2742.42786	0.175
2745.01513	-3.425
2747.60079	-2.825
2750.18486	-0.125
2752.76733	-0.225
2755.3482	-2.825
2757.92747	-1.625
2760.50515	0.475
2763.08123	-1.125
2765.65573	1.575
2768.22863	2.175
2770.79994	0.875
2773.36967	-1.725
2775.9378	-1.725
2778.50435	-1.425
2781.06932	-3.925
2783.6327	-3.125
2786.1945	-0.325
2788.75471	-2.725
2791.31335	-3.225
2793.87041	0.275
2796.42589	0.175
2798.97979	-1.025
2801.53212	-4.125
2804.08288	-2.225
2806.63206	-0.025
2809.17967	-1.025
2811.72571	-0.525
2814.27018	0.675
2816.81308	-1.825
2819.35442	1.075
2821.89419	0.375
2824.43239	-0.125
2826.96904	-3.225
2829.50412	-2.525
2832.03763	-2.625
2834.56959	-0.325
2837.1	0.675
2839.62884	1.775
2842.15613	-5.825
2844.68186	-2.325
2847.20604	-0.725
2849.72867	-1.125
2852.24974	0.675
2854.76927	8.775
2857.28724	16.975
2859.80367	4.875
2862.31855	2.875
2864.83189	2.875
2867.34368	1.375
2869.85393	1.775
2872.36264	5.075
2874.8698	-0.025
2877.37543	-2.925
2879.87952	3.075
2882.38207	-0.425
2884.88308	-1.225
2887.38256	-0.625
2889.88051	-0.025
2892.37692	-0.525
2894.8718	2.675
2897.36515	-1.025
2899.85698	0.275
2902.34727	-5.125
2904.83604	3.375
2907.32328	-1.625
2909.809	-0.925
2912.29319	-1.525
2914.77587	-0.825
2917.25702	-0.625
2919.73665	0.375
2922.21476	-2.225
2924.69136	-1.925
2927.16644	-1.425
2929.64	-1.625
2932.11205	-2.725
2934.58258	3.875
2937.05161	0.075
2939.51912	-2.525
2941.98513	-1.125
2944.44962	1.075
2946.91261	-0.825
2949.37409	-3.425
2951.83407	2.175
2954.29254	1.575
2956.74951	-1.325
2959.20498	-3.725
2961.65895	-1.925
2964.11142	-1.725
2966.56239	0.175
2969.01186	-0.125
2971.45984	3.475
2973.90632	1.075
2976.35131	-1.125
2978.7948	-1.425
2981.23681	0.075
2983.67732	-0.025
2986.11635	-1.025
2988.55388	-0.625
2990.98993	0.475
2993.4245	-1.325
2995.85758	-1.725
2998.28917	-1.125
3000.71928	-1.325
3003.14791	-0.225
3005.57506	-2.125
3008.00073	-0.825
3010.42493	2.175
3012.84764	-1.325
3015.26888	-0.625
3017.68865	0.675
3020.10694	-2.025
3022.52376	0.975
3024.9391	-1.925
3027.35298	-1.425
3029.76539	-2.125
3032.17632	-3.325
3034.5858	-2.125
3036.9938	2.475
3039.40034	-2.025
3041.80542	-2.725
3044.20903	-3.425
3046.61118	-2.625
3049.01187	0.475
3051.4111	0.975
3053.80888	-3.025
3056.20519	-1.025
3058.60005	-1.925
3060.99345	-1.825
3063.3854	-1.325
3065.7759	-1.325
3068.16494	-2.225
3070.55254	-1.525
3072.93868	-0.625
3075.32338	1.075
3077.70662	-6.825
3080.08842	-0.325
3082.46878	-0.625
3084.84769	-2.325
3087.22515	3.475
3089.60118	-3.025
3091.97576	2.175
3094.3489	-3.325
3096.72061	-0.125
3099.09087	0.675
3101.4597	-0.025
3103.82709	-0.725
3106.19305	-1.725
3108.55757	-1.025
3110.92066	-1.325
3113.28232	-4.525
3115.64255	-2.725
3118.00134	-4.625
3120.35871	-3.125
3122.71466	1.575
3125.06917	-1.225
3127.42226	-2.925
3129.77393	-2.425
3132.12417	-4.425
3134.47299	1.575
3136.82039	-1.425
3139.16636	-0.825
3141.51092	0.775
3143.85406	1.175
3146.19579	-3.425
3148.53609	0.175
3150.87499	-1.825
3153.21246	-4.525
3155.54853	-0.325
3157.88318	-0.225
3160.21642	-3.625
3162.54826	-3.125
3164.87868	-3.325
3167.2077	-2.225
3169.5353	1.675
3171.86151	-0.525
3174.18631	0.075
3176.5097	0.075
3178.83169	1.175
3181.15228	0.675
3183.47147	0.075
3185.78926	-1.725
3188.10565	-1.225
3190.42065	-1.725
3192.73424	3.475
3195.04645	-3.525
3197.35725	0.675
3199.66667	1.375
3201.97469	0.575
3204.28132	-1.025
3206.58656	-1.425
3208.8904	-2.025
3211.19287	-0.625
3213.49394	-2.825
3215.79363	1.075
3218.09193	-0.125
3220.38884	10.575
3222.68438	12.475
3224.97853	4.975
3227.2713	2.075
3229.56269	4.575
3231.8527	6.475
3234.14133	0.575
3236.42858	0.675
3238.71446	-0.625
3240.99896	-0.525
3243.28209	-0.825
3245.56384	0.375
3247.84423	-2.625
3250.12324	2.275
3252.40088	-0.025
3254.67715	-1.025
3256.95205	0.275
3259.22558	-1.025
3261.49775	2.475
3263.76855	-4.025
3266.03799	-0.225
3268.30606	2.175
3270.57277	1.875
3272.83812	-0.425
3275.10211	-1.325
3277.36474	-0.025
3279.62601	1.875
3281.88593	0.175
3284.14448	-2.325
3286.40168	-1.025
3288.65753	-0.325
3290.91202	0.975
3293.16516	-2.225
3295.41695	1.875
3297.66738	-1.825
3299.91647	-0.825
3302.16421	0.275
3304.4106	0.475
3306.65564	-0.325
3308.89933	1.975
3311.14169	5.375
3313.38269	5.575
3315.62236	6.875
3317.86068	4.175
3320.09766	1.275
3322.3333	2.275
3324.5676	8.275
3326.80056	16.575
3329.03219	9.175
3331.26248	-0.625
3333.49143	0.775
3335.71905	0.375
