Data from AgNPs_APTES_FTO_UA_100uM_CRN_0uM_R6G_10uM_Scan_RamanShift__9__12-14-33-512.txt Node

Date: Thu Jun 23 12:14:33 BST 2022
User: TCL
Spectrometer: QEP01345
Trigger mode: 4
Integration Time (sec): 7.000000E0
Scans to average: 10
Electric dark correction enabled: true
Nonlinearity correction enabled: false
Boxcar width: 0
XAxis mode: Raman Shifts
Number of Pixels in Spectrum: 1044
>>>>>Begin Spectral Data<<<<<
46.04893	0.1375
50.45542	-0.2625
54.85868	-1.4625
59.25871	-0.2625
63.6555	29.1375
68.04907	33.6375
72.43941	38.0375
76.82654	40.4375
81.21044	43.2375
85.59113	45.7375
89.96862	48.9375
94.34289	49.5375
98.71396	52.1375
103.08183	48.4375
107.4465	49.5375
111.80798	48.3375
116.16626	52.9375
120.52136	52.3375
124.87327	52.4375
129.222	51.9375
133.56755	54.6375
137.90993	50.9375
142.24913	52.7375
146.58517	50.2375
150.91804	53.9375
155.24774	61.9375
159.57429	68.3375
163.89768	77.6375
168.21792	91.0375
172.53501	110.4375
176.84895	140.9375
181.15975	190.8375
185.46741	259.7375
189.77193	348.8375
194.07331	460.1375
198.37157	593.4375
202.6667	732.2375
206.9587	868.6375
211.24758	1009.7375
215.53334	1145.2375
219.81599	1307.9375
224.09553	1478.3375
228.37195	1653.5375
232.64527	1850.5375
236.91549	2041.8375
241.18261	2217.0375
245.44663	2377.5375
249.70755	2512.5375
253.96539	2613.4375
258.22014	2712.2375
262.4718	2769.0375
266.72039	2802.9375
270.96589	2775.4375
275.20832	2740.3375
279.44768	2666.0375
283.68397	2600.6375
287.91719	2514.4375
292.14735	2473.7375
296.37445	2471.6375
300.59849	2496.6375
304.81948	2560.0375
309.03742	2625.4375
313.25231	2648.3375
317.46415	2577.4375
321.67296	2443.6375
325.87872	2328.2375
330.08145	2236.6375
334.28114	2213.4375
338.47781	2244.6375
342.67145	2279.2375
346.86207	2360.3375
351.04966	2459.2375
355.23424	2573.2375
359.4158	2641.9375
363.59435	2645.0375
367.76989	2628.6375
371.94243	2591.7375
376.11196	2569.4375
380.27849	2545.9375
384.44203	2529.2375
388.60257	2493.3375
392.76012	2491.3375
396.91468	2535.7375
401.06626	2564.1375
405.21485	2586.4375
409.36047	2539.9375
413.50311	2452.5375
417.64277	2355.7375
421.77947	2317.3375
425.9132	2284.6375
430.04396	2295.4375
434.17176	2307.0375
438.2966	2335.6375
442.41849	2360.8375
446.53742	2405.0375
450.6534	2441.8375
454.76644	2461.0375
458.87653	2461.7375
462.98368	2453.8375
467.08789	2441.8375
471.18916	2432.9375
475.2875	2391.3375
479.38291	2389.4375
483.4754	2359.0375
487.56496	2369.7375
491.6516	2354.7375
495.73531	2385.5375
499.81612	2389.6375
503.89401	2406.7375
507.96899	2412.5375
512.04106	2444.8375
516.11023	2451.2375
520.1765	2478.9375
524.23987	2486.8375
528.30034	2471.2375
532.35792	2440.3375
536.41261	2406.8375
540.46441	2366.4375
544.51333	2346.2375
548.55936	2336.6375
552.60252	2363.2375
556.64279	2390.4375
560.6802	2422.7375
564.71473	2459.4375
568.7464	2541.3375
572.7752	2565.3375
576.80114	2482.2375
580.82422	2396.3375
584.84444	2389.0375
588.86181	2391.7375
592.87633	2427.3375
596.888	2468.2375
600.89682	2570.4375
604.9028	2827.7375
608.90594	3518.1375
612.90624	4376.9375
616.90371	4266.8375
620.89834	3284.8375
624.89015	2766.7375
628.87913	2634.7375
632.86528	2623.9375
636.84862	2652.0375
640.82913	2596.9375
644.80683	2488.6375
648.78172	2422.3375
652.75379	2414.1375
656.72306	2469.1375
660.68952	2558.6375
664.65319	2520.8375
668.61405	2462.2375
672.57211	2434.1375
676.52738	2479.8375
680.47986	2529.0375
684.42955	2592.0375
688.37646	2615.4375
692.32058	2602.2375
696.26192	2545.5375
700.20048	2511.5375
704.13626	2498.1375
708.06928	2481.3375
711.99952	2444.3375
715.927	2446.1375
719.85171	2434.2375
723.77365	2440.8375
727.69284	2418.4375
731.60928	2412.9375
735.52295	2401.3375
739.43388	2389.9375
743.34206	2390.7375
747.24749	2401.7375
751.15017	2394.7375
755.05012	2405.5375
758.94733	2494.3375
762.8418	2687.6375
766.73354	3032.5375
770.62254	3384.1375
774.50882	3487.8375
778.39237	3370.3375
782.27321	3067.4375
786.15132	2756.0375
790.02671	2557.5375
793.89938	2474.2375
797.76935	2464.3375
801.6366	2435.6375
805.50115	2444.1375
809.36299	2463.9375
813.22213	2466.8375
817.07857	2467.3375
820.93231	2449.1375
824.78336	2427.7375
828.63172	2425.8375
832.47738	2419.5375
836.32036	2398.0375
840.16066	2402.8375
843.99827	2385.8375
847.8332	2389.7375
851.66546	2388.9375
855.49504	2376.5375
859.32195	2369.0375
863.1462	2374.3375
866.96777	2379.9375
870.78668	2406.1375
874.60293	2437.4375
878.41652	2470.7375
882.22745	2516.9375
886.03573	2585.4375
889.84136	2613.1375
893.64433	2641.3375
897.44466	2654.3375
901.24235	2670.1375
905.0374	2671.9375
908.8298	2689.3375
912.61957	2734.5375
916.40671	2795.8375
920.19121	2869.1375
923.97308	2928.9375
927.75233	3013.0375
931.52895	3021.6375
935.30295	2964.8375
939.07433	2840.4375
942.84309	2730.1375
946.60924	2637.0375
950.37278	2553.1375
954.13371	2490.4375
957.89203	2432.1375
961.64774	2390.7375
965.40086	2350.1375
969.15137	2307.7375
972.89929	2274.1375
976.64461	2259.1375
980.38733	2233.3375
984.12747	2205.7375
987.86502	2199.3375
991.59999	2211.6375
995.33237	2199.1375
999.06217	2215.7375
1002.78939	2233.9375
1006.51404	2262.1375
1010.23611	2289.8375
1013.95561	2295.7375
1017.67255	2302.8375
1021.38692	2299.1375
1025.09872	2280.6375
1028.80796	2265.3375
1032.51465	2250.7375
1036.21877	2258.3375
1039.92035	2250.3375
1043.61937	2251.9375
1047.31584	2244.5375
1051.00976	2248.0375
1054.70114	2246.3375
1058.38998	2236.1375
1062.07627	2221.1375
1065.76003	2205.7375
1069.44126	2212.6375
1073.11995	2207.6375
1076.79611	2215.3375
1080.46974	2246.5375
1084.14085	2281.3375
1087.80943	2324.2375
1091.47549	2324.6375
1095.13903	2286.4375
1098.80005	2219.6375
1102.45857	2165.1375
1106.11456	2156.8375
1109.76805	2169.1375
1113.41903	2208.4375
1117.06751	2260.0375
1120.71348	2371.7375
1124.35696	2477.2375
1127.99793	2609.0375
1131.63641	2629.9375
1135.2724	2544.0375
1138.90589	2439.0375
1142.5369	2364.4375
1146.16542	2292.2375
1149.79145	2226.4375
1153.415	2215.0375
1157.03607	2188.4375
1160.65467	2198.4375
1164.27079	2226.5375
1167.88443	2299.4375
1171.49561	2416.0375
1175.10432	2627.0375
1178.71056	2910.8375
1182.31434	3158.3375
1185.91565	3177.8375
1189.51451	3075.5375
1193.11091	2900.6375
1196.70485	2711.1375
1200.29634	2625.5375
1203.88538	2515.9375
1207.47197	2414.7375
1211.05612	2300.3375
1214.63782	2229.1375
1218.21708	2196.0375
1221.79391	2192.7375
1225.36829	2191.1375
1228.94024	2209.5375
1232.50976	2204.7375
1236.07685	2210.2375
1239.6415	2222.8375
1243.20374	2235.6375
1246.76355	2260.2375
1250.32093	2272.1375
1253.8759	2299.4375
1257.42845	2347.2375
1260.97859	2395.1375
1264.52631	2464.0375
1268.07163	2534.2375
1271.61453	2591.8375
1275.15503	2637.3375
1278.69312	2624.3375
1282.22882	2621.5375
1285.76211	2671.6375
1289.29301	2778.1375
1292.82151	2879.5375
1296.34761	2964.6375
1299.87133	3086.8375
1303.39266	3294.9375
1306.9116	3616.8375
1310.42815	4027.4375
1313.94233	4259.2375
1317.45412	4147.2375
1320.96354	3793.0375
1324.47058	3417.8375
1327.97525	3123.3375
1331.47754	2944.9375
1334.97747	2868.2375
1338.47502	2858.9375
1341.97022	2930.8375
1345.46305	3107.7375
1348.95352	3382.0375
1352.44163	3735.4375
1355.92738	4140.2375
1359.41078	4711.1375
1362.89183	5401.8375
1366.37053	5489.8375
1369.84688	4748.9375
1373.32088	3939.0375
1376.79254	3472.7375
1380.26186	3241.7375
1383.72883	3119.7375
1387.19347	3028.4375
1390.65578	2942.9375
1394.11575	2902.3375
1397.57339	2871.2375
1401.0287	2841.6375
1404.48168	2790.1375
1407.93234	2742.5375
1411.38068	2705.1375
1414.82669	2694.5375
1418.27039	2670.0375
1421.71177	2666.7375
1425.15083	2628.0375
1428.58758	2568.2375
1432.02203	2542.4375
1435.45416	2543.5375
1438.88399	2515.7375
1442.31151	2485.3375
1445.73673	2455.1375
1449.15965	2432.6375
1452.58027	2415.7375
1455.9986	2414.5375
1459.41463	2387.8375
1462.82837	2396.2375
1466.23982	2421.7375
1469.64898	2448.7375
1473.05586	2477.6375
1476.46045	2489.1375
1479.86276	2512.4375
1483.26279	2556.5375
1486.66054	2598.5375
1490.05602	2670.2375
1493.44922	2781.7375
1496.84016	2960.0375
1500.22882	3252.1375
1503.61521	3673.3375
1506.99934	4217.7375
1510.38121	4747.7375
1513.76081	4987.3375
1517.13816	4776.6375
1520.51324	4167.6375
1523.88607	3544.1375
1527.25665	3100.1375
1530.62498	2831.7375
1533.99105	2665.4375
1537.35488	2547.0375
1540.71647	2491.1375
1544.07581	2461.4375
1547.4329	2451.1375
1550.78776	2459.9375
1554.14038	2486.6375
1557.49077	2514.2375
1560.83892	2559.2375
1564.18484	2628.9375
1567.52853	2739.3375
1570.86999	2818.8375
1574.20922	2910.2375
1577.54624	2892.7375
1580.88103	2749.4375
1584.2136	2534.4375
1587.54395	2353.1375
1590.87208	2286.0375
1594.19801	2292.4375
1597.52172	2362.3375
1600.84321	2380.2375
1604.16251	2324.5375
1607.47959	2242.5375
1610.79447	2161.1375
1614.10715	2106.2375
1617.41763	2056.2375
1620.7259	2007.9375
1624.03199	1990.0375
1627.33587	1998.9375
1630.63757	2015.6375
1633.93707	2059.4375
1637.23439	2136.7375
1640.52951	2263.2375
1643.82246	2512.9375
1647.11321	2841.5375
1650.40179	3156.1375
1653.68819	3190.6375
1656.97241	2904.1375
1660.25446	2470.8375
1663.53433	2138.4375
1666.81203	1930.3375
1670.08756	1815.5375
1673.36092	1737.9375
1676.63211	1700.9375
1679.90115	1678.2375
1683.16801	1653.7375
1686.43272	1622.7375
1689.69527	1609.6375
1692.95567	1576.7375
1696.2139	1540.3375
1699.46999	1501.1375
1702.72392	1475.6375
1705.97571	1485.1375
1709.22535	1476.0375
1712.47284	1490.3375
1715.71819	1490.3375
1718.96139	1475.1375
1722.20246	1458.1375
1725.44139	1447.2375
1728.67818	1426.4375
1731.91284	1407.6375
1735.14537	1387.4375
1738.37576	1375.1375
1741.60403	1374.7375
1744.83017	1358.6375
1748.05418	1347.4375
1751.27607	1327.5375
1754.49584	1317.1375
1757.71349	1297.3375
1760.92903	1277.5375
1764.14244	1279.3375
1767.35375	1269.0375
1770.56294	1251.9375
1773.77002	1266.4375
1776.97499	1262.5375
1780.17785	1281.2375
1783.37861	1278.4375
1786.57727	1272.1375
1789.77382	1269.5375
1792.96828	1271.7375
1796.16064	1274.8375
1799.3509	1262.9375
1802.53907	1260.3375
1805.72514	1261.3375
1808.90913	1242.6375
1812.09102	1248.2375
1815.27083	1242.3375
1818.44856	1244.3375
1821.6242	1235.4375
1824.79776	1245.9375
1827.96924	1229.3375
1831.13864	1232.5375
1834.30597	1228.6375
1837.47122	1220.6375
1840.6344	1211.5375
1843.7955	1219.5375
1846.95454	1211.4375
1850.11151	1207.2375
1853.26642	1201.9375
1856.41926	1211.4375
1859.57004	1207.5375
1862.71876	1201.9375
1865.86542	1194.1375
1869.01003	1191.8375
1872.15258	1186.6375
1875.29308	1189.2375
1878.43152	1184.3375
1881.56792	1181.8375
1884.70227	1173.6375
1887.83457	1168.4375
1890.96482	1172.7375
1894.09304	1159.4375
1897.21921	1167.2375
1900.34335	1163.3375
1903.46544	1156.0375
1906.58551	1156.6375
1909.70353	1153.7375
1912.81953	1154.5375
1915.93349	1140.2375
1919.04543	1141.5375
1922.15534	1144.4375
1925.26322	1136.2375
1928.36908	1132.3375
1931.47292	1128.4375
1934.57473	1122.5375
1937.67453	1125.7375
1940.77232	1116.2375
1943.86808	1104.1375
1946.96184	1112.2375
1950.05358	1099.3375
1953.14331	1099.0375
1956.23103	1101.6375
1959.31675	1092.8375
1962.40046	1087.2375
1965.48217	1082.2375
1968.56188	1084.5375
1971.63959	1078.4375
1974.7153	1073.5375
1977.78901	1068.4375
1980.86073	1071.8375
1983.93046	1060.8375
1986.99819	1057.7375
1990.06394	1046.1375
1993.1277	1048.5375
1996.18947	1040.5375
1999.24925	1036.1375
2002.30706	1033.5375
2005.36288	1029.8375
2008.41672	1026.7375
2011.46859	1025.1375
2014.51848	1022.8375
2017.56639	1018.5375
2020.61233	1014.1375
2023.6563	1011.4375
2026.6983	1003.4375
2029.73833	993.2375
2032.7764	996.8375
2035.8125	999.6375
2038.84664	997.4375
2041.87881	989.0375
2044.90903	991.7375
2047.93729	994.1375
2050.96359	996.3375
2053.98794	983.5375
2057.01034	985.5375
2060.03078	996.0375
2063.04927	986.7375
2066.06582	999.2375
2069.08042	993.4375
2072.09307	990.4375
2075.10378	994.7375
2078.11255	989.1375
2081.11938	1000.0375
2084.12426	997.4375
2087.12722	1002.8375
2090.12824	1003.4375
2093.12732	1002.2375
2096.12447	1008.4375
2099.11969	1006.6375
2102.11299	1008.4375
2105.10435	1013.0375
2108.09379	1011.6375
2111.08131	1006.5375
2114.0669	1004.4375
2117.05057	1010.9375
2120.03233	997.4375
2123.01216	1003.5375
2125.99008	995.9375
2128.96609	997.7375
2131.94018	995.9375
2134.91236	981.2375
2137.88263	984.8375
2140.851	979.4375
2143.81746	974.6375
2146.78201	966.0375
2149.74466	956.8375
2152.7054	954.9375
2155.66425	950.9375
2158.6212	949.6375
2161.57625	944.2375
2164.52941	940.3375
2167.48067	930.3375
2170.43004	929.2375
2173.37752	942.3375
2176.32311	927.8375
2179.26681	930.4375
2182.20863	929.1375
2185.14856	929.2375
2188.08661	927.7375
2191.02278	914.7375
2193.95707	924.4375
2196.88948	920.0375
2199.82001	916.0375
2202.74867	909.9375
2205.67545	903.9375
2208.60037	908.4375
2211.52341	909.3375
2214.44458	909.8375
2217.36388	897.8375
2220.28132	900.1375
2223.1969	890.1375
2226.11061	890.0375
2229.02246	891.9375
2231.93245	886.2375
2234.84058	881.9375
2237.74686	880.9375
2240.65128	872.6375
2243.55385	876.5375
2246.45456	879.8375
2249.35343	868.8375
2252.25044	872.6375
2255.14561	870.9375
2258.03893	857.7375
2260.93041	857.5375
2263.82004	861.4375
2266.70783	859.8375
2269.59378	860.7375
2272.4779	855.3375
2275.36017	857.4375
2278.24061	861.6375
2281.11922	851.4375
2283.996	847.2375
2286.87094	835.5375
2289.74405	841.2375
2292.61534	839.3375
2295.4848	834.5375
2298.35243	838.3375
2301.21824	831.0375
2304.08223	834.3375
2306.94439	833.4375
2309.80474	830.6375
2312.66327	833.0375
2315.51999	823.9375
2318.37489	825.3375
2321.22797	816.6375
2324.07925	820.7375
2326.92871	820.3375
2329.77637	821.1375
2332.62222	815.0375
2335.46626	803.5375
2338.3085	806.3375
2341.14893	800.5375
2343.98756	803.3375
2346.8244	800.1375
2349.65943	802.9375
2352.49267	796.9375
2355.32411	790.8375
2358.15376	796.9375
2360.98161	800.4375
2363.80768	797.7375
2366.63195	803.3375
2369.45444	800.2375
2372.27514	798.5375
2375.09405	797.1375
2377.91118	798.3375
2380.72652	796.0375
2383.54009	790.7375
2386.35187	785.5375
2389.16188	782.7375
2391.97011	776.1375
2394.77657	779.3375
2397.58125	772.5375
2400.38416	767.8375
2403.18529	765.2375
2405.98466	760.3375
2408.78226	764.0375
2411.57809	761.9375
2414.37216	750.7375
2417.16446	757.5375
2419.955	756.3375
2422.74378	756.6375
2425.5308	746.2375
2428.31606	746.7375
2431.09956	749.7375
2433.88131	749.6375
2436.6613	748.9375
2439.43954	748.8375
2442.21603	745.5375
2444.99077	748.2375
2447.76377	752.2375
2450.53501	749.2375
2453.30451	747.9375
2456.07226	745.6375
2458.83827	736.5375
2461.60254	737.4375
2464.36507	734.4375
2467.12586	737.6375
2469.88492	732.6375
2472.64224	735.2375
2475.39782	725.8375
2478.15167	722.6375
2480.90379	733.0375
2483.65417	730.1375
2486.40283	732.7375
2489.14976	729.4375
2491.89497	733.5375
2494.63845	727.1375
2497.3802	724.8375
2500.12024	721.0375
2502.85855	717.9375
2505.59514	722.4375
2508.33002	714.4375
2511.06318	721.4375
2513.79462	716.8375
2516.52435	711.3375
2519.25237	714.1375
2521.97867	703.7375
2524.70327	696.9375
2527.42616	697.9375
2530.14734	691.2375
2532.86681	688.8375
2535.58458	694.1375
2538.30065	692.6375
2541.01501	695.6375
2543.72768	694.4375
2546.43864	694.9375
2549.14791	692.4375
2551.85548	687.4375
2554.56136	685.3375
2557.26554	685.7375
2559.96803	680.3375
2562.66883	681.4375
2565.36794	675.8375
2568.06536	675.2375
2570.7611	676.3375
2573.45514	675.7375
2576.14751	671.3375
2578.83819	672.5375
2581.52719	667.6375
2584.21451	670.6375
2586.90015	668.9375
2589.58411	667.5375
2592.2664	667.2375
2594.94701	662.7375
2597.62594	661.2375
2600.30321	651.6375
2602.9788	657.4375
2605.65273	648.2375
2608.32498	651.5375
2610.99557	655.7375
2613.66449	653.4375
2616.33175	651.4375
2618.99734	648.9375
2621.66128	649.9375
2624.32355	649.5375
2626.98416	643.9375
2629.64311	640.1375
2632.30041	643.6375
2634.95605	632.0375
2637.61004	631.9375
2640.26238	633.7375
2642.91306	637.7375
2645.56209	630.4375
2648.20948	629.5375
2650.85521	631.5375
2653.4993	636.8375
2656.14175	628.4375
2658.78255	629.7375
2661.42171	639.6375
2664.05923	636.5375
2666.6951	627.6375
2669.32934	633.0375
2671.96194	631.9375
2674.59291	630.8375
2677.22224	632.2375
2679.84993	631.9375
2682.476	631.7375
2685.10043	629.4375
2687.72324	635.3375
2690.34441	630.4375
2692.96396	630.3375
2695.58188	623.6375
2698.19818	629.3375
2700.81285	633.4375
2703.4259	605.8375
2706.03733	571.4375
2708.64714	597.4375
2711.25533	616.6375
2713.86191	613.1375
2716.46687	624.7375
2719.07021	622.5375
2721.67194	627.8375
2724.27206	626.4375
2726.87057	621.8375
2729.46747	624.4375
2732.06276	625.3375
2734.65644	623.8375
2737.24852	623.9375
2739.83899	620.8375
2742.42786	623.1375
2745.01513	617.6375
2747.60079	622.3375
2750.18486	612.0375
2752.76733	617.0375
2755.3482	612.3375
2757.92747	615.0375
2760.50515	611.5375
2763.08123	612.9375
2765.65573	612.2375
2768.22863	609.8375
2770.79994	607.9375
2773.36967	609.3375
2775.9378	607.7375
2778.50435	605.3375
2781.06932	611.5375
2783.6327	600.3375
2786.1945	597.8375
2788.75471	605.0375
2791.31335	596.6375
2793.87041	600.0375
2796.42589	602.1375
2798.97979	599.1375
2801.53212	596.4375
2804.08288	597.2375
2806.63206	594.0375
2809.17967	593.3375
2811.72571	591.7375
2814.27018	591.6375
2816.81308	596.1375
2819.35442	588.9375
2821.89419	595.5375
2824.43239	585.2375
2826.96904	591.7375
2829.50412	590.4375
2832.03763	587.0375
2834.56959	588.7375
2837.1	587.0375
2839.62884	591.6375
2842.15613	594.0375
2844.68186	590.1375
2847.20604	594.6375
2849.72867	598.2375
2852.24974	601.3375
2854.76927	591.2375
2857.28724	580.7375
2859.80367	594.6375
2862.31855	594.9375
2864.83189	596.1375
2867.34368	594.9375
2869.85393	597.3375
2872.36264	598.9375
2874.8698	600.5375
2877.37543	597.0375
2879.87952	602.7375
2882.38207	599.4375
2884.88308	600.5375
2887.38256	600.1375
2889.88051	602.3375
2892.37692	606.3375
2894.8718	607.8375
2897.36515	613.9375
2899.85698	619.8375
2902.34727	616.8375
2904.83604	623.8375
2907.32328	636.6375
2909.809	634.4375
2912.29319	634.6375
2914.77587	646.5375
2917.25702	653.1375
2919.73665	658.3375
2922.21476	653.5375
2924.69136	656.6375
2927.16644	657.1375
2929.64	656.4375
2932.11205	657.6375
2934.58258	652.7375
2937.05161	654.6375
2939.51912	644.8375
2941.98513	649.0375
2944.44962	637.6375
2946.91261	631.7375
2949.37409	630.3375
2951.83407	631.4375
2954.29254	623.0375
2956.74951	616.4375
2959.20498	613.6375
2961.65895	609.5375
2964.11142	605.0375
2966.56239	602.8375
2969.01186	601.2375
2971.45984	604.2375
2973.90632	596.6375
2976.35131	596.1375
2978.7948	586.8375
2981.23681	586.4375
2983.67732	589.1375
2986.11635	584.4375
2988.55388	579.3375
2990.98993	585.4375
2993.4245	581.7375
2995.85758	578.7375
2998.28917	581.3375
3000.71928	582.3375
3003.14791	581.9375
3005.57506	577.0375
3008.00073	585.9375
3010.42493	587.2375
3012.84764	582.1375
3015.26888	584.6375
3017.68865	588.8375
3020.10694	581.6375
3022.52376	582.4375
3024.9391	587.9375
3027.35298	585.9375
3029.76539	584.1375
3032.17632	582.7375
3034.5858	591.0375
3036.9938	588.3375
3039.40034	587.0375
3041.80542	586.9375
3044.20903	589.8375
3046.61118	593.0375
3049.01187	593.2375
3051.4111	592.4375
3053.80888	601.9375
3056.20519	598.4375
3058.60005	595.0375
3060.99345	601.3375
3063.3854	604.7375
3065.7759	601.0375
3068.16494	603.4375
3070.55254	602.7375
3072.93868	607.7375
3075.32338	612.1375
3077.70662	606.4375
3080.08842	610.3375
3082.46878	613.4375
3084.84769	619.8375
3087.22515	623.4375
3089.60118	615.0375
3091.97576	626.9375
3094.3489	626.2375
3096.72061	628.9375
3099.09087	638.6375
3101.4597	641.9375
3103.82709	646.7375
3106.19305	642.9375
3108.55757	658.0375
3110.92066	656.3375
3113.28232	662.0375
3115.64255	667.2375
3118.00134	668.8375
3120.35871	671.3375
3122.71466	676.1375
3125.06917	676.7375
3127.42226	683.1375
3129.77393	683.1375
3132.12417	693.8375
3134.47299	700.3375
3136.82039	697.4375
3139.16636	713.7375
3141.51092	707.0375
3143.85406	719.3375
3146.19579	718.2375
3148.53609	728.1375
3150.87499	737.2375
3153.21246	742.5375
3155.54853	745.4375
3157.88318	755.1375
3160.21642	755.8375
3162.54826	757.9375
3164.87868	769.9375
3167.2077	776.8375
3169.5353	782.8375
3171.86151	784.1375
3174.18631	786.9375
