Data from AgNPs_APTES_FTO_UA_100uM_CRN_0uM_R6G_10uM_Scan_RamanShift__27__12-35-33-537.txt Node

Date: Thu Jun 23 12:35:33 BST 2022
User: TCL
Spectrometer: QEP01345
Trigger mode: 4
Integration Time (sec): 7.000000E0
Scans to average: 10
Electric dark correction enabled: true
Nonlinearity correction enabled: false
Boxcar width: 0
XAxis mode: Raman Shifts
Number of Pixels in Spectrum: 1044
>>>>>Begin Spectral Data<<<<<
46.04893	-0.5875
50.45542	0.4125
54.85868	-1.4875
59.25871	-0.7875
63.6555	28.0125
68.04907	27.5125
72.43941	33.9125
76.82654	39.7125
81.21044	39.2125
85.59113	41.2125
89.96862	46.5125
94.34289	46.7125
98.71396	45.4125
103.08183	45.7125
107.4465	48.6125
111.80798	47.4125
116.16626	49.8125
120.52136	49.0125
124.87327	48.3125
129.222	45.4125
133.56755	48.5125
137.90993	47.9125
142.24913	49.9125
146.58517	46.1125
150.91804	46.9125
155.24774	52.9125
159.57429	53.5125
163.89768	55.8125
168.21792	69.5125
172.53501	82.7125
176.84895	97.5125
181.15975	129.0125
185.46741	174.2125
189.77193	222.6125
194.07331	290.0125
198.37157	370.5125
202.6667	447.7125
206.9587	535.0125
211.24758	607.4125
215.53334	688.2125
219.81599	774.7125
224.09553	851.1125
228.37195	947.0125
232.64527	1048.4125
236.91549	1159.5125
241.18261	1251.2125
245.44663	1348.6125
249.70755	1437.4125
253.96539	1508.2125
258.22014	1559.2125
262.4718	1605.4125
266.72039	1639.0125
270.96589	1639.6125
275.20832	1614.8125
279.44768	1595.4125
283.68397	1573.1125
287.91719	1552.0125
292.14735	1521.1125
296.37445	1524.5125
300.59849	1526.4125
304.81948	1536.7125
309.03742	1538.9125
313.25231	1528.0125
317.46415	1504.2125
321.67296	1457.3125
325.87872	1427.6125
330.08145	1397.1125
334.28114	1401.0125
338.47781	1416.9125
342.67145	1423.9125
346.86207	1444.6125
351.04966	1480.8125
355.23424	1522.9125
359.4158	1552.9125
363.59435	1581.3125
367.76989	1614.0125
371.94243	1617.1125
376.11196	1637.3125
380.27849	1646.0125
384.44203	1659.7125
388.60257	1656.5125
392.76012	1667.4125
396.91468	1677.0125
401.06626	1693.5125
405.21485	1706.7125
409.36047	1693.8125
413.50311	1652.9125
417.64277	1620.6125
421.77947	1604.7125
425.9132	1593.9125
430.04396	1585.1125
434.17176	1594.8125
438.2966	1610.9125
442.41849	1624.4125
446.53742	1645.7125
450.6534	1671.6125
454.76644	1686.2125
458.87653	1691.4125
462.98368	1686.7125
467.08789	1682.4125
471.18916	1676.4125
475.2875	1680.3125
479.38291	1672.5125
483.4754	1691.9125
487.56496	1710.5125
491.6516	1739.3125
495.73531	1761.5125
499.81612	1761.6125
503.89401	1748.5125
507.96899	1732.5125
512.04106	1713.8125
516.11023	1725.1125
520.1765	1737.2125
524.23987	1758.8125
528.30034	1761.4125
532.35792	1756.5125
536.41261	1741.0125
540.46441	1707.4125
544.51333	1684.4125
548.55936	1666.3125
552.60252	1665.5125
556.64279	1662.5125
560.6802	1670.8125
564.71473	1672.1125
568.7464	1690.0125
572.7752	1695.3125
576.80114	1691.1125
580.82422	1679.7125
584.84444	1701.8125
588.86181	1719.0125
592.87633	1735.8125
596.888	1747.7125
600.89682	1765.7125
604.9028	1852.2125
608.90594	2082.2125
612.90624	2339.0125
616.90371	2322.5125
620.89834	2063.7125
624.89015	1965.8125
628.87913	2034.2125
632.86528	2136.9125
636.84862	2174.2125
640.82913	2136.2125
644.80683	2035.2125
648.78172	1915.2125
652.75379	1832.5125
656.72306	1805.7125
660.68952	1799.8125
664.65319	1775.5125
668.61405	1738.2125
672.57211	1737.3125
676.52738	1742.6125
680.47986	1761.6125
684.42955	1763.2125
688.37646	1758.2125
692.32058	1756.1125
696.26192	1728.2125
700.20048	1710.9125
704.13626	1708.5125
708.06928	1695.8125
711.99952	1680.1125
715.927	1693.7125
719.85171	1702.4125
723.77365	1721.6125
727.69284	1735.7125
731.60928	1720.7125
735.52295	1708.5125
739.43388	1689.4125
743.34206	1684.6125
747.24749	1691.9125
751.15017	1686.1125
755.05012	1688.4125
758.94733	1711.3125
762.8418	1780.5125
766.73354	1898.5125
770.62254	2020.9125
774.50882	2109.0125
778.39237	2075.8125
782.27321	1954.2125
786.15132	1817.5125
790.02671	1747.4125
793.89938	1714.4125
797.76935	1717.3125
801.6366	1730.4125
805.50115	1777.8125
809.36299	1830.7125
813.22213	1842.9125
817.07857	1819.4125
820.93231	1765.5125
824.78336	1719.1125
828.63172	1669.5125
832.47738	1656.9125
836.32036	1652.3125
840.16066	1643.1125
843.99827	1641.9125
847.8332	1645.3125
851.66546	1644.9125
855.49504	1634.0125
859.32195	1642.2125
863.1462	1634.7125
866.96777	1655.1125
870.78668	1679.3125
874.60293	1708.1125
878.41652	1749.1125
882.22745	1795.7125
886.03573	1819.1125
889.84136	1836.2125
893.64433	1824.5125
897.44466	1764.3125
901.24235	1718.3125
905.0374	1686.3125
908.8298	1652.1125
912.61957	1654.7125
916.40671	1655.5125
920.19121	1676.7125
923.97308	1676.0125
927.75233	1690.3125
931.52895	1695.0125
935.30295	1679.9125
939.07433	1654.8125
942.84309	1630.7125
946.60924	1602.7125
950.37278	1585.8125
954.13371	1563.5125
957.89203	1553.3125
961.64774	1528.6125
965.40086	1515.9125
969.15137	1503.7125
972.89929	1495.3125
976.64461	1491.7125
980.38733	1475.9125
984.12747	1474.5125
987.86502	1480.5125
991.59999	1477.7125
995.33237	1492.7125
999.06217	1502.8125
1002.78939	1523.1125
1006.51404	1555.9125
1010.23611	1583.5125
1013.95561	1607.8125
1017.67255	1613.5125
1021.38692	1610.7125
1025.09872	1580.5125
1028.80796	1564.5125
1032.51465	1540.7125
1036.21877	1519.1125
1039.92035	1519.2125
1043.61937	1504.0125
1047.31584	1510.5125
1051.00976	1501.4125
1054.70114	1504.3125
1058.38998	1505.3125
1062.07627	1512.8125
1065.76003	1524.5125
1069.44126	1542.8125
1073.11995	1537.2125
1076.79611	1550.3125
1080.46974	1551.5125
1084.14085	1551.2125
1087.80943	1547.5125
1091.47549	1545.8125
1095.13903	1528.6125
1098.80005	1490.5125
1102.45857	1467.6125
1106.11456	1468.8125
1109.76805	1475.3125
1113.41903	1501.3125
1117.06751	1543.4125
1120.71348	1609.9125
1124.35696	1704.5125
1127.99793	1812.4125
1131.63641	1905.4125
1135.2724	1936.4125
1138.90589	1908.4125
1142.5369	1840.8125
1146.16542	1744.7125
1149.79145	1655.7125
1153.415	1561.4125
1157.03607	1510.5125
1160.65467	1494.3125
1164.27079	1493.5125
1167.88443	1504.9125
1171.49561	1542.7125
1175.10432	1624.3125
1178.71056	1726.1125
1182.31434	1831.4125
1185.91565	1863.5125
1189.51451	1871.8125
1193.11091	1840.2125
1196.70485	1848.7125
1200.29634	1838.0125
1203.88538	1813.8125
1207.47197	1769.1125
1211.05612	1689.9125
1214.63782	1618.1125
1218.21708	1559.1125
1221.79391	1527.6125
1225.36829	1499.8125
1228.94024	1481.4125
1232.50976	1461.2125
1236.07685	1462.0125
1239.6415	1466.6125
1243.20374	1470.9125
1246.76355	1477.5125
1250.32093	1480.4125
1253.8759	1484.6125
1257.42845	1502.4125
1260.97859	1520.7125
1264.52631	1553.8125
1268.07163	1569.8125
1271.61453	1590.1125
1275.15503	1588.8125
1278.69312	1591.3125
1282.22882	1606.0125
1285.76211	1611.7125
1289.29301	1626.4125
1292.82151	1656.0125
1296.34761	1684.4125
1299.87133	1741.4125
1303.39266	1833.0125
1306.9116	1929.1125
1310.42815	2042.5125
1313.94233	2099.2125
1317.45412	2075.8125
1320.96354	1992.0125
1324.47058	1898.8125
1327.97525	1819.9125
1331.47754	1775.3125
1334.97747	1765.1125
1338.47502	1777.8125
1341.97022	1823.6125
1345.46305	1885.0125
1348.95352	1996.8125
1352.44163	2130.9125
1355.92738	2305.1125
1359.41078	2507.7125
1362.89183	2647.7125
1366.37053	2601.6125
1369.84688	2385.4125
1373.32088	2158.6125
1376.79254	1999.2125
1380.26186	1892.4125
1383.72883	1818.7125
1387.19347	1760.3125
1390.65578	1710.0125
1394.11575	1668.1125
1397.57339	1633.8125
1401.0287	1608.9125
1404.48168	1575.0125
1407.93234	1548.9125
1411.38068	1521.4125
1414.82669	1500.5125
1418.27039	1466.9125
1421.71177	1444.1125
1425.15083	1423.9125
1428.58758	1400.7125
1432.02203	1396.7125
1435.45416	1384.5125
1438.88399	1387.7125
1442.31151	1385.4125
1445.73673	1364.4125
1449.15965	1367.4125
1452.58027	1369.4125
1455.9986	1356.3125
1459.41463	1360.5125
1462.82837	1373.0125
1466.23982	1373.4125
1469.64898	1385.0125
1473.05586	1400.8125
1476.46045	1395.5125
1479.86276	1409.4125
1483.26279	1418.0125
1486.66054	1444.0125
1490.05602	1485.7125
1493.44922	1537.2125
1496.84016	1610.7125
1500.22882	1719.4125
1503.61521	1869.9125
1506.99934	2031.6125
1510.38121	2167.8125
1513.76081	2201.3125
1517.13816	2099.7125
1520.51324	1919.3125
1523.88607	1753.2125
1527.25665	1641.9125
1530.62498	1566.3125
1533.99105	1538.5125
1537.35488	1521.9125
1540.71647	1508.8125
1544.07581	1507.5125
1547.4329	1518.2125
1550.78776	1532.6125
1554.14038	1545.0125
1557.49077	1558.0125
1560.83892	1562.8125
1564.18484	1578.9125
1567.52853	1608.0125
1570.86999	1633.1125
1574.20922	1663.5125
1577.54624	1653.2125
1580.88103	1609.2125
1584.2136	1538.1125
1587.54395	1482.7125
1590.87208	1462.1125
1594.19801	1474.0125
1597.52172	1506.1125
1600.84321	1507.0125
1604.16251	1511.1125
1607.47959	1495.3125
1610.79447	1470.5125
1614.10715	1442.8125
1617.41763	1432.2125
1620.7259	1416.9125
1624.03199	1416.2125
1627.33587	1409.7125
1630.63757	1417.0125
1633.93707	1428.3125
1637.23439	1457.9125
1640.52951	1500.6125
1643.82246	1582.1125
1647.11321	1704.5125
1650.40179	1765.4125
1653.68819	1746.0125
1656.97241	1644.3125
1660.25446	1508.3125
1663.53433	1394.5125
1666.81203	1315.0125
1670.08756	1263.5125
1673.36092	1244.2125
1676.63211	1221.3125
1679.90115	1212.9125
1683.16801	1192.8125
1686.43272	1174.3125
1689.69527	1164.3125
1692.95567	1129.9125
1696.2139	1103.3125
1699.46999	1062.7125
1702.72392	1024.7125
1705.97571	1031.4125
1709.22535	1021.5125
1712.47284	1011.2125
1715.71819	1009.5125
1718.96139	988.6125
1722.20246	970.9125
1725.44139	960.0125
1728.67818	953.4125
1731.91284	938.1125
1735.14537	936.2125
1738.37576	923.6125
1741.60403	907.5125
1744.83017	891.5125
1748.05418	881.7125
1751.27607	880.4125
1754.49584	868.9125
1757.71349	851.1125
1760.92903	839.7125
1764.14244	830.6125
1767.35375	837.4125
1770.56294	829.0125
1773.77002	839.1125
1776.97499	834.2125
1780.17785	842.2125
1783.37861	853.1125
1786.57727	838.4125
1789.77382	851.9125
1792.96828	850.3125
1796.16064	845.6125
1799.3509	841.3125
1802.53907	833.3125
1805.72514	835.9125
1808.90913	829.3125
1812.09102	821.9125
1815.27083	821.6125
1818.44856	817.7125
1821.6242	823.9125
1824.79776	821.1125
1827.96924	818.5125
1831.13864	809.3125
1834.30597	805.5125
1837.47122	809.7125
1840.6344	804.9125
1843.7955	809.5125
1846.95454	808.8125
1850.11151	800.9125
1853.26642	800.0125
1856.41926	792.9125
1859.57004	795.5125
1862.71876	789.8125
1865.86542	788.6125
1869.01003	791.8125
1872.15258	784.2125
1875.29308	794.0125
1878.43152	783.4125
1881.56792	790.8125
1884.70227	769.9125
1887.83457	769.7125
1890.96482	765.3125
1894.09304	768.5125
1897.21921	764.9125
1900.34335	761.7125
1903.46544	755.8125
1906.58551	753.7125
1909.70353	754.7125
1912.81953	757.1125
1915.93349	763.6125
1919.04543	759.5125
1922.15534	760.0125
1925.26322	750.9125
1928.36908	746.1125
1931.47292	743.7125
1934.57473	735.2125
1937.67453	739.4125
1940.77232	738.3125
1943.86808	726.7125
1946.96184	727.0125
1950.05358	722.8125
1953.14331	714.2125
1956.23103	718.1125
1959.31675	713.4125
1962.40046	714.8125
1965.48217	708.3125
1968.56188	709.6125
1971.63959	706.2125
1974.7153	698.1125
1977.78901	704.5125
1980.86073	700.5125
1983.93046	691.6125
1986.99819	689.4125
1990.06394	690.2125
1993.1277	684.2125
1996.18947	683.3125
1999.24925	680.7125
2002.30706	674.1125
2005.36288	678.7125
2008.41672	676.6125
2011.46859	668.1125
2014.51848	672.7125
2017.56639	663.9125
2020.61233	662.1125
2023.6563	655.3125
2026.6983	658.7125
2029.73833	652.7125
2032.7764	652.1125
2035.8125	650.6125
2038.84664	647.6125
2041.87881	644.9125
2044.90903	647.2125
2047.93729	640.0125
2050.96359	637.5125
2053.98794	639.0125
2057.01034	640.0125
2060.03078	632.8125
2063.04927	637.4125
2066.06582	638.4125
2069.08042	632.3125
2072.09307	632.8125
2075.10378	638.0125
2078.11255	626.9125
2081.11938	634.4125
2084.12426	629.9125
2087.12722	629.6125
2090.12824	629.7125
2093.12732	624.2125
2096.12447	629.5125
2099.11969	623.1125
2102.11299	622.2125
2105.10435	619.5125
2108.09379	618.7125
2111.08131	622.6125
2114.0669	617.3125
2117.05057	617.4125
2120.03233	615.9125
2123.01216	619.5125
2125.99008	618.2125
2128.96609	617.7125
2131.94018	625.8125
2134.91236	615.4125
2137.88263	616.0125
2140.851	618.1125
2143.81746	611.9125
2146.78201	613.1125
2149.74466	609.8125
2152.7054	611.7125
2155.66425	605.5125
2158.6212	610.3125
2161.57625	603.2125
2164.52941	604.3125
2167.48067	603.5125
2170.43004	606.0125
2173.37752	604.3125
2176.32311	594.4125
2179.26681	602.7125
2182.20863	594.7125
2185.14856	593.8125
2188.08661	595.1125
2191.02278	595.0125
2193.95707	587.7125
2196.88948	585.5125
2199.82001	587.4125
2202.74867	582.8125
2205.67545	587.2125
2208.60037	578.5125
2211.52341	577.5125
2214.44458	583.7125
2217.36388	572.6125
2220.28132	573.3125
2223.1969	567.6125
2226.11061	571.6125
2229.02246	570.3125
2231.93245	569.5125
2234.84058	566.4125
2237.74686	564.8125
2240.65128	561.3125
2243.55385	562.7125
2246.45456	568.2125
2249.35343	561.6125
2252.25044	555.4125
2255.14561	556.7125
2258.03893	553.7125
2260.93041	542.9125
2263.82004	548.4125
2266.70783	551.6125
2269.59378	551.7125
2272.4779	545.2125
2275.36017	550.7125
2278.24061	547.4125
2281.11922	542.2125
2283.996	541.5125
2286.87094	535.9125
2289.74405	532.8125
2292.61534	539.4125
2295.4848	535.9125
2298.35243	532.5125
2301.21824	527.1125
2304.08223	525.1125
2306.94439	534.8125
2309.80474	527.9125
2312.66327	527.0125
2315.51999	520.9125
2318.37489	519.7125
2321.22797	522.2125
2324.07925	522.6125
2326.92871	521.7125
2329.77637	514.2125
2332.62222	515.6125
2335.46626	510.3125
2338.3085	507.7125
2341.14893	514.5125
2343.98756	506.2125
2346.8244	507.3125
2349.65943	501.7125
2352.49267	499.7125
2355.32411	501.7125
2358.15376	500.9125
2360.98161	503.2125
2363.80768	504.5125
2366.63195	497.0125
2369.45444	504.3125
2372.27514	501.7125
2375.09405	499.4125
2377.91118	505.9125
2380.72652	502.2125
2383.54009	494.7125
2386.35187	489.4125
2389.16188	494.2125
2391.97011	490.6125
2394.77657	486.5125
2397.58125	489.1125
2400.38416	481.9125
2403.18529	483.3125
2405.98466	477.3125
2408.78226	479.4125
2411.57809	472.8125
2414.37216	471.5125
2417.16446	475.5125
2419.955	467.4125
2422.74378	474.7125
2425.5308	471.5125
2428.31606	469.1125
2431.09956	472.1125
2433.88131	470.7125
2436.6613	469.4125
2439.43954	462.4125
2442.21603	463.4125
2444.99077	465.4125
2447.76377	461.0125
2450.53501	464.3125
2453.30451	464.1125
2456.07226	462.2125
2458.83827	459.0125
2461.60254	462.8125
2464.36507	453.3125
2467.12586	456.5125
2469.88492	457.7125
2472.64224	453.5125
2475.39782	454.5125
2478.15167	446.0125
2480.90379	444.4125
2483.65417	447.0125
2486.40283	454.8125
2489.14976	452.7125
2491.89497	449.2125
2494.63845	450.5125
2497.3802	440.0125
2500.12024	439.8125
2502.85855	443.6125
2505.59514	445.5125
2508.33002	442.2125
2511.06318	439.9125
2513.79462	441.3125
2516.52435	440.5125
2519.25237	442.1125
2521.97867	434.3125
2524.70327	432.8125
2527.42616	435.3125
2530.14734	434.8125
2532.86681	427.8125
2535.58458	430.5125
2538.30065	425.9125
2541.01501	431.6125
2543.72768	420.7125
2546.43864	428.2125
2549.14791	426.8125
2551.85548	425.2125
2554.56136	417.9125
2557.26554	424.2125
2559.96803	420.6125
2562.66883	419.6125
2565.36794	418.2125
2568.06536	409.3125
2570.7611	415.7125
2573.45514	412.3125
2576.14751	419.9125
2578.83819	410.9125
2581.52719	412.9125
2584.21451	411.7125
2586.90015	408.7125
2589.58411	410.7125
2592.2664	411.2125
2594.94701	402.2125
2597.62594	403.6125
2600.30321	401.9125
2602.9788	406.6125
2605.65273	402.9125
2608.32498	405.7125
2610.99557	398.2125
2613.66449	396.9125
2616.33175	404.0125
2618.99734	397.4125
2621.66128	399.5125
2624.32355	399.4125
2626.98416	391.9125
2629.64311	394.0125
2632.30041	393.4125
2634.95605	395.4125
2637.61004	392.4125
2640.26238	390.3125
2642.91306	394.5125
2645.56209	388.9125
2648.20948	384.7125
2650.85521	389.2125
2653.4993	388.8125
2656.14175	389.3125
2658.78255	386.9125
2661.42171	388.2125
2664.05923	387.9125
2666.6951	389.1125
2669.32934	390.0125
2671.96194	390.0125
2674.59291	387.2125
2677.22224	387.9125
2679.84993	384.0125
2682.476	383.2125
2685.10043	386.2125
2687.72324	391.5125
2690.34441	386.8125
2692.96396	383.7125
2695.58188	381.8125
2698.19818	385.8125
2700.81285	380.9125
2703.4259	369.1125
2706.03733	340.6125
2708.64714	358.8125
2711.25533	372.8125
2713.86191	378.3125
2716.46687	379.8125
2719.07021	375.1125
2721.67194	382.4125
2724.27206	384.3125
2726.87057	381.7125
2729.46747	386.6125
2732.06276	381.8125
2734.65644	385.2125
2737.24852	382.4125
2739.83899	382.9125
2742.42786	379.7125
2745.01513	374.2125
2747.60079	378.4125
2750.18486	375.5125
2752.76733	374.4125
2755.3482	377.1125
2757.92747	380.1125
2760.50515	380.3125
2763.08123	376.9125
2765.65573	375.9125
2768.22863	375.6125
2770.79994	376.1125
2773.36967	373.3125
2775.9378	375.9125
2778.50435	375.5125
2781.06932	372.0125
2783.6327	369.8125
2786.1945	376.3125
2788.75471	374.8125
2791.31335	368.0125
2793.87041	367.9125
2796.42589	376.6125
2798.97979	374.7125
2801.53212	366.5125
2804.08288	366.1125
2806.63206	370.2125
2809.17967	370.9125
2811.72571	366.5125
2814.27018	372.6125
2816.81308	370.8125
2819.35442	371.0125
2821.89419	370.9125
2824.43239	364.8125
2826.96904	365.3125
2829.50412	366.9125
2832.03763	369.9125
2834.56959	367.0125
2837.1	368.7125
2839.62884	368.7125
2842.15613	365.2125
2844.68186	371.4125
2847.20604	369.8125
2849.72867	370.2125
2852.24974	374.6125
2854.76927	371.4125
2857.28724	361.9125
2859.80367	371.4125
2862.31855	366.8125
2864.83189	374.2125
2867.34368	371.4125
2869.85393	370.5125
2872.36264	378.4125
2874.8698	375.5125
2877.37543	377.4125
2879.87952	380.6125
2882.38207	376.5125
2884.88308	374.2125
2887.38256	377.8125
2889.88051	380.3125
2892.37692	377.4125
2894.8718	380.6125
2897.36515	386.2125
2899.85698	381.8125
2902.34727	382.4125
2904.83604	389.6125
2907.32328	388.7125
2909.809	390.7125
2912.29319	392.4125
2914.77587	393.0125
2917.25702	399.5125
2919.73665	397.2125
2922.21476	399.2125
2924.69136	400.6125
2927.16644	399.4125
2929.64	398.5125
2932.11205	402.5125
2934.58258	396.4125
2937.05161	405.9125
2939.51912	393.8125
2941.98513	394.2125
2944.44962	393.3125
2946.91261	389.7125
2949.37409	389.2125
2951.83407	390.4125
2954.29254	390.4125
2956.74951	385.7125
2959.20498	380.1125
2961.65895	382.2125
2964.11142	375.9125
2966.56239	384.2125
2969.01186	379.2125
2971.45984	382.3125
2973.90632	380.2125
2976.35131	376.8125
2978.7948	379.7125
2981.23681	376.6125
2983.67732	383.8125
2986.11635	379.1125
2988.55388	381.8125
2990.98993	374.6125
2993.4245	381.1125
2995.85758	377.4125
2998.28917	377.1125
3000.71928	378.4125
3003.14791	380.9125
3005.57506	384.2125
3008.00073	381.7125
3010.42493	385.4125
3012.84764	382.5125
3015.26888	379.6125
3017.68865	386.4125
3020.10694	382.3125
3022.52376	386.4125
3024.9391	385.4125
3027.35298	388.3125
3029.76539	388.5125
3032.17632	390.0125
3034.5858	395.3125
3036.9938	401.7125
3039.40034	397.8125
3041.80542	398.0125
3044.20903	401.2125
3046.61118	405.3125
3049.01187	403.2125
3051.4111	407.4125
3053.80888	416.1125
3056.20519	411.9125
3058.60005	415.4125
3060.99345	417.0125
3063.3854	421.6125
3065.7759	416.8125
3068.16494	423.7125
3070.55254	424.1125
3072.93868	426.4125
3075.32338	426.1125
3077.70662	430.9125
3080.08842	436.3125
3082.46878	439.0125
3084.84769	439.4125
3087.22515	447.6125
3089.60118	447.8125
3091.97576	455.1125
3094.3489	453.1125
3096.72061	464.9125
3099.09087	469.0125
3101.4597	475.6125
3103.82709	477.2125
3106.19305	481.1125
3108.55757	482.7125
3110.92066	492.1125
3113.28232	490.8125
3115.64255	489.4125
3118.00134	505.3125
3120.35871	503.8125
3122.71466	515.8125
3125.06917	521.7125
3127.42226	518.2125
3129.77393	532.5125
3132.12417	531.6125
3134.47299	540.4125
3136.82039	541.7125
3139.16636	552.5125
3141.51092	554.6125
3143.85406	562.5125
3146.19579	565.9125
3148.53609	568.3125
3150.87499	578.7125
3153.21246	577.4125
3155.54853	588.8125
3157.88318	601.4125
3160.21642	597.4125
3162.54826	606.9125
3164.87868	614.0125
3167.2077	620.2125
3169.5353	625.9125
3171.86151	628.9125
3174.18631	636.6125
3176.5097	649.4125
3178.83169	652.2125
3181.15228	654.8125
3183.47147	654.1125
3185.78926	661.6125
3188.10565	662.5125
