Data from AgNPs_APTES_FTO_UA_100uM_CRN_0uM_R6G_10uM_Scan_RamanShift__0__12-04-03-513.txt Node

Date: Thu Jun 23 12:04:03 BST 2022
User: TCL
Spectrometer: QEP01345
Trigger mode: 4
Integration Time (sec): 7.000000E0
Scans to average: 10
Electric dark correction enabled: true
Nonlinearity correction enabled: false
Boxcar width: 0
XAxis mode: Raman Shifts
Number of Pixels in Spectrum: 1044
>>>>>Begin Spectral Data<<<<<
46.04893	-0.075
50.45542	-0.475
54.85868	-0.875
59.25871	-0.475
63.6555	33.025
68.04907	34.925
72.43941	43.225
76.82654	45.725
81.21044	45.025
85.59113	47.125
89.96862	52.325
94.34289	56.325
98.71396	55.125
103.08183	51.925
107.4465	55.525
111.80798	55.125
116.16626	55.925
120.52136	58.125
124.87327	55.625
129.222	55.125
133.56755	62.325
137.90993	60.325
142.24913	59.825
146.58517	60.325
150.91804	64.125
155.24774	75.425
159.57429	81.125
163.89768	91.225
168.21792	112.625
172.53501	141.725
176.84895	180.325
181.15975	240.025
185.46741	329.525
189.77193	449.725
194.07331	598.625
198.37157	785.325
202.6667	980.125
206.9587	1175.625
211.24758	1373.125
215.53334	1587.725
219.81599	1817.825
224.09553	2059.025
228.37195	2326.425
232.64527	2598.925
236.91549	2924.425
241.18261	3232.125
245.44663	3531.325
249.70755	3804.925
253.96539	4045.125
258.22014	4190.225
262.4718	4286.425
266.72039	4295.625
270.96589	4208.825
275.20832	4074.025
279.44768	3873.725
283.68397	3658.425
287.91719	3429.425
292.14735	3229.925
296.37445	3066.225
300.59849	2938.225
304.81948	2831.125
309.03742	2763.025
313.25231	2678.325
317.46415	2568.425
321.67296	2439.325
325.87872	2330.125
330.08145	2266.525
334.28114	2234.125
338.47781	2225.425
342.67145	2234.225
346.86207	2270.325
351.04966	2309.425
355.23424	2359.625
359.4158	2380.025
363.59435	2379.025
367.76989	2357.725
371.94243	2331.625
376.11196	2302.625
380.27849	2290.225
384.44203	2269.025
388.60257	2259.725
392.76012	2259.825
396.91468	2260.325
401.06626	2277.925
405.21485	2280.525
409.36047	2276.925
413.50311	2236.025
417.64277	2195.025
421.77947	2165.425
425.9132	2168.025
430.04396	2179.325
434.17176	2195.025
438.2966	2224.325
442.41849	2255.725
446.53742	2281.925
450.6534	2314.025
454.76644	2330.725
458.87653	2335.025
462.98368	2326.725
467.08789	2333.825
471.18916	2314.825
475.2875	2303.125
479.38291	2286.225
483.4754	2276.625
487.56496	2276.225
491.6516	2279.325
495.73531	2273.225
499.81612	2261.325
503.89401	2288.925
507.96899	2279.025
512.04106	2292.025
516.11023	2289.725
520.1765	2306.825
524.23987	2311.525
528.30034	2310.325
532.35792	2288.225
536.41261	2270.125
540.46441	2266.425
544.51333	2247.125
548.55936	2256.525
552.60252	2274.525
556.64279	2287.225
560.6802	2302.825
564.71473	2327.425
568.7464	2373.325
572.7752	2393.225
576.80114	2344.525
580.82422	2318.225
584.84444	2323.125
588.86181	2355.225
592.87633	2410.225
596.888	2501.025
600.89682	2656.525
604.9028	2892.725
608.90594	3353.425
612.90624	3901.325
616.90371	3961.925
620.89834	3548.025
624.89015	3291.425
628.87913	3145.325
632.86528	2973.325
636.84862	2810.525
640.82913	2631.325
644.80683	2501.425
648.78172	2435.325
652.75379	2416.125
656.72306	2468.525
660.68952	2531.325
664.65319	2563.425
668.61405	2602.525
672.57211	2650.725
676.52738	2738.325
680.47986	2819.425
684.42955	2874.525
688.37646	2904.425
692.32058	2904.525
696.26192	2882.525
700.20048	2855.925
704.13626	2856.225
708.06928	2815.425
711.99952	2771.625
715.927	2705.925
719.85171	2654.825
723.77365	2612.725
727.69284	2554.225
731.60928	2536.525
735.52295	2498.425
739.43388	2494.525
743.34206	2477.425
747.24749	2484.025
751.15017	2475.325
755.05012	2474.825
758.94733	2526.525
762.8418	2622.225
766.73354	2796.825
770.62254	2975.725
774.50882	3048.325
778.39237	2991.825
782.27321	2844.025
786.15132	2690.725
790.02671	2599.925
793.89938	2577.125
797.76935	2570.325
801.6366	2577.225
805.50115	2602.725
809.36299	2626.025
813.22213	2639.025
817.07857	2658.525
820.93231	2648.225
824.78336	2634.625
828.63172	2634.325
832.47738	2639.425
836.32036	2622.125
840.16066	2624.625
843.99827	2629.925
847.8332	2618.125
851.66546	2616.225
855.49504	2610.025
859.32195	2634.825
863.1462	2668.225
866.96777	2710.825
870.78668	2745.825
874.60293	2789.025
878.41652	2843.225
882.22745	2917.425
886.03573	3023.525
889.84136	3137.625
893.64433	3238.625
897.44466	3332.225
901.24235	3407.425
905.0374	3472.625
908.8298	3518.725
912.61957	3617.925
916.40671	3703.825
920.19121	3786.525
923.97308	3880.525
927.75233	3913.025
931.52895	3924.225
935.30295	3840.725
939.07433	3715.625
942.84309	3554.625
946.60924	3404.125
950.37278	3293.925
954.13371	3189.225
957.89203	3097.325
961.64774	3038.225
965.40086	2976.825
969.15137	2905.725
972.89929	2857.025
976.64461	2831.625
980.38733	2778.225
984.12747	2745.025
987.86502	2753.625
991.59999	2719.725
995.33237	2714.025
999.06217	2703.225
1002.78939	2713.825
1006.51404	2699.125
1010.23611	2715.425
1013.95561	2705.825
1017.67255	2727.825
1021.38692	2703.025
1025.09872	2709.725
1028.80796	2711.725
1032.51465	2726.925
1036.21877	2758.425
1039.92035	2809.525
1043.61937	2863.425
1047.31584	2911.325
1051.00976	2928.325
1054.70114	2913.825
1058.38998	2855.425
1062.07627	2803.425
1065.76003	2716.125
1069.44126	2647.125
1073.11995	2588.125
1076.79611	2571.825
1080.46974	2563.025
1084.14085	2560.125
1087.80943	2568.625
1091.47549	2573.725
1095.13903	2546.425
1098.80005	2496.525
1102.45857	2472.125
1106.11456	2462.125
1109.76805	2463.825
1113.41903	2492.225
1117.06751	2513.225
1120.71348	2571.925
1124.35696	2632.625
1127.99793	2680.525
1131.63641	2709.125
1135.2724	2640.325
1138.90589	2605.325
1142.5369	2561.825
1146.16542	2546.925
1149.79145	2520.825
1153.415	2506.425
1157.03607	2505.725
1160.65467	2504.525
1164.27079	2526.725
1167.88443	2559.925
1171.49561	2617.925
1175.10432	2731.825
1178.71056	2876.725
1182.31434	2997.625
1185.91565	3013.725
1189.51451	2932.425
1193.11091	2821.625
1196.70485	2750.425
1200.29634	2697.425
1203.88538	2677.325
1207.47197	2621.825
1211.05612	2589.125
1214.63782	2562.125
1218.21708	2552.125
1221.79391	2547.025
1225.36829	2569.725
1228.94024	2574.025
1232.50976	2595.525
1236.07685	2619.025
1239.6415	2646.225
1243.20374	2657.825
1246.76355	2674.925
1250.32093	2708.125
1253.8759	2729.425
1257.42845	2751.825
1260.97859	2796.825
1264.52631	2847.025
1268.07163	2908.925
1271.61453	2944.625
1275.15503	2996.325
1278.69312	3003.325
1282.22882	3007.325
1285.76211	3057.825
1289.29301	3126.825
1292.82151	3207.725
1296.34761	3261.325
1299.87133	3349.725
1303.39266	3480.125
1306.9116	3671.325
1310.42815	3889.125
1313.94233	4004.225
1317.45412	3904.925
1320.96354	3704.425
1324.47058	3545.525
1327.97525	3433.825
1331.47754	3359.325
1334.97747	3337.925
1338.47502	3353.425
1341.97022	3396.225
1345.46305	3501.925
1348.95352	3660.225
1352.44163	3847.525
1355.92738	4098.325
1359.41078	4419.225
1362.89183	4797.425
1366.37053	4846.425
1369.84688	4468.725
1373.32088	4064.525
1376.79254	3852.325
1380.26186	3777.925
1383.72883	3719.025
1387.19347	3704.725
1390.65578	3667.325
1394.11575	3653.225
1397.57339	3644.425
1401.0287	3627.225
1404.48168	3602.325
1407.93234	3576.525
1411.38068	3530.825
1414.82669	3517.025
1418.27039	3520.425
1421.71177	3506.925
1425.15083	3465.625
1428.58758	3400.925
1432.02203	3356.325
1435.45416	3324.225
1438.88399	3280.125
1442.31151	3244.125
1445.73673	3194.325
1449.15965	3156.525
1452.58027	3144.325
1455.9986	3106.025
1459.41463	3108.825
1462.82837	3104.625
1466.23982	3103.025
1469.64898	3107.325
1473.05586	3142.225
1476.46045	3149.425
1479.86276	3159.425
1483.26279	3185.825
1486.66054	3207.625
1490.05602	3245.825
1493.44922	3292.525
1496.84016	3380.925
1500.22882	3553.525
1503.61521	3772.125
1506.99934	4054.925
1510.38121	4303.625
1513.76081	4391.525
1517.13816	4210.125
1520.51324	3882.525
1523.88607	3537.825
1527.25665	3318.625
1530.62498	3184.925
1533.99105	3091.125
1537.35488	3044.225
1540.71647	2995.925
1544.07581	2960.725
1547.4329	2952.425
1550.78776	2952.625
1554.14038	2956.625
1557.49077	2948.525
1560.83892	2959.025
1564.18484	2975.725
1567.52853	3028.825
1570.86999	3042.825
1574.20922	3070.725
1577.54624	3067.325
1580.88103	2973.825
1584.2136	2849.925
1587.54395	2741.525
1590.87208	2718.125
1594.19801	2704.725
1597.52172	2718.525
1600.84321	2736.225
1604.16251	2693.225
1607.47959	2643.325
1610.79447	2620.225
1614.10715	2587.725
1617.41763	2574.025
1620.7259	2556.525
1624.03199	2548.425
1627.33587	2566.525
1630.63757	2560.325
1633.93707	2574.825
1637.23439	2608.125
1640.52951	2658.225
1643.82246	2745.525
1647.11321	2914.425
1650.40179	3049.425
1653.68819	3030.725
1656.97241	2880.125
1660.25446	2650.525
1663.53433	2480.825
1666.81203	2365.025
1670.08756	2301.725
1673.36092	2263.325
1676.63211	2217.625
1679.90115	2192.025
1683.16801	2168.625
1686.43272	2148.625
1689.69527	2134.025
1692.95567	2113.425
1696.2139	2097.625
1699.46999	2079.325
1702.72392	2064.225
1705.97571	2075.525
1709.22535	2054.025
1712.47284	2058.225
1715.71819	2048.325
1718.96139	2059.325
1722.20246	2042.525
1725.44139	2029.525
1728.67818	2026.525
1731.91284	2015.025
1735.14537	2007.425
1738.37576	1990.125
1741.60403	1988.125
1744.83017	1977.625
1748.05418	1971.425
1751.27607	1965.125
1754.49584	1956.725
1757.71349	1949.025
1760.92903	1942.725
1764.14244	1935.425
1767.35375	1935.825
1770.56294	1931.225
1773.77002	1931.225
1776.97499	1926.425
1780.17785	1931.825
1783.37861	1922.925
1786.57727	1930.625
1789.77382	1915.825
1792.96828	1923.625
1796.16064	1912.425
1799.3509	1905.725
1802.53907	1904.125
1805.72514	1898.225
1808.90913	1907.125
1812.09102	1899.025
1815.27083	1887.025
1818.44856	1881.025
1821.6242	1885.625
1824.79776	1885.325
1827.96924	1885.825
1831.13864	1874.425
1834.30597	1869.125
1837.47122	1864.925
1840.6344	1860.925
1843.7955	1870.525
1846.95454	1863.925
1850.11151	1865.925
1853.26642	1868.525
1856.41926	1851.325
1859.57004	1867.925
1862.71876	1856.125
1865.86542	1850.225
1869.01003	1851.825
1872.15258	1843.525
1875.29308	1848.425
1878.43152	1845.125
1881.56792	1836.925
1884.70227	1833.525
1887.83457	1832.225
1890.96482	1820.825
1894.09304	1819.725
1897.21921	1820.925
1900.34335	1816.425
1903.46544	1813.725
1906.58551	1814.225
1909.70353	1808.625
1912.81953	1813.125
1915.93349	1806.425
1919.04543	1812.925
1922.15534	1794.225
1925.26322	1800.625
1928.36908	1806.225
1931.47292	1800.925
1934.57473	1788.625
1937.67453	1798.125
1940.77232	1783.025
1943.86808	1788.425
1946.96184	1779.125
1950.05358	1771.025
1953.14331	1772.925
1956.23103	1761.825
1959.31675	1764.325
1962.40046	1742.825
1965.48217	1744.925
1968.56188	1741.725
1971.63959	1737.025
1974.7153	1739.625
1977.78901	1737.325
1980.86073	1730.725
1983.93046	1723.725
1986.99819	1712.325
1990.06394	1708.525
1993.1277	1703.525
1996.18947	1693.425
1999.24925	1693.225
2002.30706	1685.525
2005.36288	1682.925
2008.41672	1680.525
2011.46859	1677.725
2014.51848	1677.025
2017.56639	1671.325
2020.61233	1667.525
2023.6563	1665.625
2026.6983	1670.325
2029.73833	1657.925
2032.7764	1655.125
2035.8125	1659.925
2038.84664	1675.625
2041.87881	1678.325
2044.90903	1676.825
2047.93729	1685.925
2050.96359	1697.425
2053.98794	1710.325
2057.01034	1722.225
2060.03078	1732.325
2063.04927	1753.125
2066.06582	1769.025
2069.08042	1786.225
2072.09307	1802.025
2075.10378	1830.625
2078.11255	1839.525
2081.11938	1865.725
2084.12426	1872.025
2087.12722	1886.825
2090.12824	1903.325
2093.12732	1912.325
2096.12447	1916.825
2099.11969	1899.425
2102.11299	1888.925
2105.10435	1887.325
2108.09379	1882.125
2111.08131	1861.525
2114.0669	1851.925
2117.05057	1829.025
2120.03233	1812.725
2123.01216	1799.125
2125.99008	1785.825
2128.96609	1764.925
2131.94018	1757.925
2134.91236	1741.125
2137.88263	1723.725
2140.851	1708.725
2143.81746	1698.325
2146.78201	1687.225
2149.74466	1682.125
2152.7054	1667.625
2155.66425	1655.925
2158.6212	1655.825
2161.57625	1642.425
2164.52941	1630.625
2167.48067	1635.525
2170.43004	1626.225
2173.37752	1621.525
2176.32311	1609.625
2179.26681	1611.325
2182.20863	1611.825
2185.14856	1601.225
2188.08661	1605.425
2191.02278	1600.725
2193.95707	1600.325
2196.88948	1604.025
2199.82001	1601.225
2202.74867	1598.425
2205.67545	1589.825
2208.60037	1587.825
2211.52341	1588.325
2214.44458	1571.725
2217.36388	1572.125
2220.28132	1567.025
2223.1969	1561.125
2226.11061	1563.725
2229.02246	1556.525
2231.93245	1558.225
2234.84058	1553.625
2237.74686	1539.925
2240.65128	1541.725
2243.55385	1561.725
2246.45456	1543.325
2249.35343	1531.725
2252.25044	1539.825
2255.14561	1541.525
2258.03893	1542.425
2260.93041	1532.025
2263.82004	1532.025
2266.70783	1524.625
2269.59378	1530.425
2272.4779	1517.425
2275.36017	1518.725
2278.24061	1520.525
2281.11922	1514.925
2283.996	1510.725
2286.87094	1517.125
2289.74405	1504.025
2292.61534	1500.725
2295.4848	1495.325
2298.35243	1503.625
2301.21824	1494.925
2304.08223	1499.425
2306.94439	1504.825
2309.80474	1490.725
2312.66327	1500.125
2315.51999	1495.725
2318.37489	1487.925
2321.22797	1493.525
2324.07925	1478.925
2326.92871	1480.625
2329.77637	1479.225
2332.62222	1478.625
2335.46626	1471.225
2338.3085	1472.025
2341.14893	1455.125
2343.98756	1467.525
2346.8244	1459.425
2349.65943	1456.425
2352.49267	1449.425
2355.32411	1452.925
2358.15376	1449.125
2360.98161	1448.125
2363.80768	1449.525
2366.63195	1442.525
2369.45444	1451.725
2372.27514	1452.325
2375.09405	1450.525
2377.91118	1451.325
2380.72652	1435.425
2383.54009	1434.425
2386.35187	1432.225
2389.16188	1419.525
2391.97011	1435.025
2394.77657	1429.025
2397.58125	1425.425
2400.38416	1421.325
2403.18529	1411.125
2405.98466	1408.225
2408.78226	1405.825
2411.57809	1406.025
2414.37216	1399.025
2417.16446	1404.325
2419.955	1393.925
2422.74378	1397.125
2425.5308	1391.525
2428.31606	1393.725
2431.09956	1390.625
2433.88131	1395.125
2436.6613	1400.925
2439.43954	1389.325
2442.21603	1388.325
2444.99077	1389.225
2447.76377	1383.725
2450.53501	1388.025
2453.30451	1384.625
2456.07226	1382.225
2458.83827	1375.725
2461.60254	1377.925
2464.36507	1372.525
2467.12586	1379.525
2469.88492	1372.725
2472.64224	1368.225
2475.39782	1367.825
2478.15167	1376.825
2480.90379	1369.125
2483.65417	1367.725
2486.40283	1370.025
2489.14976	1373.925
2491.89497	1375.625
2494.63845	1367.925
2497.3802	1356.025
2500.12024	1353.425
2502.85855	1356.225
2505.59514	1359.025
2508.33002	1356.525
2511.06318	1355.625
2513.79462	1358.825
2516.52435	1341.525
2519.25237	1347.825
2521.97867	1334.825
2524.70327	1334.825
2527.42616	1335.425
2530.14734	1328.725
2532.86681	1333.125
2535.58458	1330.625
2538.30065	1332.025
2541.01501	1328.025
2543.72768	1330.125
2546.43864	1329.425
2549.14791	1311.725
2551.85548	1327.325
2554.56136	1318.125
2557.26554	1317.225
2559.96803	1313.225
2562.66883	1314.525
2565.36794	1308.625
2568.06536	1306.325
2570.7611	1306.425
2573.45514	1294.025
2576.14751	1293.625
2578.83819	1303.225
2581.52719	1291.225
2584.21451	1293.025
2586.90015	1295.125
2589.58411	1288.025
2592.2664	1288.725
2594.94701	1284.525
2597.62594	1279.625
2600.30321	1281.325
2602.9788	1279.225
2605.65273	1274.325
2608.32498	1275.425
2610.99557	1274.225
2613.66449	1277.525
2616.33175	1269.325
2618.99734	1269.925
2621.66128	1269.625
2624.32355	1260.825
2626.98416	1262.925
2629.64311	1252.725
2632.30041	1254.825
2634.95605	1245.725
2637.61004	1250.025
2640.26238	1252.325
2642.91306	1245.225
2645.56209	1240.925
2648.20948	1237.325
2650.85521	1246.525
2653.4993	1240.525
2656.14175	1245.025
2658.78255	1233.025
2661.42171	1248.225
2664.05923	1248.225
2666.6951	1242.925
2669.32934	1246.825
2671.96194	1240.125
2674.59291	1239.625
2677.22224	1240.825
2679.84993	1256.525
2682.476	1242.125
2685.10043	1240.125
2687.72324	1247.025
2690.34441	1242.125
2692.96396	1247.125
2695.58188	1241.825
2698.19818	1239.425
2700.81285	1242.125
2703.4259	1241.925
2706.03733	1228.425
2708.64714	1229.125
2711.25533	1237.725
2713.86191	1238.125
2716.46687	1244.225
2719.07021	1244.525
2721.67194	1242.625
2724.27206	1243.325
2726.87057	1242.225
2729.46747	1244.425
2732.06276	1244.325
2734.65644	1240.225
2737.24852	1242.225
2739.83899	1243.025
2742.42786	1240.525
2745.01513	1229.825
2747.60079	1235.925
2750.18486	1236.225
2752.76733	1238.925
2755.3482	1233.725
2757.92747	1225.325
2760.50515	1231.325
2763.08123	1225.725
2765.65573	1231.125
2768.22863	1223.925
2770.79994	1219.125
2773.36967	1220.425
2775.9378	1219.025
2778.50435	1223.525
2781.06932	1218.425
2783.6327	1218.025
2786.1945	1218.725
2788.75471	1210.825
2791.31335	1214.225
2793.87041	1214.825
2796.42589	1201.125
2798.97979	1200.225
2801.53212	1197.325
2804.08288	1192.925
2806.63206	1200.125
2809.17967	1199.125
2811.72571	1191.425
2814.27018	1192.925
2816.81308	1183.925
2819.35442	1184.425
2821.89419	1176.925
2824.43239	1181.425
2826.96904	1174.625
2829.50412	1184.825
2832.03763	1179.825
2834.56959	1174.325
2837.1	1178.125
2839.62884	1171.125
2842.15613	1173.625
2844.68186	1171.925
2847.20604	1176.025
2849.72867	1176.725
2852.24974	1179.025
2854.76927	1179.925
2857.28724	1173.025
2859.80367	1176.925
2862.31855	1171.625
2864.83189	1174.225
2867.34368	1168.725
2869.85393	1173.925
2872.36264	1177.625
2874.8698	1170.325
2877.37543	1169.225
2879.87952	1164.325
2882.38207	1163.925
2884.88308	1175.125
2887.38256	1172.125
2889.88051	1177.325
2892.37692	1167.425
2894.8718	1186.225
2897.36515	1179.025
2899.85698	1191.725
2902.34727	1191.725
2904.83604	1205.925
2907.32328	1210.025
2909.809	1220.325
2912.29319	1225.325
2914.77587	1224.225
2917.25702	1231.425
2919.73665	1229.825
2922.21476	1240.425
2924.69136	1239.525
2927.16644	1243.725
2929.64	1241.225
2932.11205	1243.625
2934.58258	1236.925
2937.05161	1233.125
2939.51912	1233.225
2941.98513	1235.825
2944.44962	1222.625
2946.91261	1200.225
2949.37409	1204.025
2951.83407	1212.325
2954.29254	1202.925
2956.74951	1195.825
2959.20498	1189.525
2961.65895	1186.125
2964.11142	1180.725
2966.56239	1184.525
2969.01186	1179.625
2971.45984	1175.225
2973.90632	1168.725
2976.35131	1171.925
2978.7948	1164.325
2981.23681	1168.325
2983.67732	1169.425
2986.11635	1166.225
2988.55388	1159.625
2990.98993	1148.725
2993.4245	1157.725
2995.85758	1157.825
2998.28917	1152.225
3000.71928	1145.525
3003.14791	1152.425
3005.57506	1147.725
3008.00073	1159.025
3010.42493	1143.825
3012.84764	1149.925
3015.26888	1152.225
3017.68865	1147.925
3020.10694	1146.525
3022.52376	1150.925
3024.9391	1142.625
3027.35298	1145.525
3029.76539	1133.825
3032.17632	1149.825
3034.5858	1148.625
3036.9938	1150.325
3039.40034	1149.025
3041.80542	1147.925
3044.20903	1140.625
3046.61118	1154.925
3049.01187	1152.325
3051.4111	1148.025
3053.80888	1157.525
3056.20519	1160.425
3058.60005	1153.025
3060.99345	1157.125
3063.3854	1151.225
3065.7759	1155.525
3068.16494	1143.925
3070.55254	1153.925
3072.93868	1162.225
3075.32338	1151.025
3077.70662	1153.925
3080.08842	1160.825
3082.46878	1167.525
3084.84769	1158.425
3087.22515	1169.225
3089.60118	1171.825
3091.97576	1169.025
3094.3489	1174.825
3096.72061	1187.325
3099.09087	1187.325
3101.4597	1196.025
3103.82709	1194.525
3106.19305	1194.925
3108.55757	1193.625
3110.92066	1202.225
3113.28232	1199.825
3115.64255	1206.925
3118.00134	1216.425
3120.35871	1217.125
3122.71466	1215.625
3125.06917	1212.725
3127.42226	1215.225
3129.77393	1219.525
3132.12417	1226.425
3134.47299	1235.725
3136.82039	1236.125
3139.16636	1255.525
3141.51092	1247.225
3143.85406	1251.825
3146.19579	1263.425
3148.53609	1268.625
3150.87499	1275.225
3153.21246	1276.625
3155.54853	1282.825
3157.88318	1291.025
3160.21642	1289.325
3162.54826	1307.025
3164.87868	1305.225
3167.2077	1319.825
3169.5353	1320.025
3171.86151	1330.925
3174.18631	1340.325
3176.5097	1342.025
3178.83169	1343.525
3181.15228	1348.525
3183.47147	1353.525
3185.78926	1351.425
3188.10565	1352.325
3190.42065	1352.925
3192.73424	1357.525
3195.04645	1355.025
3197.35725	1360.025
3199.66667	1375.325
3201.97469	1371.925
3204.28132	1380.425
3206.58656	1392.425
3208.8904	1390.525
3211.19287	1398.525
3213.49394	1391.525
3215.79363	1403.925
3218.09193	1415.125
3220.38884	1407.425
3222.68438	1409.425
3224.97853	1413.625
3227.2713	1418.225
3229.56269	1420.125
3231.8527	1421.425
3234.14133	1419.725
3236.42858	1420.025
3238.71446	1420.225
