Data from AgNPs_APTES_FTO_UA_100uM_CRN_0uM_R6G_10uM_Scan_RamanShift__25__12-33-13-534.txt Node

Date: Thu Jun 23 12:33:13 BST 2022
User: TCL
Spectrometer: QEP01345
Trigger mode: 4
Integration Time (sec): 7.000000E0
Scans to average: 10
Electric dark correction enabled: true
Nonlinearity correction enabled: false
Boxcar width: 0
XAxis mode: Raman Shifts
Number of Pixels in Spectrum: 1044
>>>>>Begin Spectral Data<<<<<
46.04893	0.1125
50.45542	-1.7875
54.85868	0.0125
59.25871	0.6125
63.6555	25.3125
68.04907	31.1125
72.43941	35.0125
76.82654	39.8125
81.21044	40.7125
85.59113	44.1125
89.96862	44.6125
94.34289	44.7125
98.71396	45.1125
103.08183	46.3125
107.4465	46.4125
111.80798	48.4125
116.16626	51.1125
120.52136	49.8125
124.87327	48.0125
129.222	46.8125
133.56755	48.9125
137.90993	48.1125
142.24913	44.6125
146.58517	47.0125
150.91804	46.7125
155.24774	54.4125
159.57429	53.5125
163.89768	57.2125
168.21792	66.3125
172.53501	83.6125
176.84895	98.4125
181.15975	133.1125
185.46741	171.6125
189.77193	230.0125
194.07331	298.8125
198.37157	373.0125
202.6667	467.1125
206.9587	544.4125
211.24758	631.6125
215.53334	713.8125
219.81599	802.2125
224.09553	887.9125
228.37195	995.1125
232.64527	1093.3125
236.91549	1211.8125
241.18261	1307.0125
245.44663	1416.6125
249.70755	1497.5125
253.96539	1576.5125
258.22014	1629.7125
262.4718	1665.5125
266.72039	1690.6125
270.96589	1698.0125
275.20832	1686.9125
279.44768	1662.1125
283.68397	1629.7125
287.91719	1596.3125
292.14735	1572.8125
296.37445	1563.4125
300.59849	1576.0125
304.81948	1585.5125
309.03742	1595.6125
313.25231	1588.5125
317.46415	1558.3125
321.67296	1518.4125
325.87872	1474.4125
330.08145	1448.9125
334.28114	1444.4125
338.47781	1449.4125
342.67145	1464.3125
346.86207	1485.7125
351.04966	1517.0125
355.23424	1560.1125
359.4158	1598.1125
363.59435	1634.9125
367.76989	1654.1125
371.94243	1661.9125
376.11196	1671.2125
380.27849	1687.5125
384.44203	1687.8125
388.60257	1698.5125
392.76012	1697.4125
396.91468	1711.9125
401.06626	1730.3125
405.21485	1752.3125
409.36047	1728.8125
413.50311	1693.5125
417.64277	1657.6125
421.77947	1630.8125
425.9132	1617.8125
430.04396	1616.7125
434.17176	1618.5125
438.2966	1641.2125
442.41849	1663.5125
446.53742	1681.4125
450.6534	1706.4125
454.76644	1727.1125
458.87653	1717.2125
462.98368	1720.7125
467.08789	1727.9125
471.18916	1718.2125
475.2875	1711.6125
479.38291	1710.7125
483.4754	1725.2125
487.56496	1738.7125
491.6516	1764.3125
495.73531	1792.9125
499.81612	1780.5125
503.89401	1774.0125
507.96899	1759.6125
512.04106	1762.3125
516.11023	1749.6125
520.1765	1771.6125
524.23987	1773.0125
528.30034	1788.1125
532.35792	1782.3125
536.41261	1762.1125
540.46441	1727.8125
544.51333	1711.5125
548.55936	1709.3125
552.60252	1702.7125
556.64279	1713.7125
560.6802	1708.0125
564.71473	1712.9125
568.7464	1729.1125
572.7752	1730.8125
576.80114	1730.1125
580.82422	1727.8125
584.84444	1742.9125
588.86181	1756.7125
592.87633	1761.5125
596.888	1783.8125
600.89682	1818.4125
604.9028	1910.4125
608.90594	2141.1125
612.90624	2427.5125
616.90371	2390.7125
620.89834	2099.4125
624.89015	1974.4125
628.87913	2025.7125
632.86528	2115.6125
636.84862	2155.3125
640.82913	2124.5125
644.80683	2023.3125
648.78172	1919.2125
652.75379	1854.2125
656.72306	1829.3125
660.68952	1834.8125
664.65319	1809.9125
668.61405	1767.8125
672.57211	1765.6125
676.52738	1782.3125
680.47986	1796.2125
684.42955	1812.0125
688.37646	1811.2125
692.32058	1807.5125
696.26192	1766.8125
700.20048	1745.4125
704.13626	1739.6125
708.06928	1737.5125
711.99952	1726.5125
715.927	1721.6125
719.85171	1733.1125
723.77365	1748.1125
727.69284	1751.1125
731.60928	1748.3125
735.52295	1735.6125
739.43388	1729.9125
743.34206	1728.6125
747.24749	1721.2125
751.15017	1717.4125
755.05012	1721.4125
758.94733	1738.7125
762.8418	1817.2125
766.73354	1954.6125
770.62254	2068.5125
774.50882	2166.6125
778.39237	2134.3125
782.27321	1989.7125
786.15132	1861.0125
790.02671	1781.2125
793.89938	1743.9125
797.76935	1742.8125
801.6366	1755.4125
805.50115	1798.6125
809.36299	1836.6125
813.22213	1845.6125
817.07857	1825.7125
820.93231	1783.8125
824.78336	1735.9125
828.63172	1713.3125
832.47738	1695.0125
836.32036	1680.7125
840.16066	1672.8125
843.99827	1684.6125
847.8332	1678.1125
851.66546	1679.2125
855.49504	1677.7125
859.32195	1667.8125
863.1462	1677.6125
866.96777	1691.0125
870.78668	1706.6125
874.60293	1726.8125
878.41652	1777.5125
882.22745	1815.7125
886.03573	1841.0125
889.84136	1855.0125
893.64433	1834.2125
897.44466	1799.5125
901.24235	1767.9125
905.0374	1734.3125
908.8298	1715.7125
912.61957	1719.7125
916.40671	1729.4125
920.19121	1743.5125
923.97308	1764.2125
927.75233	1778.5125
931.52895	1765.6125
935.30295	1760.9125
939.07433	1722.1125
942.84309	1698.9125
946.60924	1668.4125
950.37278	1645.8125
954.13371	1621.7125
957.89203	1601.5125
961.64774	1584.4125
965.40086	1569.4125
969.15137	1543.3125
972.89929	1528.2125
976.64461	1517.1125
980.38733	1517.9125
984.12747	1511.2125
987.86502	1514.2125
991.59999	1519.6125
995.33237	1531.2125
999.06217	1537.7125
1002.78939	1561.9125
1006.51404	1580.8125
1010.23611	1609.3125
1013.95561	1622.8125
1017.67255	1644.3125
1021.38692	1635.0125
1025.09872	1617.0125
1028.80796	1601.9125
1032.51465	1581.7125
1036.21877	1562.1125
1039.92035	1556.8125
1043.61937	1541.2125
1047.31584	1535.5125
1051.00976	1540.8125
1054.70114	1531.7125
1058.38998	1530.2125
1062.07627	1540.8125
1065.76003	1556.7125
1069.44126	1563.0125
1073.11995	1559.8125
1076.79611	1579.3125
1080.46974	1574.7125
1084.14085	1573.3125
1087.80943	1574.8125
1091.47549	1573.5125
1095.13903	1549.9125
1098.80005	1534.1125
1102.45857	1496.9125
1106.11456	1499.0125
1109.76805	1505.9125
1113.41903	1535.1125
1117.06751	1571.6125
1120.71348	1634.6125
1124.35696	1723.7125
1127.99793	1828.2125
1131.63641	1892.0125
1135.2724	1923.0125
1138.90589	1894.8125
1142.5369	1834.1125
1146.16542	1742.8125
1149.79145	1651.7125
1153.415	1581.9125
1157.03607	1539.2125
1160.65467	1509.5125
1164.27079	1519.5125
1167.88443	1542.2125
1171.49561	1585.6125
1175.10432	1665.1125
1178.71056	1792.6125
1182.31434	1891.2125
1185.91565	1914.1125
1189.51451	1912.2125
1193.11091	1887.8125
1196.70485	1856.0125
1200.29634	1822.8125
1203.88538	1799.9125
1207.47197	1740.7125
1211.05612	1679.3125
1214.63782	1617.4125
1218.21708	1571.2125
1221.79391	1545.2125
1225.36829	1521.8125
1228.94024	1510.7125
1232.50976	1500.3125
1236.07685	1496.6125
1239.6415	1497.4125
1243.20374	1503.6125
1246.76355	1496.5125
1250.32093	1513.2125
1253.8759	1519.6125
1257.42845	1538.4125
1260.97859	1559.8125
1264.52631	1588.3125
1268.07163	1619.7125
1271.61453	1634.9125
1275.15503	1651.4125
1278.69312	1663.0125
1282.22882	1661.8125
1285.76211	1669.8125
1289.29301	1682.6125
1292.82151	1717.2125
1296.34761	1758.1125
1299.87133	1807.0125
1303.39266	1905.1125
1306.9116	2010.7125
1310.42815	2130.3125
1313.94233	2189.4125
1317.45412	2174.1125
1320.96354	2087.1125
1324.47058	1971.9125
1327.97525	1892.1125
1331.47754	1836.1125
1334.97747	1825.9125
1338.47502	1823.7125
1341.97022	1858.2125
1345.46305	1931.5125
1348.95352	2046.0125
1352.44163	2183.6125
1355.92738	2353.4125
1359.41078	2580.0125
1362.89183	2756.2125
1366.37053	2718.9125
1369.84688	2502.2125
1373.32088	2239.7125
1376.79254	2067.9125
1380.26186	1953.5125
1383.72883	1877.6125
1387.19347	1816.3125
1390.65578	1767.6125
1394.11575	1730.1125
1397.57339	1691.5125
1401.0287	1667.9125
1404.48168	1639.0125
1407.93234	1604.2125
1411.38068	1583.1125
1414.82669	1557.4125
1418.27039	1527.1125
1421.71177	1501.2125
1425.15083	1484.8125
1428.58758	1459.7125
1432.02203	1456.3125
1435.45416	1455.1125
1438.88399	1435.1125
1442.31151	1436.3125
1445.73673	1424.3125
1449.15965	1412.0125
1452.58027	1425.8125
1455.9986	1417.2125
1459.41463	1422.2125
1462.82837	1419.6125
1466.23982	1433.2125
1469.64898	1436.9125
1473.05586	1453.9125
1476.46045	1447.6125
1479.86276	1467.3125
1483.26279	1483.2125
1486.66054	1505.0125
1490.05602	1532.7125
1493.44922	1580.0125
1496.84016	1662.0125
1500.22882	1781.1125
1503.61521	1921.7125
1506.99934	2119.6125
1510.38121	2262.6125
1513.76081	2303.4125
1517.13816	2214.2125
1520.51324	2014.8125
1523.88607	1825.0125
1527.25665	1699.2125
1530.62498	1626.5125
1533.99105	1591.6125
1537.35488	1553.3125
1540.71647	1548.4125
1544.07581	1536.0125
1547.4329	1540.3125
1550.78776	1557.0125
1554.14038	1569.9125
1557.49077	1582.8125
1560.83892	1594.5125
1564.18484	1610.9125
1567.52853	1637.6125
1570.86999	1671.0125
1574.20922	1699.6125
1577.54624	1687.1125
1580.88103	1642.6125
1584.2136	1557.6125
1587.54395	1504.4125
1590.87208	1483.5125
1594.19801	1494.8125
1597.52172	1519.4125
1600.84321	1539.5125
1604.16251	1534.0125
1607.47959	1501.9125
1610.79447	1487.5125
1614.10715	1460.6125
1617.41763	1428.8125
1620.7259	1414.1125
1624.03199	1421.0125
1627.33587	1406.6125
1630.63757	1401.2125
1633.93707	1425.2125
1637.23439	1450.2125
1640.52951	1501.6125
1643.82246	1589.0125
1647.11321	1700.5125
1650.40179	1772.5125
1653.68819	1765.3125
1656.97241	1662.3125
1660.25446	1516.7125
1663.53433	1380.0125
1666.81203	1311.6125
1670.08756	1271.8125
1673.36092	1236.8125
1676.63211	1221.0125
1679.90115	1206.1125
1683.16801	1188.7125
1686.43272	1185.8125
1689.69527	1162.9125
1692.95567	1139.6125
1696.2139	1112.3125
1699.46999	1077.0125
1702.72392	1043.9125
1705.97571	1044.8125
1709.22535	1030.8125
1712.47284	1032.4125
1715.71819	1019.6125
1718.96139	1007.5125
1722.20246	994.7125
1725.44139	977.7125
1728.67818	963.1125
1731.91284	957.7125
1735.14537	947.3125
1738.37576	933.1125
1741.60403	928.4125
1744.83017	911.2125
1748.05418	901.9125
1751.27607	891.3125
1754.49584	882.9125
1757.71349	866.6125
1760.92903	843.2125
1764.14244	840.5125
1767.35375	832.2125
1770.56294	830.5125
1773.77002	831.5125
1776.97499	847.3125
1780.17785	856.5125
1783.37861	860.3125
1786.57727	869.2125
1789.77382	860.4125
1792.96828	865.4125
1796.16064	859.0125
1799.3509	858.3125
1802.53907	857.3125
1805.72514	848.7125
1808.90913	853.2125
1812.09102	844.5125
1815.27083	844.6125
1818.44856	836.5125
1821.6242	831.4125
1824.79776	834.2125
1827.96924	829.3125
1831.13864	824.2125
1834.30597	821.2125
1837.47122	821.7125
1840.6344	821.6125
1843.7955	823.1125
1846.95454	813.7125
1850.11151	813.1125
1853.26642	807.4125
1856.41926	808.6125
1859.57004	811.4125
1862.71876	812.3125
1865.86542	806.1125
1869.01003	806.0125
1872.15258	798.0125
1875.29308	799.8125
1878.43152	804.1125
1881.56792	802.0125
1884.70227	798.0125
1887.83457	789.8125
1890.96482	780.7125
1894.09304	781.4125
1897.21921	785.4125
1900.34335	782.0125
1903.46544	778.3125
1906.58551	781.6125
1909.70353	767.1125
1912.81953	775.2125
1915.93349	769.2125
1919.04543	767.3125
1922.15534	768.4125
1925.26322	767.3125
1928.36908	758.2125
1931.47292	758.1125
1934.57473	749.9125
1937.67453	747.4125
1940.77232	744.9125
1943.86808	751.3125
1946.96184	737.9125
1950.05358	726.5125
1953.14331	732.4125
1956.23103	734.6125
1959.31675	730.6125
1962.40046	730.7125
1965.48217	729.9125
1968.56188	714.9125
1971.63959	715.7125
1974.7153	722.1125
1977.78901	714.1125
1980.86073	707.0125
1983.93046	708.5125
1986.99819	699.8125
1990.06394	708.5125
1993.1277	699.2125
1996.18947	692.2125
1999.24925	696.6125
2002.30706	692.3125
2005.36288	686.7125
2008.41672	679.2125
2011.46859	680.1125
2014.51848	686.0125
2017.56639	673.9125
2020.61233	675.3125
2023.6563	667.2125
2026.6983	670.0125
2029.73833	662.9125
2032.7764	663.2125
2035.8125	659.7125
2038.84664	663.3125
2041.87881	655.1125
2044.90903	656.1125
2047.93729	649.4125
2050.96359	653.3125
2053.98794	650.6125
2057.01034	647.4125
2060.03078	649.8125
2063.04927	647.8125
2066.06582	653.3125
2069.08042	646.1125
2072.09307	639.3125
2075.10378	646.9125
2078.11255	642.7125
2081.11938	642.4125
2084.12426	640.4125
2087.12722	644.1125
2090.12824	645.4125
2093.12732	639.2125
2096.12447	633.7125
2099.11969	635.1125
2102.11299	631.2125
2105.10435	635.0125
2108.09379	627.0125
2111.08131	631.4125
2114.0669	636.3125
2117.05057	638.2125
2120.03233	632.0125
2123.01216	627.7125
2125.99008	632.7125
2128.96609	630.8125
2131.94018	632.0125
2134.91236	630.5125
2137.88263	622.3125
2140.851	634.4125
2143.81746	622.1125
2146.78201	622.2125
2149.74466	627.7125
2152.7054	618.1125
2155.66425	622.7125
2158.6212	612.3125
2161.57625	619.4125
2164.52941	619.4125
2167.48067	606.2125
2170.43004	611.9125
2173.37752	614.0125
2176.32311	609.1125
2179.26681	614.1125
2182.20863	613.4125
2185.14856	616.1125
2188.08661	604.8125
2191.02278	605.8125
2193.95707	605.4125
2196.88948	606.5125
2199.82001	601.2125
2202.74867	596.5125
2205.67545	598.8125
2208.60037	596.3125
2211.52341	591.5125
2214.44458	591.4125
2217.36388	584.7125
2220.28132	585.8125
2223.1969	586.7125
2226.11061	585.1125
2229.02246	587.0125
2231.93245	574.7125
2234.84058	581.5125
2237.74686	573.7125
2240.65128	580.2125
2243.55385	578.6125
2246.45456	575.3125
2249.35343	573.6125
2252.25044	572.7125
2255.14561	569.0125
2258.03893	561.7125
2260.93041	555.0125
2263.82004	555.8125
2266.70783	557.9125
2269.59378	557.5125
2272.4779	560.2125
2275.36017	557.3125
2278.24061	556.4125
2281.11922	546.8125
2283.996	553.5125
2286.87094	549.9125
2289.74405	550.1125
2292.61534	546.1125
2295.4848	546.3125
2298.35243	541.3125
2301.21824	542.4125
2304.08223	538.4125
2306.94439	541.8125
2309.80474	532.7125
2312.66327	537.3125
2315.51999	537.0125
2318.37489	527.1125
2321.22797	529.8125
2324.07925	529.8125
2326.92871	531.0125
2329.77637	530.5125
2332.62222	531.1125
2335.46626	520.2125
2338.3085	517.3125
2341.14893	520.4125
2343.98756	516.5125
2346.8244	511.6125
2349.65943	516.4125
2352.49267	518.7125
2355.32411	514.4125
2358.15376	518.7125
2360.98161	515.4125
2363.80768	515.7125
2366.63195	512.5125
2369.45444	512.4125
2372.27514	508.8125
2375.09405	509.6125
2377.91118	512.2125
2380.72652	506.3125
2383.54009	514.8125
2386.35187	507.6125
2389.16188	508.6125
2391.97011	496.1125
2394.77657	495.5125
2397.58125	496.2125
2400.38416	496.6125
2403.18529	494.0125
2405.98466	489.9125
2408.78226	488.3125
2411.57809	501.5125
2414.37216	487.1125
2417.16446	490.9125
2419.955	484.6125
2422.74378	483.1125
2425.5308	479.3125
2428.31606	478.1125
2431.09956	482.0125
2433.88131	482.7125
2436.6613	477.0125
2439.43954	472.2125
2442.21603	476.4125
2444.99077	476.1125
2447.76377	476.0125
2450.53501	470.4125
2453.30451	474.8125
2456.07226	471.2125
2458.83827	472.3125
2461.60254	466.6125
2464.36507	466.0125
2467.12586	465.5125
2469.88492	467.6125
2472.64224	464.6125
2475.39782	457.1125
2478.15167	459.9125
2480.90379	464.1125
2483.65417	455.8125
2486.40283	476.2125
2489.14976	480.0125
2491.89497	461.3125
2494.63845	453.4125
2497.3802	449.2125
2500.12024	456.8125
2502.85855	452.3125
2505.59514	456.1125
2508.33002	453.4125
2511.06318	454.0125
2513.79462	452.2125
2516.52435	446.8125
2519.25237	447.2125
2521.97867	446.1125
2524.70327	444.0125
2527.42616	444.5125
2530.14734	441.3125
2532.86681	441.2125
2535.58458	443.3125
2538.30065	442.8125
2541.01501	437.1125
2543.72768	435.7125
2546.43864	437.4125
2549.14791	437.0125
2551.85548	434.6125
2554.56136	430.5125
2557.26554	437.2125
2559.96803	430.5125
2562.66883	427.4125
2565.36794	431.1125
2568.06536	426.7125
2570.7611	425.6125
2573.45514	427.2125
2576.14751	422.6125
2578.83819	421.8125
2581.52719	421.1125
2584.21451	417.0125
2586.90015	419.7125
2589.58411	422.9125
2592.2664	421.0125
2594.94701	414.6125
2597.62594	413.3125
2600.30321	413.2125
2602.9788	412.1125
2605.65273	407.1125
2608.32498	408.1125
2610.99557	407.8125
2613.66449	407.4125
2616.33175	414.0125
2618.99734	408.8125
2621.66128	404.3125
2624.32355	409.1125
2626.98416	403.3125
2629.64311	405.7125
2632.30041	407.0125
2634.95605	400.1125
2637.61004	398.9125
2640.26238	400.3125
2642.91306	400.7125
2645.56209	396.9125
2648.20948	397.9125
2650.85521	402.0125
2653.4993	399.7125
2656.14175	392.7125
2658.78255	401.1125
2661.42171	398.2125
2664.05923	396.9125
2666.6951	396.2125
2669.32934	401.0125
2671.96194	395.2125
2674.59291	392.8125
2677.22224	392.3125
2679.84993	390.8125
2682.476	392.7125
2685.10043	392.2125
2687.72324	390.7125
2690.34441	394.5125
2692.96396	397.6125
2695.58188	392.6125
2698.19818	394.5125
2700.81285	392.7125
2703.4259	377.7125
2706.03733	344.2125
2708.64714	360.5125
2711.25533	379.1125
2713.86191	384.9125
2716.46687	383.3125
2719.07021	389.2125
2721.67194	395.8125
2724.27206	393.8125
2726.87057	391.6125
2729.46747	394.4125
2732.06276	391.2125
2734.65644	391.0125
2737.24852	389.6125
2739.83899	391.2125
2742.42786	388.9125
2745.01513	385.7125
2747.60079	392.8125
2750.18486	386.5125
2752.76733	387.3125
2755.3482	383.6125
2757.92747	390.3125
2760.50515	382.1125
2763.08123	383.0125
2765.65573	381.2125
2768.22863	382.9125
2770.79994	382.2125
2773.36967	378.7125
2775.9378	383.2125
2778.50435	379.5125
2781.06932	381.2125
2783.6327	374.4125
2786.1945	380.4125
2788.75471	379.6125
2791.31335	376.0125
2793.87041	382.8125
2796.42589	380.6125
2798.97979	375.6125
2801.53212	370.3125
2804.08288	374.5125
2806.63206	373.8125
2809.17967	375.6125
2811.72571	372.6125
2814.27018	373.9125
2816.81308	374.3125
2819.35442	371.6125
2821.89419	371.8125
2824.43239	367.9125
2826.96904	368.6125
2829.50412	372.9125
2832.03763	370.8125
2834.56959	372.7125
2837.1	373.0125
2839.62884	372.2125
2842.15613	367.2125
2844.68186	379.7125
2847.20604	376.9125
2849.72867	381.5125
2852.24974	375.3125
2854.76927	377.0125
2857.28724	364.1125
2859.80367	379.1125
2862.31855	373.0125
2864.83189	371.9125
2867.34368	382.3125
2869.85393	378.8125
2872.36264	381.6125
2874.8698	380.6125
2877.37543	383.0125
2879.87952	388.1125
2882.38207	386.0125
2884.88308	383.3125
2887.38256	385.0125
2889.88051	385.7125
2892.37692	383.7125
2894.8718	386.7125
2897.36515	392.5125
2899.85698	393.4125
2902.34727	394.6125
2904.83604	397.6125
2907.32328	393.9125
2909.809	397.6125
2912.29319	403.5125
2914.77587	407.4125
2917.25702	409.5125
2919.73665	405.0125
2922.21476	407.0125
2924.69136	403.2125
2927.16644	410.1125
2929.64	406.5125
2932.11205	407.6125
2934.58258	408.5125
2937.05161	408.3125
2939.51912	401.9125
2941.98513	406.2125
2944.44962	403.7125
2946.91261	400.4125
2949.37409	398.8125
2951.83407	391.8125
2954.29254	395.4125
2956.74951	393.1125
2959.20498	388.1125
2961.65895	390.3125
2964.11142	384.7125
2966.56239	385.4125
2969.01186	387.7125
2971.45984	389.2125
2973.90632	388.0125
2976.35131	383.2125
2978.7948	379.8125
2981.23681	386.0125
2983.67732	379.2125
2986.11635	382.7125
2988.55388	379.7125
2990.98993	383.3125
2993.4245	375.9125
2995.85758	383.9125
2998.28917	381.7125
3000.71928	381.4125
3003.14791	387.3125
3005.57506	384.8125
3008.00073	387.0125
3010.42493	387.3125
3012.84764	388.6125
3015.26888	389.0125
3017.68865	390.2125
3020.10694	389.3125
3022.52376	393.9125
3024.9391	394.6125
3027.35298	398.7125
3029.76539	394.8125
3032.17632	399.9125
3034.5858	397.4125
3036.9938	399.9125
3039.40034	403.8125
3041.80542	404.9125
3044.20903	403.0125
3046.61118	408.5125
3049.01187	411.2125
3051.4111	409.4125
3053.80888	412.2125
3056.20519	419.0125
3058.60005	420.2125
3060.99345	419.9125
3063.3854	422.4125
3065.7759	422.2125
3068.16494	427.7125
3070.55254	425.3125
3072.93868	433.0125
3075.32338	433.6125
3077.70662	437.5125
3080.08842	439.4125
3082.46878	441.7125
3084.84769	445.2125
3087.22515	451.0125
3089.60118	451.8125
3091.97576	460.0125
3094.3489	453.9125
3096.72061	463.4125
3099.09087	475.1125
3101.4597	477.9125
3103.82709	479.3125
3106.19305	477.8125
3108.55757	483.0125
3110.92066	491.5125
3113.28232	492.4125
3115.64255	499.2125
3118.00134	503.0125
3120.35871	505.9125
3122.71466	511.2125
3125.06917	518.9125
3127.42226	519.8125
3129.77393	526.5125
3132.12417	530.1125
3134.47299	535.5125
3136.82039	538.4125
3139.16636	551.0125
3141.51092	554.0125
3143.85406	563.2125
3146.19579	569.4125
3148.53609	569.5125
3150.87499	573.3125
3153.21246	581.2125
3155.54853	589.5125
3157.88318	599.4125
3160.21642	606.1125
3162.54826	611.9125
3164.87868	618.2125
3167.2077	621.7125
3169.5353	626.4125
3171.86151	636.0125
3174.18631	638.7125
3176.5097	643.8125
3178.83169	644.2125
3181.15228	656.9125
3183.47147	657.2125
3185.78926	656.1125
3188.10565	666.5125
