Data from AgNPs_APTES_FTO_UA_100uM_CRN_0uM_R6G_10uM_Scan_RamanShift__3__12-07-33-503.txt Node

Date: Thu Jun 23 12:07:33 BST 2022
User: TCL
Spectrometer: QEP01345
Trigger mode: 4
Integration Time (sec): 7.000000E0
Scans to average: 10
Electric dark correction enabled: true
Nonlinearity correction enabled: false
Boxcar width: 0
XAxis mode: Raman Shifts
Number of Pixels in Spectrum: 1044
>>>>>Begin Spectral Data<<<<<
46.04893	0.275
50.45542	-0.125
54.85868	0.175
59.25871	-1.925
63.6555	30.975
68.04907	34.475
72.43941	40.975
76.82654	44.175
81.21044	45.975
85.59113	46.275
89.96862	52.375
94.34289	53.475
98.71396	52.675
103.08183	51.775
107.4465	56.375
111.80798	54.275
116.16626	53.175
120.52136	57.675
124.87327	55.275
129.222	57.175
133.56755	57.675
137.90993	56.975
142.24913	56.575
146.58517	60.675
150.91804	61.075
155.24774	69.075
159.57429	79.375
163.89768	87.375
168.21792	108.575
172.53501	137.275
176.84895	173.075
181.15975	231.175
185.46741	312.375
189.77193	435.475
194.07331	578.475
198.37157	741.975
202.6667	933.475
206.9587	1126.075
211.24758	1314.475
215.53334	1515.075
219.81599	1726.675
224.09553	1962.475
228.37195	2217.675
232.64527	2517.875
236.91549	2798.775
241.18261	3099.175
245.44663	3380.875
249.70755	3657.375
253.96539	3877.775
258.22014	4042.475
262.4718	4112.775
266.72039	4096.875
270.96589	4029.175
275.20832	3879.275
279.44768	3699.275
283.68397	3491.575
287.91719	3278.575
292.14735	3087.775
296.37445	2924.175
300.59849	2798.575
304.81948	2703.775
309.03742	2632.975
313.25231	2568.275
317.46415	2463.875
321.67296	2345.875
325.87872	2223.975
330.08145	2171.175
334.28114	2139.475
338.47781	2146.775
342.67145	2158.075
346.86207	2182.675
351.04966	2208.975
355.23424	2268.675
359.4158	2288.275
363.59435	2286.475
367.76989	2279.775
371.94243	2253.375
376.11196	2220.875
380.27849	2209.375
384.44203	2189.075
388.60257	2190.575
392.76012	2180.475
396.91468	2192.575
401.06626	2209.775
405.21485	2217.475
409.36047	2199.475
413.50311	2158.775
417.64277	2120.275
421.77947	2099.075
425.9132	2099.675
430.04396	2120.875
434.17176	2139.575
438.2966	2156.575
442.41849	2194.475
446.53742	2225.675
450.6534	2230.675
454.76644	2248.875
458.87653	2253.275
462.98368	2263.675
467.08789	2234.575
471.18916	2247.775
475.2875	2235.775
479.38291	2211.875
483.4754	2216.875
487.56496	2203.575
491.6516	2216.375
495.73531	2212.075
499.81612	2203.175
503.89401	2203.375
507.96899	2199.875
512.04106	2219.275
516.11023	2227.575
520.1765	2227.675
524.23987	2238.075
528.30034	2228.375
532.35792	2218.275
536.41261	2213.475
540.46441	2192.375
544.51333	2181.275
548.55936	2192.175
552.60252	2195.475
556.64279	2213.075
560.6802	2238.775
564.71473	2263.275
568.7464	2295.175
572.7752	2314.275
576.80114	2275.475
580.82422	2249.975
584.84444	2253.175
588.86181	2294.175
592.87633	2351.375
596.888	2426.075
600.89682	2581.475
604.9028	2817.875
608.90594	3253.775
612.90624	3755.475
616.90371	3830.475
620.89834	3443.275
624.89015	3206.175
628.87913	3071.675
632.86528	2905.875
636.84862	2738.575
640.82913	2572.275
644.80683	2446.075
648.78172	2369.275
652.75379	2352.075
656.72306	2383.175
660.68952	2466.275
664.65319	2498.075
668.61405	2520.275
672.57211	2563.875
676.52738	2646.375
680.47986	2706.075
684.42955	2761.775
688.37646	2792.575
692.32058	2786.775
696.26192	2761.575
700.20048	2755.675
704.13626	2737.975
708.06928	2710.375
711.99952	2665.875
715.927	2604.475
719.85171	2554.075
723.77365	2505.375
727.69284	2480.975
731.60928	2440.875
735.52295	2425.475
739.43388	2400.775
743.34206	2410.075
747.24749	2398.675
751.15017	2396.275
755.05012	2407.775
758.94733	2441.275
762.8418	2540.175
766.73354	2716.975
770.62254	2891.675
774.50882	2932.175
778.39237	2880.975
782.27321	2745.875
786.15132	2607.775
790.02671	2524.075
793.89938	2491.375
797.76935	2478.975
801.6366	2501.875
805.50115	2501.475
809.36299	2533.075
813.22213	2538.675
817.07857	2564.675
820.93231	2561.675
824.78336	2549.675
828.63172	2550.575
832.47738	2532.775
836.32036	2532.175
840.16066	2550.375
843.99827	2543.975
847.8332	2534.775
851.66546	2525.875
855.49504	2526.675
859.32195	2552.875
863.1462	2579.875
866.96777	2626.675
870.78668	2646.475
874.60293	2682.275
878.41652	2754.575
882.22745	2810.375
886.03573	2900.375
889.84136	3005.575
893.64433	3101.675
897.44466	3204.575
901.24235	3282.875
905.0374	3334.275
908.8298	3408.475
912.61957	3486.775
916.40671	3579.175
920.19121	3675.675
923.97308	3755.475
927.75233	3793.475
931.52895	3792.275
935.30295	3701.075
939.07433	3590.975
942.84309	3434.475
946.60924	3304.275
950.37278	3184.775
954.13371	3094.475
957.89203	3008.175
961.64774	2948.975
965.40086	2875.775
969.15137	2818.775
972.89929	2781.875
976.64461	2726.675
980.38733	2692.175
984.12747	2665.275
987.86502	2646.275
991.59999	2627.275
995.33237	2624.775
999.06217	2606.275
1002.78939	2615.075
1006.51404	2625.475
1010.23611	2616.275
1013.95561	2617.475
1017.67255	2620.875
1021.38692	2612.775
1025.09872	2608.775
1028.80796	2613.975
1032.51465	2625.775
1036.21877	2652.975
1039.92035	2693.275
1043.61937	2733.875
1047.31584	2776.775
1051.00976	2799.775
1054.70114	2780.375
1058.38998	2738.675
1062.07627	2671.375
1065.76003	2615.875
1069.44126	2558.075
1073.11995	2505.575
1076.79611	2482.975
1080.46974	2473.475
1084.14085	2478.675
1087.80943	2490.075
1091.47549	2494.375
1095.13903	2460.575
1098.80005	2419.275
1102.45857	2387.675
1106.11456	2374.775
1109.76805	2379.875
1113.41903	2395.875
1117.06751	2441.275
1120.71348	2483.875
1124.35696	2536.775
1127.99793	2602.775
1131.63641	2617.575
1135.2724	2567.775
1138.90589	2524.175
1142.5369	2481.475
1146.16542	2451.075
1149.79145	2433.275
1153.415	2416.675
1157.03607	2424.875
1160.65467	2435.175
1164.27079	2441.175
1167.88443	2476.275
1171.49561	2522.075
1175.10432	2633.575
1178.71056	2774.075
1182.31434	2885.175
1185.91565	2914.975
1189.51451	2839.075
1193.11091	2731.875
1196.70485	2651.175
1200.29634	2621.575
1203.88538	2577.875
1207.47197	2542.275
1211.05612	2496.075
1214.63782	2470.475
1218.21708	2471.675
1221.79391	2456.175
1225.36829	2486.575
1228.94024	2495.575
1232.50976	2502.975
1236.07685	2529.675
1239.6415	2543.775
1243.20374	2559.275
1246.76355	2582.575
1250.32093	2611.675
1253.8759	2625.575
1257.42845	2662.175
1260.97859	2698.075
1264.52631	2752.975
1268.07163	2779.975
1271.61453	2821.175
1275.15503	2868.575
1278.69312	2882.575
1282.22882	2888.075
1285.76211	2934.675
1289.29301	3007.475
1292.82151	3062.675
1296.34761	3127.675
1299.87133	3199.475
1303.39266	3322.075
1306.9116	3505.375
1310.42815	3724.075
1313.94233	3824.375
1317.45412	3727.275
1320.96354	3554.075
1324.47058	3390.575
1327.97525	3277.575
1331.47754	3205.175
1334.97747	3177.975
1338.47502	3209.175
1341.97022	3260.275
1345.46305	3345.675
1348.95352	3524.275
1352.44163	3700.275
1355.92738	3917.775
1359.41078	4212.175
1362.89183	4571.575
1366.37053	4620.075
1369.84688	4266.775
1373.32088	3891.275
1376.79254	3678.775
1380.26186	3576.975
1383.72883	3555.375
1387.19347	3514.375
1390.65578	3481.775
1394.11575	3464.775
1397.57339	3445.575
1401.0287	3432.375
1404.48168	3401.275
1407.93234	3365.375
1411.38068	3346.075
1414.82669	3335.275
1418.27039	3312.175
1421.71177	3300.375
1425.15083	3256.275
1428.58758	3206.075
1432.02203	3177.775
1435.45416	3142.675
1438.88399	3104.275
1442.31151	3057.975
1445.73673	3019.075
1449.15965	2999.175
1452.58027	2965.375
1455.9986	2941.275
1459.41463	2938.475
1462.82837	2940.475
1466.23982	2927.075
1469.64898	2953.875
1473.05586	2979.175
1476.46045	2983.575
1479.86276	2992.475
1483.26279	3002.875
1486.66054	3041.375
1490.05602	3068.175
1493.44922	3119.275
1496.84016	3229.875
1500.22882	3371.375
1503.61521	3591.075
1506.99934	3867.475
1510.38121	4096.775
1513.76081	4200.675
1517.13816	4026.275
1520.51324	3701.875
1523.88607	3395.875
1527.25665	3164.675
1530.62498	3037.575
1533.99105	2963.675
1537.35488	2906.175
1540.71647	2864.075
1544.07581	2839.475
1547.4329	2837.875
1550.78776	2838.175
1554.14038	2845.075
1557.49077	2834.275
1560.83892	2842.175
1564.18484	2868.875
1567.52853	2900.775
1570.86999	2934.575
1574.20922	2967.275
1577.54624	2947.475
1580.88103	2867.775
1584.2136	2742.375
1587.54395	2656.975
1590.87208	2605.575
1594.19801	2605.075
1597.52172	2631.475
1600.84321	2632.975
1604.16251	2598.075
1607.47959	2547.075
1610.79447	2532.175
1614.10715	2500.475
1617.41763	2472.075
1620.7259	2462.575
1624.03199	2461.575
1627.33587	2467.975
1630.63757	2468.175
1633.93707	2487.575
1637.23439	2517.575
1640.52951	2554.875
1643.82246	2668.375
1647.11321	2805.875
1650.40179	2930.075
1653.68819	2935.775
1656.97241	2770.175
1660.25446	2561.675
1663.53433	2395.475
1666.81203	2296.375
1670.08756	2222.175
1673.36092	2179.275
1676.63211	2153.875
1679.90115	2132.975
1683.16801	2108.275
1686.43272	2083.275
1689.69527	2061.175
1692.95567	2048.775
1696.2139	2034.275
1699.46999	2026.775
1702.72392	2009.275
1705.97571	2004.075
1709.22535	1992.975
1712.47284	1982.475
1715.71819	1996.075
1718.96139	1978.975
1722.20246	1972.075
1725.44139	1974.075
1728.67818	1954.675
1731.91284	1951.775
1735.14537	1947.775
1738.37576	1930.475
1741.60403	1928.975
1744.83017	1906.675
1748.05418	1910.375
1751.27607	1893.575
1754.49584	1909.575
1757.71349	1891.075
1760.92903	1876.075
1764.14244	1873.475
1767.35375	1880.575
1770.56294	1871.775
1773.77002	1878.075
1776.97499	1868.975
1780.17785	1873.675
1783.37861	1864.975
1786.57727	1863.175
1789.77382	1851.275
1792.96828	1858.375
1796.16064	1859.275
1799.3509	1841.375
1802.53907	1847.475
1805.72514	1832.475
1808.90913	1840.175
1812.09102	1822.175
1815.27083	1819.775
1818.44856	1823.775
1821.6242	1816.675
1824.79776	1822.475
1827.96924	1819.075
1831.13864	1816.875
1834.30597	1811.775
1837.47122	1811.675
1840.6344	1810.875
1843.7955	1801.175
1846.95454	1807.875
1850.11151	1804.975
1853.26642	1798.775
1856.41926	1799.975
1859.57004	1799.675
1862.71876	1794.075
1865.86542	1795.775
1869.01003	1785.075
1872.15258	1778.675
1875.29308	1790.575
1878.43152	1775.275
1881.56792	1781.075
1884.70227	1768.175
1887.83457	1764.575
1890.96482	1761.275
1894.09304	1759.075
1897.21921	1764.075
1900.34335	1757.975
1903.46544	1755.675
1906.58551	1761.375
1909.70353	1748.875
1912.81953	1748.575
1915.93349	1755.175
1919.04543	1751.175
1922.15534	1748.075
1925.26322	1750.075
1928.36908	1749.575
1931.47292	1745.975
1934.57473	1740.875
1937.67453	1728.475
1940.77232	1728.275
1943.86808	1715.475
1946.96184	1724.175
1950.05358	1711.675
1953.14331	1709.275
1956.23103	1708.675
1959.31675	1696.975
1962.40046	1692.675
1965.48217	1692.775
1968.56188	1675.575
1971.63959	1683.675
1974.7153	1682.475
1977.78901	1664.375
1980.86073	1647.875
1983.93046	1657.675
1986.99819	1648.175
1990.06394	1652.775
1993.1277	1643.575
1996.18947	1645.875
1999.24925	1642.075
2002.30706	1630.175
2005.36288	1625.475
2008.41672	1624.975
2011.46859	1614.475
2014.51848	1635.175
2017.56639	1615.275
2020.61233	1611.575
2023.6563	1611.175
2026.6983	1607.075
2029.73833	1609.675
2032.7764	1602.575
2035.8125	1607.675
2038.84664	1609.875
2041.87881	1619.475
2044.90903	1618.575
2047.93729	1628.275
2050.96359	1633.675
2053.98794	1638.975
2057.01034	1645.575
2060.03078	1666.275
2063.04927	1684.775
2066.06582	1700.775
2069.08042	1769.175
2072.09307	1728.375
2075.10378	1748.875
2078.11255	1771.175
2081.11938	1773.675
2084.12426	1775.775
2087.12722	1805.375
2090.12824	1794.375
2093.12732	1815.175
2096.12447	1818.975
2099.11969	1817.475
2102.11299	1804.875
2105.10435	1801.275
2108.09379	1786.975
2111.08131	1789.075
2114.0669	1771.475
2117.05057	1748.775
2120.03233	1730.775
2123.01216	1724.375
2125.99008	1718.375
2128.96609	1692.175
2131.94018	1683.975
2134.91236	1664.775
2137.88263	1650.675
2140.851	1655.675
2143.81746	1633.375
2146.78201	1628.275
2149.74466	1612.575
2152.7054	1614.975
2155.66425	1603.175
2158.6212	1596.375
2161.57625	1573.275
2164.52941	1584.775
2167.48067	1579.375
2170.43004	1570.475
2173.37752	1569.975
2176.32311	1570.075
2179.26681	1560.875
2182.20863	1559.675
2185.14856	1544.875
2188.08661	1554.375
2191.02278	1550.775
2193.95707	1551.675
2196.88948	1548.975
2199.82001	1540.175
2202.74867	1538.575
2205.67545	1533.975
2208.60037	1524.375
2211.52341	1531.375
2214.44458	1516.075
2217.36388	1513.075
2220.28132	1515.975
2223.1969	1519.775
2226.11061	1515.575
2229.02246	1506.375
2231.93245	1503.875
2234.84058	1501.975
2237.74686	1502.175
2240.65128	1506.775
2243.55385	1495.875
2246.45456	1487.875
2249.35343	1479.375
2252.25044	1494.275
2255.14561	1475.375
2258.03893	1482.375
2260.93041	1475.775
2263.82004	1479.375
2266.70783	1471.675
2269.59378	1474.075
2272.4779	1464.575
2275.36017	1465.975
2278.24061	1457.375
2281.11922	1458.375
2283.996	1457.975
2286.87094	1454.975
2289.74405	1444.775
2292.61534	1458.175
2295.4848	1446.275
2298.35243	1439.475
2301.21824	1451.175
2304.08223	1440.375
2306.94439	1447.875
2309.80474	1442.075
2312.66327	1435.475
2315.51999	1438.875
2318.37489	1430.375
2321.22797	1433.175
2324.07925	1434.175
2326.92871	1432.675
2329.77637	1433.075
2332.62222	1432.375
2335.46626	1419.875
2338.3085	1410.375
2341.14893	1415.175
2343.98756	1417.375
2346.8244	1416.275
2349.65943	1412.775
2352.49267	1403.475
2355.32411	1412.875
2358.15376	1410.175
2360.98161	1406.375
2363.80768	1399.475
2366.63195	1410.675
2369.45444	1407.275
2372.27514	1405.275
2375.09405	1388.875
2377.91118	1400.775
2380.72652	1398.875
2383.54009	1396.375
2386.35187	1381.975
2389.16188	1386.875
2391.97011	1369.775
2394.77657	1380.475
2397.58125	1373.275
2400.38416	1376.075
2403.18529	1367.275
2405.98466	1362.175
2408.78226	1360.375
2411.57809	1357.075
2414.37216	1354.075
2417.16446	1362.775
2419.955	1345.975
2422.74378	1351.675
2425.5308	1341.975
2428.31606	1346.675
2431.09956	1345.975
2433.88131	1347.875
2436.6613	1345.975
2439.43954	1346.475
2442.21603	1350.475
2444.99077	1343.675
2447.76377	1335.275
2450.53501	1337.175
2453.30451	1339.075
2456.07226	1331.075
2458.83827	1335.775
2461.60254	1332.575
2464.36507	1334.475
2467.12586	1328.075
2469.88492	1321.275
2472.64224	1323.075
2475.39782	1322.075
2478.15167	1329.475
2480.90379	1328.675
2483.65417	1324.375
2486.40283	1320.775
2489.14976	1316.975
2491.89497	1326.275
2494.63845	1315.775
2497.3802	1308.275
2500.12024	1316.375
2502.85855	1313.675
2505.59514	1312.275
2508.33002	1305.775
2511.06318	1305.975
2513.79462	1308.375
2516.52435	1300.875
2519.25237	1301.175
2521.97867	1295.975
2524.70327	1290.575
2527.42616	1285.075
2530.14734	1289.475
2532.86681	1288.875
2535.58458	1289.075
2538.30065	1288.175
2541.01501	1284.275
2543.72768	1277.475
2546.43864	1280.375
2549.14791	1270.575
2551.85548	1273.475
2554.56136	1272.875
2557.26554	1271.175
2559.96803	1270.775
2562.66883	1257.675
2565.36794	1267.175
2568.06536	1252.875
2570.7611	1259.075
2573.45514	1254.475
2576.14751	1262.275
2578.83819	1251.175
2581.52719	1251.375
2584.21451	1247.275
2586.90015	1250.875
2589.58411	1239.975
2592.2664	1243.775
2594.94701	1242.175
2597.62594	1245.675
2600.30321	1234.575
2602.9788	1236.575
2605.65273	1224.675
2608.32498	1231.275
2610.99557	1228.475
2613.66449	1222.075
2616.33175	1226.875
2618.99734	1226.575
2621.66128	1220.475
2624.32355	1216.075
2626.98416	1216.675
2629.64311	1209.275
2632.30041	1215.575
2634.95605	1207.675
2637.61004	1201.275
2640.26238	1199.275
2642.91306	1204.875
2645.56209	1199.675
2648.20948	1197.075
2650.85521	1194.175
2653.4993	1197.475
2656.14175	1192.775
2658.78255	1203.375
2661.42171	1198.075
2664.05923	1194.375
2666.6951	1198.075
2669.32934	1197.975
2671.96194	1198.175
2674.59291	1196.675
2677.22224	1202.675
2679.84993	1196.075
2682.476	1201.675
2685.10043	1196.875
2687.72324	1195.575
2690.34441	1206.875
2692.96396	1196.875
2695.58188	1199.175
2698.19818	1201.675
2700.81285	1196.675
2703.4259	1188.775
2706.03733	1171.675
2708.64714	1183.875
2711.25533	1194.075
2713.86191	1200.075
2716.46687	1197.575
2719.07021	1195.575
2721.67194	1192.575
2724.27206	1193.175
2726.87057	1195.975
2729.46747	1201.175
2732.06276	1197.875
2734.65644	1199.975
2737.24852	1203.675
2739.83899	1201.175
2742.42786	1204.375
2745.01513	1194.175
2747.60079	1196.075
2750.18486	1193.075
2752.76733	1187.575
2755.3482	1182.175
2757.92747	1188.675
2760.50515	1183.075
2763.08123	1183.375
2765.65573	1182.275
2768.22863	1186.675
2770.79994	1184.875
2773.36967	1178.275
2775.9378	1175.475
2778.50435	1179.675
2781.06932	1175.575
2783.6327	1169.175
2786.1945	1178.175
2788.75471	1173.175
2791.31335	1163.475
2793.87041	1169.075
2796.42589	1160.375
2798.97979	1164.275
2801.53212	1162.075
2804.08288	1164.075
2806.63206	1149.675
2809.17967	1144.475
2811.72571	1151.275
2814.27018	1152.775
2816.81308	1147.775
2819.35442	1139.675
2821.89419	1135.275
2824.43239	1136.375
2826.96904	1132.375
2829.50412	1127.475
2832.03763	1135.275
2834.56959	1130.275
2837.1	1129.575
2839.62884	1127.375
2842.15613	1131.475
2844.68186	1139.075
2847.20604	1132.175
2849.72867	1143.975
2852.24974	1137.575
2854.76927	1136.075
2857.28724	1129.975
2859.80367	1137.375
2862.31855	1134.575
2864.83189	1133.175
2867.34368	1132.775
2869.85393	1130.875
2872.36264	1126.875
2874.8698	1128.575
2877.37543	1127.475
2879.87952	1139.475
2882.38207	1128.075
2884.88308	1134.475
2887.38256	1133.375
2889.88051	1130.575
2892.37692	1137.475
2894.8718	1142.275
2897.36515	1144.675
2899.85698	1149.375
2902.34727	1149.275
2904.83604	1169.475
2907.32328	1175.575
2909.809	1168.475
2912.29319	1176.775
2914.77587	1184.375
2917.25702	1195.075
2919.73665	1196.575
2922.21476	1193.175
2924.69136	1195.175
2927.16644	1197.075
2929.64	1198.875
2932.11205	1200.275
2934.58258	1196.875
2937.05161	1201.975
2939.51912	1183.675
2941.98513	1183.375
2944.44962	1179.775
2946.91261	1170.675
2949.37409	1154.175
2951.83407	1156.975
2954.29254	1159.075
2956.74951	1153.075
2959.20498	1148.975
2961.65895	1142.875
2964.11142	1142.175
2966.56239	1147.175
2969.01186	1143.275
2971.45984	1136.675
2973.90632	1134.075
2976.35131	1128.475
2978.7948	1128.075
2981.23681	1124.875
2983.67732	1123.575
2986.11635	1119.475
2988.55388	1119.675
2990.98993	1119.975
2993.4245	1119.375
2995.85758	1109.475
2998.28917	1110.275
3000.71928	1107.375
3003.14791	1109.875
3005.57506	1108.475
3008.00073	1113.975
3010.42493	1116.675
3012.84764	1113.975
3015.26888	1113.475
3017.68865	1115.575
3020.10694	1104.775
3022.52376	1111.175
3024.9391	1113.475
3027.35298	1102.575
3029.76539	1110.875
3032.17632	1109.075
3034.5858	1102.475
3036.9938	1112.375
3039.40034	1113.375
3041.80542	1110.175
3044.20903	1112.075
3046.61118	1118.375
3049.01187	1118.875
3051.4111	1113.775
3053.80888	1120.075
3056.20519	1115.375
3058.60005	1109.575
3060.99345	1122.175
3063.3854	1117.775
3065.7759	1114.875
3068.16494	1109.075
3070.55254	1114.175
3072.93868	1118.675
3075.32338	1122.475
3077.70662	1118.875
3080.08842	1123.875
3082.46878	1122.375
3084.84769	1123.475
3087.22515	1132.175
3089.60118	1124.675
3091.97576	1139.575
3094.3489	1137.175
3096.72061	1135.075
3099.09087	1149.575
3101.4597	1153.575
3103.82709	1151.475
3106.19305	1161.975
3108.55757	1171.575
3110.92066	1167.275
3113.28232	1165.275
3115.64255	1166.475
3118.00134	1174.175
3120.35871	1178.075
3122.71466	1177.775
3125.06917	1176.875
3127.42226	1183.575
3129.77393	1187.875
3132.12417	1196.975
3134.47299	1200.175
3136.82039	1203.975
3139.16636	1205.275
3141.51092	1208.375
3143.85406	1219.875
3146.19579	1230.675
3148.53609	1230.575
3150.87499	1234.975
3153.21246	1237.275
3155.54853	1244.375
3157.88318	1255.975
3160.21642	1268.375
3162.54826	1269.075
3164.87868	1277.275
3167.2077	1292.175
3169.5353	1303.675
3171.86151	1297.475
3174.18631	1295.975
3176.5097	1313.375
3178.83169	1302.375
3181.15228	1310.575
3183.47147	1306.275
3185.78926	1310.275
3188.10565	1315.175
3190.42065	1323.975
3192.73424	1326.275
3195.04645	1321.075
3197.35725	1324.075
3199.66667	1338.275
3201.97469	1337.475
3204.28132	1332.275
3206.58656	1350.775
3208.8904	1345.675
3211.19287	1358.875
3213.49394	1351.775
3215.79363	1356.475
3218.09193	1373.975
3220.38884	1358.075
3222.68438	1376.275
3224.97853	1373.175
3227.2713	1372.675
3229.56269	1381.375
3231.8527	1381.275
3234.14133	1377.175
3236.42858	1378.875
3238.71446	1381.175
