Data from AgNPs_APTES_FTO_UA_100uM_CRN_0uM_R6G_10uM_Scan_RamanShift__16__12-22-43-522.txt Node

Date: Thu Jun 23 12:22:43 BST 2022
User: TCL
Spectrometer: QEP01345
Trigger mode: 4
Integration Time (sec): 7.000000E0
Scans to average: 10
Electric dark correction enabled: true
Nonlinearity correction enabled: false
Boxcar width: 0
XAxis mode: Raman Shifts
Number of Pixels in Spectrum: 1044
>>>>>Begin Spectral Data<<<<<
46.04893	0.275
50.45542	0.175
54.85868	-1.425
59.25871	0.175
63.6555	31.975
68.04907	32.475
72.43941	38.275
76.82654	39.075
81.21044	41.375
85.59113	44.875
89.96862	47.375
94.34289	47.675
98.71396	47.975
103.08183	49.375
107.4465	51.275
111.80798	48.575
116.16626	49.575
120.52136	51.775
124.87327	47.275
129.222	48.275
133.56755	51.675
137.90993	52.575
142.24913	52.075
146.58517	49.875
150.91804	51.175
155.24774	58.975
159.57429	62.775
163.89768	70.675
168.21792	83.675
172.53501	99.675
176.84895	125.675
181.15975	165.375
185.46741	223.075
189.77193	292.475
194.07331	390.275
198.37157	493.175
202.6667	609.775
206.9587	723.675
211.24758	848.175
215.53334	951.975
219.81599	1084.175
224.09553	1218.475
228.37195	1365.875
232.64527	1517.075
236.91549	1677.275
241.18261	1825.275
245.44663	1967.875
249.70755	2080.075
253.96539	2172.175
258.22014	2234.375
262.4718	2288.875
266.72039	2318.775
270.96589	2315.375
275.20832	2289.175
279.44768	2241.875
283.68397	2188.575
287.91719	2139.075
292.14735	2089.975
296.37445	2086.175
300.59849	2110.575
304.81948	2134.075
309.03742	2157.375
313.25231	2182.875
317.46415	2131.975
321.67296	2051.475
325.87872	1969.075
330.08145	1912.675
334.28114	1908.175
338.47781	1923.675
342.67145	1931.475
346.86207	1989.975
351.04966	2051.275
355.23424	2115.275
359.4158	2162.075
363.59435	2183.275
367.76989	2185.675
371.94243	2186.975
376.11196	2187.875
380.27849	2189.975
384.44203	2177.375
388.60257	2174.675
392.76012	2179.475
396.91468	2202.375
401.06626	2226.475
405.21485	2238.775
409.36047	2219.875
413.50311	2149.275
417.64277	2103.775
421.77947	2067.375
425.9132	2044.875
430.04396	2045.875
434.17176	2056.475
438.2966	2079.175
442.41849	2113.875
446.53742	2144.175
450.6534	2177.175
454.76644	2200.675
458.87653	2199.075
462.98368	2190.975
467.08789	2185.675
471.18916	2151.475
475.2875	2151.875
479.38291	2130.575
483.4754	2131.675
487.56496	2140.575
491.6516	2172.775
495.73531	2174.575
499.81612	2179.675
503.89401	2184.075
507.96899	2195.975
512.04106	2194.375
516.11023	2208.875
520.1765	2215.975
524.23987	2233.575
528.30034	2217.575
532.35792	2201.575
536.41261	2183.675
540.46441	2142.975
544.51333	2120.975
548.55936	2107.575
552.60252	2127.975
556.64279	2134.875
560.6802	2158.075
564.71473	2169.975
568.7464	2199.975
572.7752	2222.275
576.80114	2191.275
580.82422	2164.975
584.84444	2172.375
588.86181	2206.075
592.87633	2218.675
596.888	2267.875
600.89682	2308.575
604.9028	2477.375
608.90594	2910.175
612.90624	3450.675
616.90371	3373.975
620.89834	2768.975
624.89015	2459.275
628.87913	2407.775
632.86528	2443.475
636.84862	2464.075
640.82913	2413.575
644.80683	2329.975
648.78172	2241.775
652.75379	2203.275
656.72306	2220.175
660.68952	2260.275
664.65319	2246.075
668.61405	2188.475
672.57211	2177.575
676.52738	2215.575
680.47986	2257.475
684.42955	2308.975
688.37646	2341.475
692.32058	2308.575
696.26192	2245.575
700.20048	2208.975
704.13626	2193.775
708.06928	2171.775
711.99952	2148.675
715.927	2163.375
719.85171	2157.775
723.77365	2171.575
727.69284	2151.475
731.60928	2157.275
735.52295	2149.375
739.43388	2140.675
743.34206	2141.175
747.24749	2139.675
751.15017	2134.175
755.05012	2146.175
758.94733	2177.675
762.8418	2320.575
766.73354	2528.675
770.62254	2758.575
774.50882	2878.275
778.39237	2804.275
782.27321	2575.775
786.15132	2362.275
790.02671	2244.075
793.89938	2185.675
797.76935	2185.575
801.6366	2185.575
805.50115	2198.875
809.36299	2227.275
813.22213	2231.775
817.07857	2212.775
820.93231	2172.275
824.78336	2155.475
828.63172	2123.675
832.47738	2124.675
836.32036	2111.475
840.16066	2112.475
843.99827	2110.475
847.8332	2121.275
851.66546	2111.075
855.49504	2119.275
859.32195	2097.875
863.1462	2104.975
866.96777	2121.375
870.78668	2134.275
874.60293	2155.975
878.41652	2202.375
882.22745	2245.575
886.03573	2271.075
889.84136	2300.475
893.64433	2306.375
897.44466	2300.475
901.24235	2289.575
905.0374	2285.975
908.8298	2287.475
912.61957	2315.075
916.40671	2357.575
920.19121	2415.575
923.97308	2474.975
927.75233	2510.675
931.52895	2524.875
935.30295	2478.175
939.07433	2398.875
942.84309	2320.275
946.60924	2238.075
950.37278	2184.575
954.13371	2135.375
957.89203	2098.775
961.64774	2056.275
965.40086	2019.475
969.15137	1985.575
972.89929	1975.975
976.64461	1960.075
980.38733	1920.575
984.12747	1914.275
987.86502	1911.675
991.59999	1915.075
995.33237	1923.375
999.06217	1934.175
1002.78939	1954.775
1006.51404	1977.675
1010.23611	2006.375
1013.95561	2023.675
1017.67255	2026.875
1021.38692	2035.475
1025.09872	2004.775
1028.80796	1986.875
1032.51465	1966.975
1036.21877	1961.075
1039.92035	1954.975
1043.61937	1956.175
1047.31584	1942.675
1051.00976	1934.675
1054.70114	1937.275
1058.38998	1933.975
1062.07627	1929.375
1065.76003	1928.975
1069.44126	1926.175
1073.11995	1932.075
1076.79611	1963.175
1080.46974	1967.075
1084.14085	1984.375
1087.80943	1993.475
1091.47549	1995.075
1095.13903	1969.775
1098.80005	1919.275
1102.45857	1881.775
1106.11456	1874.875
1109.76805	1877.975
1113.41903	1923.675
1117.06751	1959.875
1120.71348	2034.375
1124.35696	2133.675
1127.99793	2229.975
1131.63641	2277.975
1135.2724	2254.375
1138.90589	2197.875
1142.5369	2122.375
1146.16542	2056.275
1149.79145	1990.475
1153.415	1934.375
1157.03607	1917.275
1160.65467	1915.575
1164.27079	1930.775
1167.88443	1978.975
1171.49561	2065.675
1175.10432	2202.075
1178.71056	2402.475
1182.31434	2577.475
1185.91565	2602.975
1189.51451	2552.975
1193.11091	2447.375
1196.70485	2346.675
1200.29634	2276.775
1203.88538	2204.175
1207.47197	2126.975
1211.05612	2038.375
1214.63782	1977.375
1218.21708	1937.075
1221.79391	1929.175
1225.36829	1924.775
1228.94024	1934.275
1232.50976	1918.675
1236.07685	1917.475
1239.6415	1917.175
1243.20374	1923.175
1246.76355	1936.375
1250.32093	1959.875
1253.8759	1959.675
1257.42845	1988.075
1260.97859	2034.175
1264.52631	2077.675
1268.07163	2130.075
1271.61453	2176.375
1275.15503	2194.275
1278.69312	2208.775
1282.22882	2216.475
1285.76211	2245.875
1289.29301	2310.775
1292.82151	2359.075
1296.34761	2445.775
1299.87133	2535.775
1303.39266	2677.875
1306.9116	2886.975
1310.42815	3111.275
1313.94233	3248.975
1317.45412	3188.275
1320.96354	3008.475
1324.47058	2798.875
1327.97525	2629.075
1331.47754	2518.775
1334.97747	2469.775
1338.47502	2462.075
1341.97022	2493.875
1345.46305	2622.175
1348.95352	2787.275
1352.44163	3023.675
1355.92738	3309.275
1359.41078	3678.075
1362.89183	4069.075
1366.37053	4094.775
1369.84688	3670.975
1373.32088	3167.775
1376.79254	2847.975
1380.26186	2693.175
1383.72883	2595.075
1387.19347	2517.175
1390.65578	2452.575
1394.11575	2415.875
1397.57339	2390.375
1401.0287	2347.775
1404.48168	2316.375
1407.93234	2283.475
1411.38068	2228.575
1414.82669	2215.675
1418.27039	2181.375
1421.71177	2159.875
1425.15083	2108.975
1428.58758	2076.875
1432.02203	2052.575
1435.45416	2047.475
1438.88399	2040.475
1442.31151	2014.775
1445.73673	1990.975
1449.15965	1993.775
1452.58027	1984.775
1455.9986	1963.175
1459.41463	1961.675
1462.82837	1982.875
1466.23982	1987.775
1469.64898	2005.975
1473.05586	2029.475
1476.46045	2033.675
1479.86276	2056.175
1483.26279	2076.675
1486.66054	2110.675
1490.05602	2153.075
1493.44922	2227.475
1496.84016	2344.575
1500.22882	2516.075
1503.61521	2776.675
1506.99934	3086.075
1510.38121	3362.775
1513.76081	3503.575
1517.13816	3350.875
1520.51324	3000.775
1523.88607	2642.675
1527.25665	2404.475
1530.62498	2255.275
1533.99105	2159.375
1537.35488	2103.175
1540.71647	2070.575
1544.07581	2041.975
1547.4329	2046.675
1550.78776	2049.875
1554.14038	2056.175
1557.49077	2076.475
1560.83892	2097.275
1564.18484	2140.575
1567.52853	2194.475
1570.86999	2246.375
1574.20922	2293.575
1577.54624	2290.175
1580.88103	2217.175
1584.2136	2061.375
1587.54395	1967.775
1590.87208	1921.875
1594.19801	1931.875
1597.52172	1992.175
1600.84321	2012.775
1604.16251	1985.575
1607.47959	1916.075
1610.79447	1859.375
1614.10715	1804.175
1617.41763	1759.175
1620.7259	1726.475
1624.03199	1712.675
1627.33587	1709.675
1630.63757	1712.275
1633.93707	1748.975
1637.23439	1799.275
1640.52951	1898.075
1643.82246	2056.975
1647.11321	2263.975
1650.40179	2428.775
1653.68819	2430.675
1656.97241	2225.475
1660.25446	1954.575
1663.53433	1744.475
1666.81203	1613.075
1670.08756	1534.375
1673.36092	1493.375
1676.63211	1473.175
1679.90115	1455.675
1683.16801	1431.375
1686.43272	1419.975
1689.69527	1412.975
1692.95567	1380.275
1696.2139	1344.375
1699.46999	1301.475
1702.72392	1282.475
1705.97571	1289.575
1709.22535	1290.175
1712.47284	1282.075
1715.71819	1269.975
1718.96139	1250.775
1722.20246	1242.975
1725.44139	1215.675
1728.67818	1204.175
1731.91284	1180.975
1735.14537	1179.675
1738.37576	1157.175
1741.60403	1149.275
1744.83017	1136.475
1748.05418	1128.175
1751.27607	1106.975
1754.49584	1089.575
1757.71349	1069.275
1760.92903	1048.675
1764.14244	1042.375
1767.35375	1048.375
1770.56294	1028.875
1773.77002	1043.575
1776.97499	1055.275
1780.17785	1063.675
1783.37861	1074.875
1786.57727	1072.675
1789.77382	1062.975
1792.96828	1068.975
1796.16064	1057.475
1799.3509	1053.075
1802.53907	1057.975
1805.72514	1059.875
1808.90913	1054.775
1812.09102	1036.375
1815.27083	1037.675
1818.44856	1035.675
1821.6242	1038.175
1824.79776	1044.375
1827.96924	1034.675
1831.13864	1024.675
1834.30597	1022.375
1837.47122	1010.475
1840.6344	1020.275
1843.7955	1018.175
1846.95454	1017.275
1850.11151	1008.875
1853.26642	1009.275
1856.41926	1005.675
1859.57004	1008.675
1862.71876	993.775
1865.86542	1001.475
1869.01003	991.475
1872.15258	990.375
1875.29308	993.475
1878.43152	989.475
1881.56792	980.575
1884.70227	978.075
1887.83457	979.675
1890.96482	973.675
1894.09304	975.975
1897.21921	968.875
1900.34335	964.675
1903.46544	967.475
1906.58551	961.675
1909.70353	958.675
1912.81953	960.775
1915.93349	952.675
1919.04543	954.475
1922.15534	945.175
1925.26322	945.475
1928.36908	945.975
1931.47292	944.375
1934.57473	930.475
1937.67453	924.375
1940.77232	921.075
1943.86808	921.875
1946.96184	916.975
1950.05358	908.875
1953.14331	910.775
1956.23103	906.175
1959.31675	897.375
1962.40046	896.775
1965.48217	891.575
1968.56188	895.475
1971.63959	893.875
1974.7153	887.975
1977.78901	887.375
1980.86073	881.275
1983.93046	880.175
1986.99819	868.575
1990.06394	869.975
1993.1277	871.475
1996.18947	864.075
1999.24925	861.775
2002.30706	858.775
2005.36288	847.875
2008.41672	844.275
2011.46859	841.375
2014.51848	845.375
2017.56639	832.475
2020.61233	835.875
2023.6563	831.175
2026.6983	823.875
2029.73833	826.375
2032.7764	825.075
2035.8125	818.775
2038.84664	823.975
2041.87881	812.775
2044.90903	815.275
2047.93729	817.475
2050.96359	813.475
2053.98794	820.275
2057.01034	812.075
2060.03078	807.775
2063.04927	810.675
2066.06582	815.675
2069.08042	809.075
2072.09307	808.075
2075.10378	805.575
2078.11255	797.075
2081.11938	805.675
2084.12426	803.675
2087.12722	796.475
2090.12824	801.275
2093.12732	795.275
2096.12447	797.775
2099.11969	799.775
2102.11299	796.675
2105.10435	795.975
2108.09379	795.675
2111.08131	798.975
2114.0669	797.275
2117.05057	798.275
2120.03233	791.475
2123.01216	795.775
2125.99008	793.675
2128.96609	791.575
2131.94018	791.975
2134.91236	782.275
2137.88263	786.675
2140.851	786.675
2143.81746	778.375
2146.78201	778.475
2149.74466	779.775
2152.7054	776.475
2155.66425	770.575
2158.6212	769.275
2161.57625	765.075
2164.52941	761.875
2167.48067	758.375
2170.43004	765.275
2173.37752	760.875
2176.32311	760.475
2179.26681	760.575
2182.20863	761.375
2185.14856	755.875
2188.08661	761.875
2191.02278	755.375
2193.95707	750.875
2196.88948	755.075
2199.82001	743.975
2202.74867	744.775
2205.67545	748.075
2208.60037	745.775
2211.52341	736.975
2214.44458	734.275
2217.36388	733.175
2220.28132	742.475
2223.1969	731.375
2226.11061	723.675
2229.02246	719.275
2231.93245	722.975
2234.84058	720.375
2237.74686	721.275
2240.65128	711.475
2243.55385	711.975
2246.45456	713.375
2249.35343	709.075
2252.25044	708.875
2255.14561	706.475
2258.03893	699.575
2260.93041	691.775
2263.82004	692.675
2266.70783	695.175
2269.59378	695.575
2272.4779	694.075
2275.36017	699.275
2278.24061	696.875
2281.11922	687.775
2283.996	687.475
2286.87094	683.675
2289.74405	685.275
2292.61534	684.775
2295.4848	675.375
2298.35243	683.475
2301.21824	679.175
2304.08223	674.675
2306.94439	675.075
2309.80474	675.475
2312.66327	667.075
2315.51999	672.775
2318.37489	663.775
2321.22797	662.675
2324.07925	666.775
2326.92871	664.775
2329.77637	659.575
2332.62222	664.075
2335.46626	651.075
2338.3085	648.475
2341.14893	648.675
2343.98756	638.975
2346.8244	640.875
2349.65943	641.875
2352.49267	639.375
2355.32411	647.975
2358.15376	641.375
2360.98161	652.375
2363.80768	645.775
2366.63195	644.475
2369.45444	648.775
2372.27514	644.775
2375.09405	643.675
2377.91118	642.475
2380.72652	634.775
2383.54009	630.775
2386.35187	637.675
2389.16188	622.875
2391.97011	627.775
2394.77657	628.475
2397.58125	619.875
2400.38416	621.075
2403.18529	617.875
2405.98466	608.775
2408.78226	614.875
2411.57809	609.175
2414.37216	605.775
2417.16446	611.975
2419.955	606.375
2422.74378	603.975
2425.5308	601.175
2428.31606	601.075
2431.09956	599.775
2433.88131	602.675
2436.6613	599.475
2439.43954	603.275
2442.21603	597.875
2444.99077	595.175
2447.76377	594.275
2450.53501	594.975
2453.30451	593.275
2456.07226	593.675
2458.83827	591.975
2461.60254	595.675
2464.36507	590.675
2467.12586	588.675
2469.88492	583.875
2472.64224	585.375
2475.39782	578.775
2478.15167	579.475
2480.90379	578.475
2483.65417	575.875
2486.40283	583.675
2489.14976	575.475
2491.89497	583.975
2494.63845	578.275
2497.3802	572.175
2500.12024	576.475
2502.85855	574.275
2505.59514	571.575
2508.33002	571.675
2511.06318	568.275
2513.79462	566.475
2516.52435	565.175
2519.25237	565.475
2521.97867	563.275
2524.70327	559.375
2527.42616	555.875
2530.14734	555.975
2532.86681	559.275
2535.58458	552.975
2538.30065	549.675
2541.01501	555.875
2543.72768	556.075
2546.43864	550.775
2549.14791	554.275
2551.85548	546.675
2554.56136	543.975
2557.26554	542.575
2559.96803	537.875
2562.66883	542.675
2565.36794	541.575
2568.06536	538.475
2570.7611	537.275
2573.45514	535.675
2576.14751	531.075
2578.83819	536.275
2581.52719	533.175
2584.21451	529.875
2586.90015	528.975
2589.58411	529.175
2592.2664	531.275
2594.94701	526.275
2597.62594	522.475
2600.30321	524.975
2602.9788	526.275
2605.65273	521.975
2608.32498	518.275
2610.99557	518.075
2613.66449	518.675
2616.33175	518.175
2618.99734	515.275
2621.66128	515.575
2624.32355	512.075
2626.98416	506.075
2629.64311	505.875
2632.30041	517.275
2634.95605	509.475
2637.61004	507.075
2640.26238	508.175
2642.91306	503.175
2645.56209	502.375
2648.20948	499.475
2650.85521	501.575
2653.4993	505.075
2656.14175	504.975
2658.78255	504.375
2661.42171	504.475
2664.05923	498.875
2666.6951	501.975
2669.32934	504.575
2671.96194	505.275
2674.59291	499.175
2677.22224	500.775
2679.84993	503.175
2682.476	496.775
2685.10043	498.375
2687.72324	498.475
2690.34441	500.075
2692.96396	499.075
2695.58188	501.475
2698.19818	498.375
2700.81285	494.175
2703.4259	476.175
2706.03733	437.775
2708.64714	460.075
2711.25533	484.975
2713.86191	486.475
2716.46687	492.375
2719.07021	492.875
2721.67194	499.275
2724.27206	495.275
2726.87057	493.575
2729.46747	496.175
2732.06276	494.375
2734.65644	497.175
2737.24852	496.775
2739.83899	499.675
2742.42786	495.575
2745.01513	486.275
2747.60079	485.575
2750.18486	492.475
2752.76733	492.375
2755.3482	485.075
2757.92747	486.075
2760.50515	489.275
2763.08123	487.875
2765.65573	487.675
2768.22863	482.075
2770.79994	478.475
2773.36967	480.775
2775.9378	478.675
2778.50435	480.675
2781.06932	480.675
2783.6327	477.975
2786.1945	478.575
2788.75471	478.675
2791.31335	475.975
2793.87041	474.275
2796.42589	471.975
2798.97979	476.875
2801.53212	467.875
2804.08288	472.275
2806.63206	475.975
2809.17967	471.575
2811.72571	472.675
2814.27018	469.375
2816.81308	468.675
2819.35442	468.275
2821.89419	467.675
2824.43239	469.075
2826.96904	465.575
2829.50412	469.075
2832.03763	469.875
2834.56959	463.075
2837.1	465.075
2839.62884	464.675
2842.15613	465.675
2844.68186	468.875
2847.20604	475.275
2849.72867	471.375
2852.24974	475.175
2854.76927	470.075
2857.28724	462.175
2859.80367	470.075
2862.31855	469.975
2864.83189	473.075
2867.34368	469.275
2869.85393	478.275
2872.36264	480.375
2874.8698	481.975
2877.37543	476.875
2879.87952	483.375
2882.38207	482.475
2884.88308	479.675
2887.38256	477.175
2889.88051	481.175
2892.37692	482.675
2894.8718	488.575
2897.36515	490.275
2899.85698	485.775
2902.34727	490.675
2904.83604	500.075
2907.32328	501.875
2909.809	505.675
2912.29319	506.675
2914.77587	512.275
2917.25702	518.975
2919.73665	517.875
2922.21476	517.075
2924.69136	520.375
2927.16644	520.775
2929.64	521.175
2932.11205	522.575
2934.58258	519.475
2937.05161	511.175
2939.51912	512.675
2941.98513	514.275
2944.44962	508.375
2946.91261	507.675
2949.37409	498.575
2951.83407	499.675
2954.29254	493.275
2956.74951	490.875
2959.20498	486.675
2961.65895	491.775
2964.11142	486.975
2966.56239	484.675
2969.01186	485.075
2971.45984	486.775
2973.90632	479.175
2976.35131	475.775
2978.7948	468.875
2981.23681	477.475
2983.67732	474.875
2986.11635	471.875
2988.55388	473.375
2990.98993	466.975
2993.4245	472.275
2995.85758	477.275
2998.28917	466.175
3000.71928	463.875
3003.14791	468.375
3005.57506	465.775
3008.00073	474.875
3010.42493	477.375
3012.84764	476.275
3015.26888	472.475
3017.68865	476.075
3020.10694	474.875
3022.52376	479.275
3024.9391	475.775
3027.35298	478.175
3029.76539	480.475
3032.17632	480.475
3034.5858	479.175
3036.9938	484.675
3039.40034	486.775
3041.80542	482.475
3044.20903	484.675
3046.61118	480.275
3049.01187	491.975
3051.4111	494.075
3053.80888	496.175
3056.20519	497.175
3058.60005	495.575
3060.99345	500.075
3063.3854	496.275
3065.7759	500.575
3068.16494	506.275
3070.55254	505.375
3072.93868	512.475
3075.32338	510.075
3077.70662	510.375
3080.08842	510.075
3082.46878	517.375
3084.84769	521.775
3087.22515	522.875
3089.60118	523.875
3091.97576	528.475
3094.3489	535.275
3096.72061	540.575
3099.09087	544.975
3101.4597	550.975
3103.82709	551.675
3106.19305	556.675
3108.55757	562.675
3110.92066	561.175
3113.28232	568.275
3115.64255	567.375
3118.00134	579.375
3120.35871	580.275
3122.71466	588.275
3125.06917	589.375
3127.42226	585.175
3129.77393	597.375
3132.12417	594.775
3134.47299	608.075
3136.82039	611.875
3139.16636	623.775
3141.51092	619.875
3143.85406	633.175
3146.19579	633.875
3148.53609	636.475
3150.87499	644.275
3153.21246	646.575
3155.54853	657.675
3157.88318	667.775
3160.21642	669.375
3162.54826	676.475
3164.87868	683.675
3167.2077	685.675
3169.5353	689.975
3171.86151	701.075
3174.18631	703.375
3176.5097	715.275
3178.83169	717.975
3181.15228	718.075
3183.47147	716.675
3185.78926	734.575
3188.10565	729.275
3190.42065	737.875
3192.73424	741.975
3195.04645	741.575
3197.35725	747.475
3199.66667	755.975
3201.97469	756.775
3204.28132	754.275
3206.58656	765.475
3208.8904	772.175
3211.19287	772.275
3213.49394	782.675
3215.79363	775.575
3218.09193	780.875
3220.38884	771.475
3222.68438	771.975
3224.97853	780.475
3227.2713	789.875
3229.56269	792.375
3231.8527	797.075
3234.14133	796.875
3236.42858	797.875
3238.71446	800.275
3240.99896	801.175
3243.28209	800.875
3245.56384	796.575
3247.84423	797.775
3250.12324	795.675
3252.40088	804.375
3254.67715	810.075
3256.95205	804.075
3259.22558	806.575
3261.49775	807.975
3263.76855	807.275
3266.03799	806.875
3268.30606	811.375
3270.57277	808.675
3272.83812	804.175
3275.10211	798.475
3277.36474	799.875
3279.62601	803.675
3281.88593	806.775
3284.14448	805.275
3286.40168	799.675
3288.65753	805.375
3290.91202	804.975
3293.16516	800.775
3295.41695	798.175
3297.66738	798.175
3299.91647	797.675
