Data from AgNPs_APTES_FTO_UA_100uM_CRN_0uM_R6G_10uM_Scan_RamanShift__19__12-26-13-526.txt Node

Date: Thu Jun 23 12:26:13 BST 2022
User: TCL
Spectrometer: QEP01345
Trigger mode: 4
Integration Time (sec): 7.000000E0
Scans to average: 10
Electric dark correction enabled: true
Nonlinearity correction enabled: false
Boxcar width: 0
XAxis mode: Raman Shifts
Number of Pixels in Spectrum: 1044
>>>>>Begin Spectral Data<<<<<
46.04893	-0.125
50.45542	0.775
54.85868	-0.925
59.25871	-0.725
63.6555	27.375
68.04907	30.375
72.43941	37.975
76.82654	38.775
81.21044	41.175
85.59113	41.975
89.96862	44.775
94.34289	46.475
98.71396	45.675
103.08183	43.475
107.4465	45.275
111.80798	46.075
116.16626	49.375
120.52136	50.775
124.87327	46.975
129.222	46.175
133.56755	50.475
137.90993	51.075
142.24913	49.475
146.58517	48.275
150.91804	48.375
155.24774	55.475
159.57429	54.475
163.89768	66.375
168.21792	76.875
172.53501	93.675
176.84895	113.275
181.15975	152.975
185.46741	205.675
189.77193	271.875
194.07331	352.175
198.37157	454.275
202.6667	552.975
206.9587	663.775
211.24758	762.175
215.53334	863.975
219.81599	977.475
224.09553	1092.675
228.37195	1221.775
232.64527	1350.875
236.91549	1493.475
241.18261	1618.975
245.44663	1755.075
249.70755	1852.975
253.96539	1929.875
258.22014	2009.575
262.4718	2049.075
266.72039	2071.875
270.96589	2076.475
275.20832	2056.075
279.44768	2013.675
283.68397	1965.975
287.91719	1915.175
292.14735	1898.475
296.37445	1889.275
300.59849	1901.675
304.81948	1923.775
309.03742	1938.375
313.25231	1940.775
317.46415	1889.675
321.67296	1828.875
325.87872	1768.975
330.08145	1726.275
334.28114	1722.675
338.47781	1728.575
342.67145	1742.875
346.86207	1785.275
351.04966	1827.775
355.23424	1887.475
359.4158	1928.375
363.59435	1944.975
367.76989	1966.975
371.94243	1968.775
376.11196	1977.475
380.27849	1992.675
384.44203	1990.075
388.60257	1994.575
392.76012	1997.375
396.91468	2001.075
401.06626	2028.575
405.21485	2037.775
409.36047	2013.475
413.50311	1968.375
417.64277	1915.475
421.77947	1884.975
425.9132	1877.275
430.04396	1868.775
434.17176	1883.675
438.2966	1895.975
442.41849	1932.775
446.53742	1964.675
450.6534	1987.275
454.76644	2008.575
458.87653	2004.275
462.98368	2005.375
467.08789	1993.675
471.18916	1981.675
475.2875	1974.575
479.38291	1970.175
483.4754	1969.375
487.56496	1974.075
491.6516	1999.075
495.73531	2009.275
499.81612	2015.675
503.89401	2017.975
507.96899	2017.075
512.04106	2027.275
516.11023	2027.975
520.1765	2036.175
524.23987	2058.875
528.30034	2048.775
532.35792	2033.475
536.41261	2009.575
540.46441	1985.175
544.51333	1958.975
548.55936	1959.775
552.60252	1965.375
556.64279	1977.275
560.6802	1977.275
564.71473	1988.375
568.7464	2005.875
572.7752	2016.475
576.80114	2002.675
580.82422	1987.475
584.84444	2002.575
588.86181	2022.675
592.87633	2048.875
596.888	2068.975
600.89682	2107.075
604.9028	2241.375
608.90594	2594.675
612.90624	3016.375
616.90371	2953.275
620.89834	2492.875
624.89015	2253.775
628.87913	2263.175
632.86528	2290.575
636.84862	2334.275
640.82913	2298.275
644.80683	2202.875
648.78172	2109.975
652.75379	2069.175
656.72306	2079.975
660.68952	2094.575
664.65319	2062.875
668.61405	2025.975
672.57211	2026.375
676.52738	2047.075
680.47986	2087.675
684.42955	2129.775
688.37646	2144.675
692.32058	2112.175
696.26192	2067.975
700.20048	2023.375
704.13626	2005.775
708.06928	1991.575
711.99952	1983.475
715.927	1979.775
719.85171	2000.075
723.77365	2002.075
727.69284	2002.275
731.60928	1995.575
735.52295	1989.375
739.43388	1980.575
743.34206	1974.475
747.24749	1981.275
751.15017	1968.075
755.05012	1975.375
758.94733	2004.875
762.8418	2109.775
766.73354	2296.675
770.62254	2483.575
774.50882	2571.175
778.39237	2538.075
782.27321	2343.575
786.15132	2161.175
790.02671	2057.875
793.89938	2020.075
797.76935	2003.575
801.6366	2019.975
805.50115	2042.375
809.36299	2073.875
813.22213	2072.875
817.07857	2061.675
820.93231	2022.775
824.78336	1989.475
828.63172	1965.475
832.47738	1956.175
836.32036	1949.475
840.16066	1951.675
843.99827	1945.175
847.8332	1958.875
851.66546	1952.375
855.49504	1942.375
859.32195	1941.775
863.1462	1935.875
866.96777	1951.575
870.78668	1963.175
874.60293	2007.775
878.41652	2037.075
882.22745	2073.575
886.03573	2110.275
889.84136	2128.375
893.64433	2134.675
897.44466	2113.675
901.24235	2073.875
905.0374	2051.875
908.8298	2065.475
912.61957	2074.975
916.40671	2121.575
920.19121	2150.475
923.97308	2189.775
927.75233	2221.775
931.52895	2240.075
935.30295	2202.375
939.07433	2138.075
942.84309	2082.875
946.60924	2030.475
950.37278	1984.975
954.13371	1937.775
957.89203	1899.775
961.64774	1873.575
965.40086	1835.375
969.15137	1814.375
972.89929	1800.175
976.64461	1774.075
980.38733	1772.475
984.12747	1769.675
987.86502	1763.275
991.59999	1751.375
995.33237	1767.075
999.06217	1777.475
1002.78939	1807.575
1006.51404	1820.275
1010.23611	1843.875
1013.95561	1864.875
1017.67255	1869.875
1021.38692	1868.875
1025.09872	1850.475
1028.80796	1824.275
1032.51465	1811.375
1036.21877	1795.275
1039.92035	1798.575
1043.61937	1785.575
1047.31584	1788.575
1051.00976	1773.775
1054.70114	1782.175
1058.38998	1776.675
1062.07627	1769.275
1065.76003	1778.275
1069.44126	1779.375
1073.11995	1793.475
1076.79611	1794.075
1080.46974	1813.875
1084.14085	1812.575
1087.80943	1807.275
1091.47549	1810.275
1095.13903	1796.875
1098.80005	1755.175
1102.45857	1736.475
1106.11456	1721.675
1109.76805	1727.175
1113.41903	1759.975
1117.06751	1802.975
1120.71348	1867.175
1124.35696	1956.575
1127.99793	2046.175
1131.63641	2106.175
1135.2724	2109.075
1138.90589	2061.075
1142.5369	1999.375
1146.16542	1912.375
1149.79145	1841.475
1153.415	1805.175
1157.03607	1764.775
1160.65467	1750.275
1164.27079	1761.075
1167.88443	1799.675
1171.49561	1869.575
1175.10432	1975.675
1178.71056	2138.175
1182.31434	2282.575
1185.91565	2316.975
1189.51451	2286.075
1193.11091	2209.175
1196.70485	2136.675
1200.29634	2081.975
1203.88538	2031.975
1207.47197	1951.075
1211.05612	1887.475
1214.63782	1824.275
1218.21708	1787.875
1221.79391	1765.975
1225.36829	1764.775
1228.94024	1757.775
1232.50976	1752.575
1236.07685	1743.675
1239.6415	1739.175
1243.20374	1756.175
1246.76355	1762.575
1250.32093	1767.275
1253.8759	1782.675
1257.42845	1805.275
1260.97859	1829.475
1264.52631	1871.075
1268.07163	1909.575
1271.61453	1942.775
1275.15503	1964.875
1278.69312	1970.075
1282.22882	1978.675
1285.76211	2002.375
1289.29301	2058.775
1292.82151	2106.575
1296.34761	2165.475
1299.87133	2248.275
1303.39266	2348.375
1306.9116	2516.075
1310.42815	2692.375
1313.94233	2779.675
1317.45412	2738.875
1320.96354	2610.075
1324.47058	2444.975
1327.97525	2333.675
1331.47754	2240.975
1334.97747	2206.375
1338.47502	2212.275
1341.97022	2254.675
1345.46305	2349.975
1348.95352	2489.475
1352.44163	2690.875
1355.92738	2899.875
1359.41078	3216.375
1362.89183	3516.875
1366.37053	3504.675
1369.84688	3153.175
1373.32088	2785.375
1376.79254	2535.775
1380.26186	2400.775
1383.72883	2310.275
1387.19347	2247.775
1390.65578	2194.975
1394.11575	2157.275
1397.57339	2116.775
1401.0287	2091.075
1404.48168	2050.375
1407.93234	2014.375
1411.38068	1975.875
1414.82669	1944.675
1418.27039	1914.475
1421.71177	1892.875
1425.15083	1855.975
1428.58758	1828.575
1432.02203	1812.675
1435.45416	1793.475
1438.88399	1792.275
1442.31151	1778.675
1445.73673	1763.875
1449.15965	1753.975
1452.58027	1758.775
1455.9986	1747.475
1459.41463	1745.475
1462.82837	1746.775
1466.23982	1765.375
1469.64898	1782.475
1473.05586	1805.075
1476.46045	1808.875
1479.86276	1813.775
1483.26279	1828.275
1486.66054	1866.275
1490.05602	1898.775
1493.44922	1963.575
1496.84016	2056.375
1500.22882	2200.975
1503.61521	2414.475
1506.99934	2652.175
1510.38121	2874.875
1513.76081	2947.275
1517.13816	2824.875
1520.51324	2557.475
1523.88607	2277.175
1527.25665	2088.575
1530.62498	1985.175
1533.99105	1914.575
1537.35488	1876.975
1540.71647	1864.475
1544.07581	1846.475
1547.4329	1829.875
1550.78776	1852.575
1554.14038	1851.275
1557.49077	1872.575
1560.83892	1883.575
1564.18484	1910.075
1567.52853	1960.375
1570.86999	2013.875
1574.20922	2041.575
1577.54624	2034.475
1580.88103	1969.975
1584.2136	1865.975
1587.54395	1786.075
1590.87208	1737.975
1594.19801	1758.475
1597.52172	1788.575
1600.84321	1812.975
1604.16251	1789.975
1607.47959	1746.475
1610.79447	1697.675
1614.10715	1652.075
1617.41763	1620.575
1620.7259	1596.175
1624.03199	1577.375
1627.33587	1572.375
1630.63757	1579.175
1633.93707	1617.175
1637.23439	1637.475
1640.52951	1717.475
1643.82246	1837.275
1647.11321	2000.275
1650.40179	2121.075
1653.68819	2098.775
1656.97241	1958.075
1660.25446	1735.775
1663.53433	1579.275
1666.81203	1473.875
1670.08756	1406.875
1673.36092	1378.875
1676.63211	1363.075
1679.90115	1358.975
1683.16801	1334.375
1686.43272	1318.475
1689.69527	1301.175
1692.95567	1277.475
1696.2139	1240.675
1699.46999	1201.875
1702.72392	1168.075
1705.97571	1184.675
1709.22535	1182.375
1712.47284	1180.675
1715.71819	1170.075
1718.96139	1150.675
1722.20246	1138.475
1725.44139	1118.575
1728.67818	1104.075
1731.91284	1091.875
1735.14537	1075.175
1738.37576	1063.475
1741.60403	1056.675
1744.83017	1044.475
1748.05418	1027.075
1751.27607	1013.175
1754.49584	1000.475
1757.71349	972.675
1760.92903	952.675
1764.14244	950.675
1767.35375	955.775
1770.56294	946.075
1773.77002	947.975
1776.97499	964.975
1780.17785	979.675
1783.37861	978.475
1786.57727	983.475
1789.77382	985.775
1792.96828	985.575
1796.16064	975.275
1799.3509	975.375
1802.53907	969.675
1805.72514	971.875
1808.90913	965.775
1812.09102	956.075
1815.27083	951.875
1818.44856	961.375
1821.6242	950.175
1824.79776	951.075
1827.96924	945.775
1831.13864	943.075
1834.30597	934.975
1837.47122	935.775
1840.6344	930.175
1843.7955	940.575
1846.95454	932.075
1850.11151	933.975
1853.26642	931.675
1856.41926	929.375
1859.57004	925.075
1862.71876	925.575
1865.86542	912.975
1869.01003	921.075
1872.15258	909.075
1875.29308	915.575
1878.43152	913.275
1881.56792	906.775
1884.70227	892.475
1887.83457	896.475
1890.96482	901.275
1894.09304	894.575
1897.21921	898.075
1900.34335	887.175
1903.46544	885.675
1906.58551	880.875
1909.70353	884.875
1912.81953	886.675
1915.93349	877.175
1919.04543	877.875
1922.15534	874.775
1925.26322	870.875
1928.36908	873.175
1931.47292	860.175
1934.57473	863.675
1937.67453	854.775
1940.77232	850.475
1943.86808	850.375
1946.96184	843.675
1950.05358	841.575
1953.14331	834.275
1956.23103	834.175
1959.31675	822.775
1962.40046	830.175
1965.48217	823.975
1968.56188	823.575
1971.63959	820.375
1974.7153	813.175
1977.78901	816.575
1980.86073	809.275
1983.93046	810.775
1986.99819	801.875
1990.06394	801.075
1993.1277	802.075
1996.18947	789.875
1999.24925	786.375
2002.30706	786.175
2005.36288	780.675
2008.41672	778.375
2011.46859	773.775
2014.51848	781.775
2017.56639	775.475
2020.61233	769.875
2023.6563	758.875
2026.6983	766.075
2029.73833	755.575
2032.7764	752.075
2035.8125	757.675
2038.84664	751.475
2041.87881	754.475
2044.90903	747.875
2047.93729	749.375
2050.96359	754.475
2053.98794	743.075
2057.01034	740.375
2060.03078	740.675
2063.04927	750.175
2066.06582	745.675
2069.08042	743.975
2072.09307	747.475
2075.10378	736.375
2078.11255	736.875
2081.11938	737.775
2084.12426	735.875
2087.12722	735.475
2090.12824	736.075
2093.12732	729.775
2096.12447	733.975
2099.11969	731.075
2102.11299	724.575
2105.10435	732.175
2108.09379	728.575
2111.08131	733.775
2114.0669	726.975
2117.05057	726.775
2120.03233	726.075
2123.01216	724.575
2125.99008	730.575
2128.96609	725.175
2131.94018	723.375
2134.91236	720.475
2137.88263	725.675
2140.851	717.975
2143.81746	717.175
2146.78201	712.275
2149.74466	712.675
2152.7054	710.475
2155.66425	710.675
2158.6212	715.275
2161.57625	704.675
2164.52941	705.075
2167.48067	700.575
2170.43004	709.775
2173.37752	707.375
2176.32311	704.475
2179.26681	700.275
2182.20863	700.875
2185.14856	698.475
2188.08661	694.975
2191.02278	687.375
2193.95707	691.175
2196.88948	694.275
2199.82001	692.075
2202.74867	683.375
2205.67545	689.275
2208.60037	681.375
2211.52341	678.175
2214.44458	683.975
2217.36388	672.875
2220.28132	677.075
2223.1969	671.175
2226.11061	664.575
2229.02246	660.775
2231.93245	662.775
2234.84058	661.075
2237.74686	663.675
2240.65128	661.375
2243.55385	661.875
2246.45456	652.575
2249.35343	650.675
2252.25044	649.275
2255.14561	648.775
2258.03893	645.275
2260.93041	634.475
2263.82004	636.675
2266.70783	642.575
2269.59378	641.575
2272.4779	639.775
2275.36017	638.875
2278.24061	634.375
2281.11922	630.175
2283.996	631.175
2286.87094	629.375
2289.74405	631.875
2292.61534	627.875
2295.4848	621.475
2298.35243	627.075
2301.21824	621.775
2304.08223	620.175
2306.94439	622.175
2309.80474	616.375
2312.66327	620.075
2315.51999	613.375
2318.37489	612.675
2321.22797	608.575
2324.07925	607.375
2326.92871	605.275
2329.77637	605.575
2332.62222	606.775
2335.46626	598.375
2338.3085	599.475
2341.14893	595.775
2343.98756	598.875
2346.8244	593.775
2349.65943	592.575
2352.49267	590.175
2355.32411	596.975
2358.15376	590.175
2360.98161	596.575
2363.80768	587.075
2366.63195	592.375
2369.45444	588.475
2372.27514	589.975
2375.09405	593.375
2377.91118	585.175
2380.72652	583.275
2383.54009	584.375
2386.35187	582.175
2389.16188	571.675
2391.97011	573.375
2394.77657	577.075
2397.58125	574.475
2400.38416	566.475
2403.18529	569.875
2405.98466	564.175
2408.78226	565.675
2411.57809	556.275
2414.37216	558.375
2417.16446	556.975
2419.955	555.075
2422.74378	557.875
2425.5308	551.575
2428.31606	550.775
2431.09956	555.875
2433.88131	548.675
2436.6613	553.575
2439.43954	547.575
2442.21603	549.775
2444.99077	543.075
2447.76377	545.975
2450.53501	550.175
2453.30451	547.875
2456.07226	545.575
2458.83827	542.675
2461.60254	540.375
2464.36507	536.275
2467.12586	540.675
2469.88492	537.775
2472.64224	541.375
2475.39782	529.675
2478.15167	528.675
2480.90379	527.975
2483.65417	532.075
2486.40283	532.475
2489.14976	536.975
2491.89497	536.675
2494.63845	522.175
2497.3802	524.375
2500.12024	522.875
2502.85855	528.175
2505.59514	524.275
2508.33002	526.575
2511.06318	526.375
2513.79462	521.075
2516.52435	520.175
2519.25237	513.575
2521.97867	511.075
2524.70327	513.575
2527.42616	504.675
2530.14734	508.775
2532.86681	503.775
2535.58458	504.375
2538.30065	505.275
2541.01501	509.175
2543.72768	498.575
2546.43864	504.075
2549.14791	509.075
2551.85548	503.475
2554.56136	501.675
2557.26554	498.675
2559.96803	499.375
2562.66883	495.875
2565.36794	494.275
2568.06536	496.375
2570.7611	495.375
2573.45514	489.175
2576.14751	488.175
2578.83819	486.275
2581.52719	494.075
2584.21451	487.575
2586.90015	483.775
2589.58411	479.875
2592.2664	491.275
2594.94701	483.675
2597.62594	476.275
2600.30321	482.975
2602.9788	477.975
2605.65273	474.275
2608.32498	474.075
2610.99557	476.475
2613.66449	471.375
2616.33175	473.775
2618.99734	468.675
2621.66128	469.375
2624.32355	470.175
2626.98416	465.975
2629.64311	467.975
2632.30041	469.675
2634.95605	470.375
2637.61004	464.675
2640.26238	463.575
2642.91306	462.675
2645.56209	460.875
2648.20948	460.575
2650.85521	466.175
2653.4993	460.475
2656.14175	458.675
2658.78255	454.575
2661.42171	463.075
2664.05923	456.475
2666.6951	461.775
2669.32934	464.575
2671.96194	461.875
2674.59291	455.375
2677.22224	463.675
2679.84993	454.375
2682.476	455.375
2685.10043	460.675
2687.72324	452.375
2690.34441	453.475
2692.96396	458.375
2695.58188	455.875
2698.19818	458.475
2700.81285	453.975
2703.4259	436.375
2706.03733	392.675
2708.64714	421.075
2711.25533	444.475
2713.86191	442.275
2716.46687	445.175
2719.07021	446.875
2721.67194	458.975
2724.27206	460.375
2726.87057	451.475
2729.46747	455.575
2732.06276	454.375
2734.65644	457.875
2737.24852	456.675
2739.83899	456.575
2742.42786	453.975
2745.01513	449.075
2747.60079	448.575
2750.18486	449.975
2752.76733	451.375
2755.3482	446.475
2757.92747	449.375
2760.50515	447.175
2763.08123	442.375
2765.65573	448.875
2768.22863	446.175
2770.79994	442.075
2773.36967	436.775
2775.9378	442.075
2778.50435	445.175
2781.06932	442.275
2783.6327	439.075
2786.1945	440.875
2788.75471	442.375
2791.31335	441.275
2793.87041	438.075
2796.42589	433.375
2798.97979	440.775
2801.53212	435.275
2804.08288	432.575
2806.63206	434.975
2809.17967	432.475
2811.72571	430.775
2814.27018	435.975
2816.81308	431.975
2819.35442	431.575
2821.89419	430.475
2824.43239	425.775
2826.96904	427.275
2829.50412	427.375
2832.03763	432.775
2834.56959	429.275
2837.1	429.775
2839.62884	428.675
2842.15613	426.675
2844.68186	440.775
2847.20604	437.675
2849.72867	437.175
2852.24974	440.775
2854.76927	430.275
2857.28724	420.275
2859.80367	429.375
2862.31855	437.575
2864.83189	433.575
2867.34368	432.475
2869.85393	437.975
2872.36264	442.375
2874.8698	440.975
2877.37543	438.275
2879.87952	449.375
2882.38207	437.275
2884.88308	436.975
2887.38256	442.675
2889.88051	445.175
2892.37692	448.775
2894.8718	449.275
2897.36515	452.775
2899.85698	454.775
2902.34727	450.775
2904.83604	456.175
2907.32328	462.875
2909.809	462.775
2912.29319	469.275
2914.77587	466.775
2917.25702	475.375
2919.73665	476.775
2922.21476	477.475
2924.69136	478.675
2927.16644	478.375
2929.64	473.875
2932.11205	476.275
2934.58258	477.775
2937.05161	478.075
2939.51912	469.475
2941.98513	474.075
2944.44962	469.075
2946.91261	463.775
2949.37409	464.075
2951.83407	463.275
2954.29254	458.975
2956.74951	456.275
2959.20498	455.675
2961.65895	443.075
2964.11142	440.675
2966.56239	453.175
2969.01186	447.375
2971.45984	443.775
2973.90632	443.375
2976.35131	442.775
2978.7948	438.175
2981.23681	440.375
2983.67732	442.675
2986.11635	435.975
2988.55388	436.875
2990.98993	443.675
2993.4245	438.075
2995.85758	443.075
2998.28917	435.475
3000.71928	434.075
3003.14791	438.875
3005.57506	434.975
3008.00073	437.575
3010.42493	445.375
3012.84764	444.475
3015.26888	440.775
3017.68865	441.975
3020.10694	443.875
3022.52376	449.475
3024.9391	445.875
3027.35298	446.475
3029.76539	445.875
3032.17632	445.775
3034.5858	452.275
3036.9938	456.475
3039.40034	455.875
3041.80542	454.675
3044.20903	453.575
3046.61118	452.675
3049.01187	464.775
3051.4111	461.675
3053.80888	468.175
3056.20519	467.275
3058.60005	463.275
3060.99345	471.775
3063.3854	470.875
3065.7759	472.875
3068.16494	478.475
3070.55254	476.575
3072.93868	476.475
3075.32338	482.375
3077.70662	487.675
3080.08842	494.275
3082.46878	494.675
3084.84769	496.275
3087.22515	498.475
3089.60118	503.675
3091.97576	503.575
3094.3489	506.875
3096.72061	512.275
3099.09087	515.575
3101.4597	515.675
3103.82709	521.475
3106.19305	528.475
3108.55757	536.975
3110.92066	537.275
3113.28232	537.575
3115.64255	544.975
3118.00134	553.375
3120.35871	552.375
3122.71466	557.375
3125.06917	560.475
3127.42226	563.475
3129.77393	573.775
3132.12417	573.275
3134.47299	585.675
3136.82039	585.475
3139.16636	595.875
3141.51092	601.875
3143.85406	606.175
3146.19579	606.075
3148.53609	611.975
3150.87499	618.875
3153.21246	626.375
3155.54853	633.075
3157.88318	642.775
3160.21642	640.875
3162.54826	652.575
3164.87868	661.675
3167.2077	661.275
3169.5353	674.875
3171.86151	682.075
3174.18631	678.875
3176.5097	691.875
3178.83169	695.775
3181.15228	694.575
3183.47147	699.375
3185.78926	703.175
3188.10565	710.975
3190.42065	714.575
3192.73424	725.375
3195.04645	724.475
3197.35725	721.575
3199.66667	730.275
3201.97469	733.575
3204.28132	738.775
3206.58656	751.075
3208.8904	749.975
3211.19287	747.675
3213.49394	754.975
3215.79363	757.475
3218.09193	763.675
3220.38884	753.875
3222.68438	746.475
3224.97853	761.375
3227.2713	760.875
3229.56269	777.875
3231.8527	773.675
3234.14133	776.075
3236.42858	777.075
3238.71446	777.775
3240.99896	789.775
3243.28209	783.175
3245.56384	785.775
3247.84423	784.975
3250.12324	784.875
3252.40088	782.175
3254.67715	792.775
3256.95205	778.075
3259.22558	783.275
3261.49775	786.375
3263.76855	786.575
3266.03799	794.975
3268.30606	789.275
3270.57277	792.275
3272.83812	787.275
3275.10211	781.075
3277.36474	781.975
3279.62601	787.275
3281.88593	785.575
3284.14448	792.375
3286.40168	784.075
3288.65753	778.675
3290.91202	787.875
3293.16516	784.175
3295.41695	785.275
3297.66738	779.075
3299.91647	779.675
3302.16421	781.475
3304.4106	769.775
