Data from AgNPs_APTES_FTO_UA_100uM_CRN_0uM_R6G_10uM_Scan_RamanShift__14__12-20-23-519.txt Node

Date: Thu Jun 23 12:20:23 BST 2022
User: TCL
Spectrometer: QEP01345
Trigger mode: 4
Integration Time (sec): 7.000000E0
Scans to average: 10
Electric dark correction enabled: true
Nonlinearity correction enabled: false
Boxcar width: 0
XAxis mode: Raman Shifts
Number of Pixels in Spectrum: 1044
>>>>>Begin Spectral Data<<<<<
46.04893	0.2875
50.45542	0.3875
54.85868	-1.5125
59.25871	-0.6125
63.6555	29.0875
68.04907	33.1875
72.43941	39.7875
76.82654	41.1875
81.21044	43.0875
85.59113	42.8875
89.96862	48.1875
94.34289	50.6875
98.71396	47.5875
103.08183	48.1875
107.4465	50.8875
111.80798	48.9875
116.16626	53.4875
120.52136	51.0875
124.87327	52.1875
129.222	48.9875
133.56755	52.2875
137.90993	51.5875
142.24913	52.6875
146.58517	54.7875
150.91804	53.5875
155.24774	61.2875
159.57429	66.4875
163.89768	73.9875
168.21792	88.7875
172.53501	105.9875
176.84895	135.8875
181.15975	180.1875
185.46741	238.6875
189.77193	320.7875
194.07331	418.9875
198.37157	532.9875
202.6667	659.8875
206.9587	790.0875
211.24758	911.2875
215.53334	1033.3875
219.81599	1172.1875
224.09553	1319.9875
228.37195	1476.3875
232.64527	1657.2875
236.91549	1819.5875
241.18261	1996.7875
245.44663	2136.8875
249.70755	2254.1875
253.96539	2339.0875
258.22014	2427.0875
262.4718	2475.8875
266.72039	2499.2875
270.96589	2503.8875
275.20832	2468.1875
279.44768	2419.7875
283.68397	2359.9875
287.91719	2305.2875
292.14735	2268.8875
296.37445	2266.0875
300.59849	2281.6875
304.81948	2329.5875
309.03742	2381.4875
313.25231	2408.6875
317.46415	2334.5875
321.67296	2236.2875
325.87872	2139.0875
330.08145	2090.7875
334.28114	2071.8875
338.47781	2088.0875
342.67145	2122.5875
346.86207	2170.0875
351.04966	2249.8875
355.23424	2328.3875
359.4158	2377.8875
363.59435	2412.2875
367.76989	2413.3875
371.94243	2402.7875
376.11196	2392.4875
380.27849	2385.3875
384.44203	2381.4875
388.60257	2373.3875
392.76012	2385.8875
396.91468	2387.9875
401.06626	2422.2875
405.21485	2434.0875
409.36047	2399.8875
413.50311	2323.6875
417.64277	2258.9875
421.77947	2225.2875
425.9132	2192.6875
430.04396	2202.2875
434.17176	2215.0875
438.2966	2240.7875
442.41849	2265.0875
446.53742	2299.0875
450.6534	2340.5875
454.76644	2351.0875
458.87653	2341.8875
462.98368	2343.4875
467.08789	2335.2875
471.18916	2309.2875
475.2875	2305.4875
479.38291	2280.2875
483.4754	2270.9875
487.56496	2280.8875
491.6516	2296.9875
495.73531	2305.7875
499.81612	2304.6875
503.89401	2328.1875
507.96899	2341.4875
512.04106	2358.1875
516.11023	2360.9875
520.1765	2377.9875
524.23987	2381.1875
528.30034	2369.1875
532.35792	2351.7875
536.41261	2328.6875
540.46441	2285.6875
544.51333	2261.6875
548.55936	2264.2875
552.60252	2271.7875
556.64279	2298.6875
560.6802	2321.5875
564.71473	2337.3875
568.7464	2386.0875
572.7752	2406.4875
576.80114	2358.9875
580.82422	2314.8875
584.84444	2311.8875
588.86181	2350.4875
592.87633	2374.2875
596.888	2396.3875
600.89682	2464.8875
604.9028	2669.7875
608.90594	3210.4875
612.90624	3862.5875
616.90371	3759.8875
620.89834	3019.0875
624.89015	2630.8875
628.87913	2545.9875
632.86528	2581.0875
636.84862	2600.5875
640.82913	2547.2875
644.80683	2461.2875
648.78172	2360.4875
652.75379	2353.6875
656.72306	2375.1875
660.68952	2425.9875
664.65319	2408.7875
668.61405	2339.3875
672.57211	2333.1875
676.52738	2361.4875
680.47986	2406.7875
684.42955	2467.8875
688.37646	2492.3875
692.32058	2453.7875
696.26192	2402.2875
700.20048	2357.0875
704.13626	2337.7875
708.06928	2315.4875
711.99952	2310.3875
715.927	2305.5875
719.85171	2313.7875
723.77365	2312.1875
727.69284	2314.1875
731.60928	2309.7875
735.52295	2292.9875
739.43388	2279.8875
743.34206	2282.2875
747.24749	2279.3875
751.15017	2281.8875
755.05012	2292.0875
758.94733	2345.5875
762.8418	2510.1875
766.73354	2779.6875
770.62254	3052.0875
774.50882	3184.8875
778.39237	3086.4875
782.27321	2826.0875
786.15132	2571.6875
790.02671	2405.0875
793.89938	2344.4875
797.76935	2324.6875
801.6366	2332.1875
805.50115	2344.1875
809.36299	2352.6875
813.22213	2380.3875
817.07857	2356.2875
820.93231	2327.0875
824.78336	2289.6875
828.63172	2274.9875
832.47738	2265.8875
836.32036	2255.3875
840.16066	2266.2875
843.99827	2267.9875
847.8332	2259.5875
851.66546	2250.5875
855.49504	2250.7875
859.32195	2239.5875
863.1462	2243.7875
866.96777	2265.1875
870.78668	2275.0875
874.60293	2306.7875
878.41652	2355.4875
882.22745	2391.9875
886.03573	2429.4875
889.84136	2463.2875
893.64433	2467.1875
897.44466	2449.1875
901.24235	2460.4875
905.0374	2443.0875
908.8298	2451.6875
912.61957	2481.0875
916.40671	2537.5875
920.19121	2590.5875
923.97308	2649.1875
927.75233	2701.9875
931.52895	2718.6875
935.30295	2674.8875
939.07433	2581.0875
942.84309	2497.3875
946.60924	2401.2875
950.37278	2351.8875
954.13371	2288.4875
957.89203	2235.4875
961.64774	2201.3875
965.40086	2167.7875
969.15137	2133.7875
972.89929	2100.5875
976.64461	2081.7875
980.38733	2072.7875
984.12747	2048.8875
987.86502	2052.3875
991.59999	2048.8875
995.33237	2051.7875
999.06217	2066.7875
1002.78939	2085.7875
1006.51404	2111.7875
1010.23611	2146.6875
1013.95561	2158.8875
1017.67255	2162.8875
1021.38692	2157.1875
1025.09872	2140.1875
1028.80796	2116.2875
1032.51465	2110.5875
1036.21877	2093.2875
1039.92035	2085.2875
1043.61937	2093.6875
1047.31584	2078.7875
1051.00976	2079.6875
1054.70114	2073.9875
1058.38998	2063.2875
1062.07627	2061.3875
1065.76003	2063.8875
1069.44126	2059.4875
1073.11995	2062.5875
1076.79611	2084.8875
1080.46974	2097.0875
1084.14085	2112.7875
1087.80943	2142.7875
1091.47549	2156.4875
1095.13903	2113.2875
1098.80005	2061.2875
1102.45857	2018.8875
1106.11456	2003.5875
1109.76805	2020.3875
1113.41903	2057.6875
1117.06751	2108.7875
1120.71348	2187.1875
1124.35696	2290.2875
1127.99793	2402.1875
1131.63641	2448.0875
1135.2724	2404.1875
1138.90589	2311.1875
1142.5369	2250.9875
1146.16542	2178.5875
1149.79145	2112.2875
1153.415	2072.2875
1157.03607	2038.4875
1160.65467	2047.8875
1164.27079	2064.2875
1167.88443	2119.4875
1171.49561	2230.8875
1175.10432	2403.1875
1178.71056	2639.7875
1182.31434	2840.8875
1185.91565	2885.3875
1189.51451	2794.0875
1193.11091	2674.0875
1196.70485	2531.6875
1200.29634	2433.1875
1203.88538	2370.9875
1207.47197	2272.2875
1211.05612	2175.9875
1214.63782	2107.2875
1218.21708	2063.2875
1221.79391	2051.9875
1225.36829	2054.2875
1228.94024	2054.0875
1232.50976	2052.6875
1236.07685	2054.5875
1239.6415	2057.3875
1243.20374	2069.5875
1246.76355	2072.5875
1250.32093	2088.2875
1253.8759	2105.6875
1257.42845	2129.4875
1260.97859	2185.6875
1264.52631	2246.8875
1268.07163	2308.0875
1271.61453	2347.4875
1275.15503	2383.0875
1278.69312	2396.2875
1282.22882	2396.0875
1285.76211	2427.1875
1289.29301	2513.1875
1292.82151	2600.1875
1296.34761	2674.0875
1299.87133	2774.6875
1303.39266	2937.3875
1306.9116	3182.9875
1310.42815	3481.9875
1313.94233	3656.5875
1317.45412	3577.4875
1320.96354	3339.2875
1324.47058	3083.7875
1327.97525	2860.7875
1331.47754	2719.2875
1334.97747	2650.1875
1338.47502	2651.0875
1341.97022	2738.9875
1345.46305	2896.1875
1348.95352	3175.8875
1352.44163	3357.8875
1355.92738	3670.0875
1359.41078	4128.4875
1362.89183	4607.8875
1366.37053	4660.6875
1369.84688	4112.2875
1373.32088	3497.7875
1376.79254	3105.2875
1380.26186	2926.1875
1383.72883	2807.6875
1387.19347	2733.9875
1390.65578	2654.0875
1394.11575	2586.6875
1397.57339	2565.4875
1401.0287	2530.4875
1404.48168	2479.6875
1407.93234	2444.2875
1411.38068	2397.4875
1414.82669	2372.5875
1418.27039	2349.2875
1421.71177	2332.3875
1425.15083	2290.5875
1428.58758	2243.8875
1432.02203	2226.1875
1435.45416	2216.0875
1438.88399	2205.5875
1442.31151	2182.2875
1445.73673	2153.1875
1449.15965	2152.1875
1452.58027	2144.8875
1455.9986	2133.3875
1459.41463	2119.3875
1462.82837	2131.7875
1466.23982	2146.6875
1469.64898	2172.1875
1473.05586	2206.7875
1476.46045	2209.9875
1479.86276	2223.2875
1483.26279	2256.4875
1486.66054	2293.4875
1490.05602	2351.4875
1493.44922	2444.3875
1496.84016	2590.0875
1500.22882	2822.9875
1503.61521	3261.0875
1506.99934	3592.1875
1510.38121	3900.2875
1513.76081	4064.0875
1517.13816	3876.6875
1520.51324	3433.3875
1523.88607	2982.6875
1527.25665	2675.4875
1530.62498	2470.8875
1533.99105	2367.4875
1537.35488	2287.5875
1540.71647	2243.1875
1544.07581	2217.5875
1547.4329	2213.6875
1550.78776	2209.7875
1554.14038	2229.2875
1557.49077	2247.3875
1560.83892	2277.2875
1564.18484	2343.2875
1567.52853	2408.4875
1570.86999	2481.0875
1574.20922	2539.3875
1577.54624	2531.6875
1580.88103	2430.8875
1584.2136	2247.7875
1587.54395	2125.3875
1590.87208	2068.8875
1594.19801	2087.3875
1597.52172	2140.4875
1600.84321	2184.4875
1604.16251	2135.9875
1607.47959	2073.6875
1610.79447	1994.6875
1614.10715	1932.7875
1617.41763	1874.2875
1620.7259	1850.6875
1624.03199	1824.7875
1627.33587	1818.8875
1630.63757	1844.6875
1633.93707	1869.1875
1637.23439	1942.7875
1640.52951	2049.4875
1643.82246	2240.7875
1647.11321	2512.4875
1650.40179	2712.8875
1653.68819	2730.4875
1656.97241	2494.1875
1660.25446	2155.5875
1663.53433	1899.3875
1666.81203	1728.9875
1670.08756	1636.9875
1673.36092	1601.3875
1676.63211	1559.5875
1679.90115	1547.6875
1683.16801	1524.3875
1686.43272	1507.9875
1689.69527	1487.3875
1692.95567	1461.4875
1696.2139	1418.5875
1699.46999	1385.8875
1702.72392	1353.1875
1705.97571	1364.8875
1709.22535	1362.9875
1712.47284	1369.1875
1715.71819	1357.6875
1718.96139	1340.9875
1722.20246	1324.1875
1725.44139	1298.5875
1728.67818	1287.2875
1731.91284	1271.4875
1735.14537	1256.3875
1738.37576	1236.0875
1741.60403	1226.8875
1744.83017	1207.1875
1748.05418	1204.8875
1751.27607	1190.6875
1754.49584	1163.7875
1757.71349	1144.8875
1760.92903	1121.1875
1764.14244	1126.5875
1767.35375	1121.5875
1770.56294	1111.8875
1773.77002	1116.0875
1776.97499	1116.2875
1780.17785	1137.5875
1783.37861	1143.3875
1786.57727	1139.0875
1789.77382	1148.7875
1792.96828	1133.2875
1796.16064	1132.7875
1799.3509	1132.2875
1802.53907	1131.5875
1805.72514	1120.1875
1808.90913	1117.9875
1812.09102	1105.4875
1815.27083	1105.1875
1818.44856	1106.3875
1821.6242	1112.4875
1824.79776	1106.5875
1827.96924	1099.4875
1831.13864	1091.1875
1834.30597	1094.5875
1837.47122	1087.4875
1840.6344	1081.2875
1843.7955	1089.4875
1846.95454	1069.2875
1850.11151	1074.9875
1853.26642	1073.1875
1856.41926	1071.0875
1859.57004	1074.5875
1862.71876	1066.2875
1865.86542	1065.5875
1869.01003	1057.6875
1872.15258	1059.6875
1875.29308	1059.9875
1878.43152	1049.7875
1881.56792	1053.5875
1884.70227	1038.5875
1887.83457	1041.9875
1890.96482	1033.4875
1894.09304	1036.5875
1897.21921	1036.5875
1900.34335	1034.5875
1903.46544	1021.0875
1906.58551	1023.3875
1909.70353	1017.2875
1912.81953	1018.8875
1915.93349	1012.5875
1919.04543	1011.8875
1922.15534	1003.6875
1925.26322	1016.6875
1928.36908	1005.5875
1931.47292	1001.2875
1934.57473	988.5875
1937.67453	987.5875
1940.77232	986.0875
1943.86808	973.8875
1946.96184	974.2875
1950.05358	975.4875
1953.14331	969.7875
1956.23103	965.6875
1959.31675	966.1875
1962.40046	959.5875
1965.48217	951.0875
1968.56188	955.2875
1971.63959	957.0875
1974.7153	934.9875
1977.78901	938.4875
1980.86073	945.7875
1983.93046	937.0875
1986.99819	930.3875
1990.06394	923.6875
1993.1277	928.0875
1996.18947	913.9875
1999.24925	907.7875
2002.30706	907.8875
2005.36288	908.8875
2008.41672	901.1875
2011.46859	896.0875
2014.51848	898.4875
2017.56639	890.8875
2020.61233	893.1875
2023.6563	884.0875
2026.6983	881.1875
2029.73833	883.2875
2032.7764	875.5875
2035.8125	877.9875
2038.84664	870.7875
2041.87881	868.2875
2044.90903	866.7875
2047.93729	870.9875
2050.96359	862.7875
2053.98794	862.3875
2057.01034	860.8875
2060.03078	856.0875
2063.04927	860.5875
2066.06582	868.2875
2069.08042	867.0875
2072.09307	859.4875
2075.10378	855.7875
2078.11255	857.0875
2081.11938	859.2875
2084.12426	852.9875
2087.12722	856.6875
2090.12824	856.7875
2093.12732	860.2875
2096.12447	856.0875
2099.11969	854.8875
2102.11299	854.9875
2105.10435	847.4875
2108.09379	858.0875
2111.08131	860.5875
2114.0669	848.3875
2117.05057	848.2875
2120.03233	848.3875
2123.01216	846.4875
2125.99008	840.8875
2128.96609	849.8875
2131.94018	846.1875
2134.91236	836.3875
2137.88263	835.8875
2140.851	837.8875
2143.81746	826.9875
2146.78201	825.7875
2149.74466	826.2875
2152.7054	824.3875
2155.66425	823.5875
2158.6212	816.9875
2161.57625	816.7875
2164.52941	816.0875
2167.48067	812.9875
2170.43004	813.7875
2173.37752	811.1875
2176.32311	810.5875
2179.26681	806.3875
2182.20863	811.7875
2185.14856	805.3875
2188.08661	805.5875
2191.02278	808.9875
2193.95707	802.3875
2196.88948	799.3875
2199.82001	793.5875
2202.74867	795.9875
2205.67545	789.0875
2208.60037	788.5875
2211.52341	785.7875
2214.44458	781.6875
2217.36388	776.0875
2220.28132	778.4875
2223.1969	770.4875
2226.11061	769.1875
2229.02246	770.6875
2231.93245	770.6875
2234.84058	765.9875
2237.74686	764.0875
2240.65128	757.2875
2243.55385	761.5875
2246.45456	754.9875
2249.35343	751.1875
2252.25044	751.9875
2255.14561	751.9875
2258.03893	752.5875
2260.93041	736.3875
2263.82004	746.4875
2266.70783	747.7875
2269.59378	739.2875
2272.4779	741.2875
2275.36017	732.9875
2278.24061	733.5875
2281.11922	733.3875
2283.996	731.3875
2286.87094	725.4875
2289.74405	725.9875
2292.61534	727.1875
2295.4848	720.4875
2298.35243	724.2875
2301.21824	713.3875
2304.08223	715.6875
2306.94439	716.4875
2309.80474	710.8875
2312.66327	724.9875
2315.51999	716.3875
2318.37489	706.6875
2321.22797	705.3875
2324.07925	705.3875
2326.92871	702.2875
2329.77637	701.8875
2332.62222	697.5875
2335.46626	694.8875
2338.3085	693.8875
2341.14893	687.8875
2343.98756	688.3875
2346.8244	681.3875
2349.65943	690.7875
2352.49267	687.9875
2355.32411	684.8875
2358.15376	687.9875
2360.98161	684.3875
2363.80768	684.1875
2366.63195	686.9875
2369.45444	694.2875
2372.27514	689.1875
2375.09405	683.9875
2377.91118	683.2875
2380.72652	680.0875
2383.54009	673.2875
2386.35187	669.5875
2389.16188	673.4875
2391.97011	664.0875
2394.77657	667.0875
2397.58125	665.1875
2400.38416	659.3875
2403.18529	654.5875
2405.98466	650.4875
2408.78226	653.6875
2411.57809	646.2875
2414.37216	644.7875
2417.16446	655.4875
2419.955	641.9875
2422.74378	646.7875
2425.5308	641.9875
2428.31606	643.3875
2431.09956	642.4875
2433.88131	644.1875
2436.6613	643.7875
2439.43954	633.3875
2442.21603	635.5875
2444.99077	634.9875
2447.76377	628.6875
2450.53501	633.2875
2453.30451	630.1875
2456.07226	626.3875
2458.83827	630.2875
2461.60254	631.7875
2464.36507	619.2875
2467.12586	625.9875
2469.88492	623.2875
2472.64224	623.2875
2475.39782	624.1875
2478.15167	613.8875
2480.90379	609.1875
2483.65417	615.1875
2486.40283	620.5875
2489.14976	626.5875
2491.89497	623.5875
2494.63845	619.7875
2497.3802	609.3875
2500.12024	611.5875
2502.85855	612.0875
2505.59514	612.4875
2508.33002	613.3875
2511.06318	609.8875
2513.79462	605.1875
2516.52435	605.2875
2519.25237	600.3875
2521.97867	595.9875
2524.70327	598.2875
2527.42616	591.6875
2530.14734	593.5875
2532.86681	593.1875
2535.58458	592.9875
2538.30065	587.2875
2541.01501	585.8875
2543.72768	585.9875
2546.43864	585.0875
2549.14791	584.6875
2551.85548	581.6875
2554.56136	583.2875
2557.26554	586.6875
2559.96803	577.9875
2562.66883	584.2875
2565.36794	578.2875
2568.06536	570.0875
2570.7611	571.6875
2573.45514	569.2875
2576.14751	571.4875
2578.83819	569.9875
2581.52719	564.4875
2584.21451	561.7875
2586.90015	563.6875
2589.58411	564.8875
2592.2664	560.7875
2594.94701	559.8875
2597.62594	556.1875
2600.30321	552.2875
2602.9788	561.7875
2605.65273	551.6875
2608.32498	550.1875
2610.99557	550.1875
2613.66449	550.6875
2616.33175	553.7875
2618.99734	551.5875
2621.66128	545.5875
2624.32355	544.7875
2626.98416	546.9875
2629.64311	538.7875
2632.30041	542.6875
2634.95605	536.4875
2637.61004	540.9875
2640.26238	533.3875
2642.91306	536.3875
2645.56209	530.4875
2648.20948	529.1875
2650.85521	535.5875
2653.4993	534.6875
2656.14175	537.0875
2658.78255	530.3875
2661.42171	535.6875
2664.05923	534.3875
2666.6951	535.2875
2669.32934	537.2875
2671.96194	533.3875
2674.59291	533.7875
2677.22224	532.2875
2679.84993	531.0875
2682.476	526.7875
2685.10043	534.7875
2687.72324	526.8875
2690.34441	526.5875
2692.96396	527.1875
2695.58188	535.2875
2698.19818	531.1875
2700.81285	531.7875
2703.4259	509.0875
2706.03733	471.3875
2708.64714	495.9875
2711.25533	511.0875
2713.86191	517.0875
2716.46687	520.8875
2719.07021	525.9875
2721.67194	531.3875
2724.27206	527.1875
2726.87057	525.3875
2729.46747	533.5875
2732.06276	523.5875
2734.65644	525.6875
2737.24852	521.3875
2739.83899	528.6875
2742.42786	526.8875
2745.01513	511.4875
2747.60079	516.2875
2750.18486	517.1875
2752.76733	520.3875
2755.3482	522.6875
2757.92747	520.6875
2760.50515	516.3875
2763.08123	518.3875
2765.65573	515.0875
2768.22863	513.5875
2770.79994	512.8875
2773.36967	512.9875
2775.9378	511.0875
2778.50435	509.2875
2781.06932	504.0875
2783.6327	497.9875
2786.1945	510.5875
2788.75471	508.1875
2791.31335	508.3875
2793.87041	503.1875
2796.42589	508.1875
2798.97979	501.1875
2801.53212	498.9875
2804.08288	502.6875
2806.63206	502.9875
2809.17967	500.6875
2811.72571	496.6875
2814.27018	496.8875
2816.81308	495.1875
2819.35442	498.9875
2821.89419	498.4875
2824.43239	491.4875
2826.96904	493.1875
2829.50412	498.1875
2832.03763	493.7875
2834.56959	500.3875
2837.1	499.6875
2839.62884	495.4875
2842.15613	489.7875
2844.68186	507.4875
2847.20604	503.7875
2849.72867	501.5875
2852.24974	510.0875
2854.76927	499.6875
2857.28724	485.9875
2859.80367	502.1875
2862.31855	496.3875
2864.83189	503.6875
2867.34368	498.6875
2869.85393	509.2875
2872.36264	508.5875
2874.8698	508.9875
2877.37543	507.9875
2879.87952	515.8875
2882.38207	503.5875
2884.88308	509.6875
2887.38256	513.9875
2889.88051	516.3875
2892.37692	510.0875
2894.8718	519.0875
2897.36515	519.3875
2899.85698	519.9875
2902.34727	523.6875
2904.83604	525.8875
2907.32328	536.6875
2909.809	532.6875
2912.29319	535.4875
2914.77587	546.5875
2917.25702	552.3875
2919.73665	547.4875
2922.21476	546.2875
2924.69136	547.6875
2927.16644	554.0875
2929.64	558.0875
2932.11205	553.3875
2934.58258	550.8875
2937.05161	553.0875
2939.51912	537.3875
2941.98513	541.4875
2944.44962	542.2875
2946.91261	535.1875
2949.37409	527.6875
2951.83407	529.6875
2954.29254	530.1875
2956.74951	525.6875
2959.20498	518.2875
2961.65895	514.1875
2964.11142	515.1875
2966.56239	509.7875
2969.01186	507.9875
2971.45984	511.3875
2973.90632	503.6875
2976.35131	502.9875
2978.7948	502.0875
2981.23681	501.9875
2983.67732	500.0875
2986.11635	495.8875
2988.55388	495.0875
2990.98993	501.6875
2993.4245	495.5875
2995.85758	497.7875
2998.28917	491.5875
3000.71928	493.2875
3003.14791	495.4875
3005.57506	495.6875
3008.00073	501.7875
3010.42493	497.3875
3012.84764	493.3875
3015.26888	499.5875
3017.68865	495.7875
3020.10694	501.4875
3022.52376	497.6875
3024.9391	498.6875
3027.35298	504.2875
3029.76539	503.8875
3032.17632	502.1875
3034.5858	501.3875
3036.9938	505.6875
3039.40034	510.8875
3041.80542	501.0875
3044.20903	510.2875
3046.61118	517.0875
3049.01187	513.8875
3051.4111	517.3875
3053.80888	514.8875
3056.20519	516.7875
3058.60005	509.9875
3060.99345	520.0875
3063.3854	523.5875
3065.7759	522.0875
3068.16494	524.7875
3070.55254	527.5875
3072.93868	535.8875
3075.32338	530.2875
3077.70662	529.2875
3080.08842	535.6875
3082.46878	538.2875
3084.84769	543.0875
3087.22515	544.3875
3089.60118	544.8875
3091.97576	554.3875
3094.3489	551.0875
3096.72061	553.3875
3099.09087	562.7875
3101.4597	567.0875
3103.82709	567.3875
3106.19305	573.3875
3108.55757	571.9875
3110.92066	582.8875
3113.28232	585.1875
3115.64255	588.2875
3118.00134	587.7875
3120.35871	593.8875
3122.71466	600.6875
3125.06917	607.7875
3127.42226	604.2875
3129.77393	610.0875
3132.12417	609.2875
3134.47299	627.0875
3136.82039	627.4875
3139.16636	634.5875
3141.51092	639.2875
3143.85406	646.0875
3146.19579	648.7875
3148.53609	649.5875
3150.87499	661.2875
3153.21246	659.9875
3155.54853	671.3875
3157.88318	685.9875
3160.21642	681.8875
3162.54826	687.2875
3164.87868	696.3875
3167.2077	699.7875
3169.5353	706.8875
3171.86151	713.6875
3174.18631	715.3875
3176.5097	724.6875
3178.83169	728.3875
