Data from AgNPs_APTES_FTO_UA_50uM_CRN_0uM_R6G_10uM_Scan_RamanShift__29__11-44-53-687.txt Node

Date: Tue Jul 05 11:44:53 BST 2022
User: TCL
Spectrometer: QEP01345
Trigger mode: 4
Integration Time (sec): 7.000000E0
Scans to average: 10
Electric dark correction enabled: true
Nonlinearity correction enabled: false
Boxcar width: 0
XAxis mode: Raman Shifts
Number of Pixels in Spectrum: 1044
>>>>>Begin Spectral Data<<<<<
46.04893	-0.2875
50.45542	0.0125
54.85868	0.9125
59.25871	-0.2875
63.6555	36.8125
68.04907	39.3125
72.43941	39.6125
76.82654	43.1125
81.21044	47.8125
85.59113	51.3125
89.96862	50.9125
94.34289	54.2125
98.71396	56.4125
103.08183	57.2125
107.4465	55.4125
111.80798	60.6125
116.16626	57.5125
120.52136	57.8125
124.87327	63.1125
129.222	60.9125
133.56755	62.9125
137.90993	59.2125
142.24913	67.3125
146.58517	75.1125
150.91804	82.3125
155.24774	91.8125
159.57429	105.7125
163.89768	131.0125
168.21792	171.0125
172.53501	224.6125
176.84895	306.3125
181.15975	421.0125
185.46741	581.7125
189.77193	796.9125
194.07331	1042.4125
198.37157	1333.7125
202.6667	1643.9125
206.9587	1945.4125
211.24758	2249.3125
215.53334	2555.4125
219.81599	2855.6125
224.09553	3221.0125
228.37195	3603.9125
232.64527	4001.7125
236.91549	4415.8125
241.18261	4814.2125
245.44663	5185.6125
249.70755	5505.3125
253.96539	5765.4125
258.22014	5985.5125
262.4718	6151.8125
266.72039	6260.4125
270.96589	6338.8125
275.20832	6303.1125
279.44768	6248.6125
283.68397	6136.9125
287.91719	6028.5125
292.14735	5984.9125
296.37445	5986.2125
300.59849	6089.9125
304.81948	6165.5125
309.03742	6249.1125
313.25231	6224.7125
317.46415	6064.2125
321.67296	5833.6125
325.87872	5635.4125
330.08145	5545.4125
334.28114	5504.0125
338.47781	5539.7125
342.67145	5628.4125
346.86207	5763.7125
351.04966	5927.6125
355.23424	6136.1125
359.4158	6339.8125
363.59435	6459.2125
367.76989	6555.1125
371.94243	6640.3125
376.11196	6692.2125
380.27849	6692.8125
384.44203	6731.8125
388.60257	6724.6125
392.76012	6732.3125
396.91468	6756.4125
401.06626	6794.7125
405.21485	6841.2125
409.36047	6780.4125
413.50311	6568.7125
417.64277	6369.4125
421.77947	6247.4125
425.9132	6203.6125
430.04396	6200.3125
434.17176	6230.1125
438.2966	6276.3125
442.41849	6370.2125
446.53742	6479.8125
450.6534	6595.5125
454.76644	6636.1125
458.87653	6644.7125
462.98368	6596.8125
467.08789	6555.0125
471.18916	6525.2125
475.2875	6494.4125
479.38291	6480.3125
483.4754	6494.4125
487.56496	6588.7125
491.6516	6692.3125
495.73531	6778.7125
499.81612	6772.8125
503.89401	6722.5125
507.96899	6703.7125
512.04106	6714.1125
516.11023	6794.1125
520.1765	6874.8125
524.23987	6914.3125
528.30034	6914.0125
532.35792	6878.9125
536.41261	6784.4125
540.46441	6649.0125
544.51333	6532.5125
548.55936	6489.8125
552.60252	6501.0125
556.64279	6559.5125
560.6802	6573.2125
564.71473	6586.7125
568.7464	6659.9125
572.7752	6734.3125
576.80114	6676.9125
580.82422	6582.8125
584.84444	6641.0125
588.86181	6758.5125
592.87633	6894.0125
596.888	6958.3125
600.89682	7038.8125
604.9028	7431.7125
608.90594	8537.5125
612.90624	10029.2125
616.90371	9878.9125
620.89834	8262.7125
624.89015	7618.0125
628.87913	7823.1125
632.86528	8213.7125
636.84862	8460.9125
640.82913	8354.5125
644.80683	7939.3125
648.78172	7465.4125
652.75379	7147.4125
656.72306	7008.0125
660.68952	7024.0125
664.65319	6889.7125
668.61405	6670.5125
672.57211	6576.6125
676.52738	6559.1125
680.47986	6594.0125
684.42955	6585.1125
688.37646	6558.0125
692.32058	6515.6125
696.26192	6487.8125
700.20048	6494.6125
704.13626	6482.4125
708.06928	6448.5125
711.99952	6442.6125
715.927	6444.3125
719.85171	6491.3125
723.77365	6574.4125
727.69284	6569.1125
731.60928	6537.2125
735.52295	6470.9125
739.43388	6423.0125
743.34206	6414.5125
747.24749	6396.1125
751.15017	6391.3125
755.05012	6430.1125
758.94733	6560.8125
762.8418	6905.5125
766.73354	7535.8125
770.62254	8281.4125
774.50882	8719.5125
778.39237	8477.3125
782.27321	7723.5125
786.15132	6981.2125
790.02671	6563.8125
793.89938	6386.8125
797.76935	6344.3125
801.6366	6415.8125
805.50115	6575.2125
809.36299	6765.8125
813.22213	6828.8125
817.07857	6741.0125
820.93231	6570.8125
824.78336	6369.5125
828.63172	6233.3125
832.47738	6158.2125
836.32036	6092.0125
840.16066	6071.0125
843.99827	6076.5125
847.8332	6082.4125
851.66546	6063.4125
855.49504	6053.0125
859.32195	6030.6125
863.1462	6048.2125
866.96777	6096.8125
870.78668	6188.1125
874.60293	6304.9125
878.41652	6439.5125
882.22745	6564.9125
886.03573	6683.0125
889.84136	6675.0125
893.64433	6576.6125
897.44466	6411.8125
901.24235	6245.4125
905.0374	6101.0125
908.8298	6006.0125
912.61957	5922.9125
916.40671	5920.7125
920.19121	5908.5125
923.97308	5937.2125
927.75233	5958.2125
931.52895	5978.4125
935.30295	5953.5125
939.07433	5840.9125
942.84309	5750.2125
946.60924	5661.7125
950.37278	5602.1125
954.13371	5557.1125
957.89203	5536.2125
961.64774	5498.8125
965.40086	5453.7125
969.15137	5423.4125
972.89929	5384.0125
976.64461	5366.9125
980.38733	5355.7125
984.12747	5322.2125
987.86502	5318.7125
991.59999	5338.6125
995.33237	5393.7125
999.06217	5455.4125
1002.78939	5563.6125
1006.51404	5662.8125
1010.23611	5758.3125
1013.95561	5855.4125
1017.67255	5867.5125
1021.38692	5811.4125
1025.09872	5709.0125
1028.80796	5604.8125
1032.51465	5487.7125
1036.21877	5432.5125
1039.92035	5415.6125
1043.61937	5415.8125
1047.31584	5405.7125
1051.00976	5415.7125
1054.70114	5418.8125
1058.38998	5439.1125
1062.07627	5511.0125
1065.76003	5549.9125
1069.44126	5547.5125
1073.11995	5590.3125
1076.79611	5626.1125
1080.46974	5627.0125
1084.14085	5649.3125
1087.80943	5680.8125
1091.47549	5686.9125
1095.13903	5597.6125
1098.80005	5485.0125
1102.45857	5365.0125
1106.11456	5337.5125
1109.76805	5380.8125
1113.41903	5500.7125
1117.06751	5714.1125
1120.71348	6031.5125
1124.35696	6430.1125
1127.99793	6874.8125
1131.63641	7215.3125
1135.2724	7232.4125
1138.90589	7077.5125
1142.5369	6785.9125
1146.16542	6439.7125
1149.79145	6073.0125
1153.415	5769.8125
1157.03607	5536.6125
1160.65467	5434.6125
1164.27079	5449.1125
1167.88443	5540.7125
1171.49561	5807.9125
1175.10432	6255.9125
1178.71056	6899.7125
1182.31434	7472.0125
1185.91565	7674.9125
1189.51451	7574.2125
1193.11091	7333.1125
1196.70485	7117.2125
1200.29634	6990.8125
1203.88538	6850.9125
1207.47197	6621.2125
1211.05612	6282.0125
1214.63782	6034.8125
1218.21708	5848.0125
1221.79391	5696.0125
1225.36829	5595.6125
1228.94024	5496.5125
1232.50976	5410.5125
1236.07685	5362.8125
1239.6415	5325.0125
1243.20374	5349.5125
1246.76355	5374.8125
1250.32093	5404.4125
1253.8759	5450.6125
1257.42845	5553.2125
1260.97859	5656.8125
1264.52631	5776.9125
1268.07163	5895.6125
1271.61453	5968.8125
1275.15503	6008.0125
1278.69312	6000.7125
1282.22882	5988.0125
1285.76211	6024.3125
1289.29301	6145.4125
1292.82151	6330.2125
1296.34761	6525.0125
1299.87133	6806.8125
1303.39266	7195.5125
1306.9116	7828.3125
1310.42815	8560.7125
1313.94233	9023.6125
1317.45412	8873.7125
1320.96354	8351.9125
1324.47058	7719.8125
1327.97525	7190.3125
1331.47754	6867.7125
1334.97747	6730.7125
1338.47502	6749.7125
1341.97022	6870.5125
1345.46305	7116.9125
1348.95352	7592.4125
1352.44163	8279.4125
1355.92738	9167.4125
1359.41078	10359.3125
1362.89183	11543.5125
1366.37053	11544.4125
1369.84688	10180.4125
1373.32088	8665.8125
1376.79254	7621.9125
1380.26186	7054.2125
1383.72883	6752.0125
1387.19347	6512.6125
1390.65578	6267.0125
1394.11575	6069.9125
1397.57339	5920.9125
1401.0287	5810.1125
1404.48168	5702.8125
1407.93234	5619.6125
1411.38068	5492.3125
1414.82669	5384.0125
1418.27039	5297.8125
1421.71177	5217.8125
1425.15083	5153.9125
1428.58758	5086.0125
1432.02203	5053.7125
1435.45416	5082.0125
1438.88399	5096.9125
1442.31151	5108.7125
1445.73673	5084.6125
1449.15965	5086.2125
1452.58027	5072.8125
1455.9986	5017.5125
1459.41463	5007.1125
1462.82837	5014.4125
1466.23982	5084.3125
1469.64898	5147.8125
1473.05586	5201.6125
1476.46045	5250.0125
1479.86276	5308.7125
1483.26279	5418.1125
1486.66054	5517.3125
1490.05602	5666.4125
1493.44922	5907.6125
1496.84016	6270.5125
1500.22882	6812.2125
1503.61521	7602.9125
1506.99934	8526.5125
1510.38121	9377.8125
1513.76081	9777.5125
1517.13816	9338.0125
1520.51324	8294.4125
1523.88607	7256.3125
1527.25665	6530.3125
1530.62498	6129.0125
1533.99105	5939.3125
1537.35488	5821.2125
1540.71647	5766.8125
1544.07581	5768.0125
1547.4329	5768.7125
1550.78776	5787.4125
1554.14038	5838.6125
1557.49077	5898.1125
1560.83892	5968.8125
1564.18484	6092.8125
1567.52853	6239.6125
1570.86999	6407.3125
1574.20922	6486.2125
1577.54624	6501.7125
1580.88103	6300.6125
1584.2136	5929.0125
1587.54395	5640.3125
1590.87208	5556.1125
1594.19801	5669.7125
1597.52172	5923.1125
1600.84321	6107.4125
1604.16251	6054.0125
1607.47959	5904.2125
1610.79447	5693.7125
1614.10715	5485.7125
1617.41763	5336.1125
1620.7259	5220.3125
1624.03199	5189.4125
1627.33587	5202.5125
1630.63757	5254.5125
1633.93707	5401.1125
1637.23439	5632.3125
1640.52951	6007.5125
1643.82246	6625.5125
1647.11321	7349.1125
1650.40179	7911.9125
1653.68819	7916.3125
1656.97241	7248.6125
1660.25446	6371.3125
1663.53433	5698.4125
1666.81203	5212.4125
1670.08756	4903.0125
1673.36092	4697.1125
1676.63211	4529.2125
1679.90115	4415.0125
1683.16801	4287.6125
1686.43272	4219.4125
1689.69527	4151.0125
1692.95567	4071.6125
1696.2139	4010.1125
1699.46999	3947.4125
1702.72392	3854.9125
1705.97571	3765.6125
1709.22535	3693.5125
1712.47284	3628.5125
1715.71819	3568.7125
1718.96139	3527.3125
1722.20246	3491.7125
1725.44139	3421.9125
1728.67818	3401.5125
1731.91284	3337.1125
1735.14537	3318.4125
1738.37576	3289.5125
1741.60403	3245.8125
1744.83017	3243.3125
1748.05418	3230.5125
1751.27607	3199.8125
1754.49584	3191.4125
1757.71349	3185.6125
1760.92903	3151.4125
1764.14244	3125.7125
1767.35375	3124.3125
1770.56294	3110.6125
1773.77002	3112.7125
1776.97499	3086.4125
1780.17785	3092.1125
1783.37861	3083.3125
1786.57727	3062.1125
1789.77382	3045.4125
1792.96828	3044.3125
1796.16064	3028.5125
1799.3509	3011.9125
1802.53907	2992.1125
1805.72514	2988.6125
1808.90913	2977.4125
1812.09102	2965.1125
1815.27083	2959.1125
1818.44856	2940.1125
1821.6242	2920.5125
1824.79776	2919.9125
1827.96924	2915.5125
1831.13864	2898.6125
1834.30597	2900.6125
1837.47122	2886.6125
1840.6344	2881.1125
1843.7955	2860.8125
1846.95454	2857.5125
1850.11151	2852.9125
1853.26642	2842.1125
1856.41926	2841.9125
1859.57004	2839.8125
1862.71876	2831.9125
1865.86542	2826.3125
1869.01003	2827.7125
1872.15258	2811.2125
1875.29308	2801.8125
1878.43152	2806.0125
1881.56792	2792.0125
1884.70227	2788.0125
1887.83457	2780.7125
1890.96482	2761.4125
1894.09304	2771.4125
1897.21921	2752.1125
1900.34335	2740.7125
1903.46544	2744.5125
1906.58551	2740.7125
1909.70353	2724.0125
1912.81953	2726.7125
1915.93349	2717.5125
1919.04543	2703.1125
1922.15534	2704.6125
1925.26322	2686.9125
1928.36908	2669.2125
1931.47292	2659.3125
1934.57473	2657.9125
1937.67453	2644.8125
1940.77232	2632.3125
1943.86808	2628.8125
1946.96184	2611.3125
1950.05358	2591.3125
1953.14331	2599.6125
1956.23103	2587.0125
1959.31675	2569.5125
1962.40046	2553.4125
1965.48217	2541.5125
1968.56188	2541.7125
1971.63959	2525.5125
1974.7153	2509.5125
1977.78901	2499.5125
1980.86073	2510.9125
1983.93046	2493.9125
1986.99819	2477.8125
1990.06394	2467.1125
1993.1277	2453.1125
1996.18947	2444.1125
1999.24925	2434.6125
2002.30706	2425.2125
2005.36288	2412.4125
2008.41672	2408.7125
2011.46859	2391.3125
2014.51848	2390.0125
2017.56639	2372.3125
2020.61233	2360.6125
2023.6563	2343.3125
2026.6983	2342.2125
2029.73833	2340.1125
2032.7764	2321.8125
2035.8125	2319.5125
2038.84664	2308.7125
2041.87881	2287.9125
2044.90903	2297.2125
2047.93729	2298.4125
2050.96359	2289.4125
2053.98794	2288.6125
2057.01034	2263.9125
2060.03078	2266.0125
2063.04927	2277.8125
2066.06582	2265.8125
2069.08042	2261.4125
2072.09307	2247.5125
2075.10378	2256.7125
2078.11255	2251.5125
2081.11938	2248.1125
2084.12426	2244.4125
2087.12722	2247.1125
2090.12824	2240.5125
2093.12732	2234.0125
2096.12447	2222.9125
2099.11969	2222.6125
2102.11299	2227.2125
2105.10435	2235.9125
2108.09379	2222.9125
2111.08131	2221.0125
2114.0669	2207.9125
2117.05057	2232.1125
2120.03233	2212.9125
2123.01216	2223.8125
2125.99008	2216.0125
2128.96609	2215.8125
2131.94018	2216.4125
2134.91236	2209.8125
2137.88263	2220.2125
2140.851	2208.8125
2143.81746	2214.1125
2146.78201	2196.0125
2149.74466	2198.5125
2152.7054	2176.4125
2155.66425	2184.2125
2158.6212	2183.2125
2161.57625	2175.6125
2164.52941	2179.3125
2167.48067	2171.3125
2170.43004	2169.3125
2173.37752	2160.9125
2176.32311	2163.1125
2179.26681	2152.4125
2182.20863	2149.6125
2185.14856	2143.9125
2188.08661	2142.8125
2191.02278	2136.9125
2193.95707	2137.0125
2196.88948	2125.0125
2199.82001	2132.8125
2202.74867	2124.4125
2205.67545	2115.5125
2208.60037	2109.2125
2211.52341	2102.3125
2214.44458	2096.5125
2217.36388	2079.5125
2220.28132	2085.6125
2223.1969	2067.7125
2226.11061	2078.9125
2229.02246	2067.7125
2231.93245	2055.7125
2234.84058	2050.5125
2237.74686	2056.8125
2240.65128	2037.2125
2243.55385	2045.3125
2246.45456	2030.7125
2249.35343	2025.2125
2252.25044	2022.2125
2255.14561	2021.3125
2258.03893	2022.4125
2260.93041	2008.4125
2263.82004	2001.8125
2266.70783	2007.4125
2269.59378	1994.6125
2272.4779	1982.0125
2275.36017	1978.4125
2278.24061	1967.4125
2281.11922	1967.5125
2283.996	1965.4125
2286.87094	1941.1125
2289.74405	1946.1125
2292.61534	1931.1125
2295.4848	1936.1125
2298.35243	1930.8125
2301.21824	1921.7125
2304.08223	1916.1125
2306.94439	1909.2125
2309.80474	1910.4125
2312.66327	1910.6125
2315.51999	1903.1125
2318.37489	1893.1125
2321.22797	1893.3125
2324.07925	1895.6125
2326.92871	1885.9125
2329.77637	1883.5125
2332.62222	1880.6125
2335.46626	1861.6125
2338.3085	1868.2125
2341.14893	1863.3125
2343.98756	1855.7125
2346.8244	1851.3125
2349.65943	1855.0125
2352.49267	1842.2125
2355.32411	1844.0125
2358.15376	1841.6125
2360.98161	1852.9125
2363.80768	1854.5125
2366.63195	1860.3125
2369.45444	1853.0125
2372.27514	1852.6125
2375.09405	1849.8125
2377.91118	1828.5125
2380.72652	1826.0125
2383.54009	1824.2125
2386.35187	1805.6125
2389.16188	1805.0125
2391.97011	1789.3125
2394.77657	1782.7125
2397.58125	1776.0125
2400.38416	1785.0125
2403.18529	1763.9125
2405.98466	1756.1125
2408.78226	1759.5125
2411.57809	1754.5125
2414.37216	1750.4125
2417.16446	1745.2125
2419.955	1744.8125
2422.74378	1739.4125
2425.5308	1744.5125
2428.31606	1737.0125
2431.09956	1728.7125
2433.88131	1718.9125
2436.6613	1724.0125
2439.43954	1712.5125
2442.21603	1721.5125
2444.99077	1715.5125
2447.76377	1719.8125
2450.53501	1707.1125
2453.30451	1702.1125
2456.07226	1698.0125
2458.83827	1704.3125
2461.60254	1696.3125
2464.36507	1687.0125
2467.12586	1692.8125
2469.88492	1686.1125
2472.64224	1675.6125
2475.39782	1681.5125
2478.15167	1686.6125
2480.90379	1679.3125
2483.65417	1689.7125
2486.40283	1684.2125
2489.14976	1682.9125
2491.89497	1678.7125
2494.63845	1678.9125
2497.3802	1672.1125
2500.12024	1676.4125
2502.85855	1658.0125
2505.59514	1660.3125
2508.33002	1655.3125
2511.06318	1638.1125
2513.79462	1638.3125
2516.52435	1620.0125
2519.25237	1622.1125
2521.97867	1611.8125
2524.70327	1605.5125
2527.42616	1602.5125
2530.14734	1601.0125
2532.86681	1590.5125
2535.58458	1595.4125
2538.30065	1585.3125
2541.01501	1586.2125
2543.72768	1578.5125
2546.43864	1564.3125
2549.14791	1568.2125
2551.85548	1574.0125
2554.56136	1572.2125
2557.26554	1572.5125
2559.96803	1560.1125
2562.66883	1552.4125
2565.36794	1555.8125
2568.06536	1544.4125
2570.7611	1536.0125
2573.45514	1537.9125
2576.14751	1525.6125
2578.83819	1536.8125
2581.52719	1524.3125
2584.21451	1513.6125
2586.90015	1520.5125
2589.58411	1521.7125
2592.2664	1509.1125
2594.94701	1500.8125
2597.62594	1500.6125
2600.30321	1497.8125
2602.9788	1491.0125
2605.65273	1484.6125
2608.32498	1484.9125
2610.99557	1485.8125
2613.66449	1480.6125
2616.33175	1486.7125
2618.99734	1476.5125
2621.66128	1474.9125
2624.32355	1467.5125
2626.98416	1471.7125
2629.64311	1463.9125
2632.30041	1455.2125
2634.95605	1452.0125
2637.61004	1446.1125
2640.26238	1442.3125
2642.91306	1444.5125
2645.56209	1433.4125
2648.20948	1436.6125
2650.85521	1445.1125
2653.4993	1440.5125
2656.14175	1439.1125
2658.78255	1436.2125
2661.42171	1441.4125
2664.05923	1433.9125
2666.6951	1429.4125
2669.32934	1430.6125
2671.96194	1436.6125
2674.59291	1436.1125
2677.22224	1428.4125
2679.84993	1428.1125
2682.476	1435.8125
2685.10043	1438.4125
2687.72324	1421.6125
2690.34441	1427.0125
2692.96396	1422.6125
2695.58188	1423.6125
2698.19818	1426.8125
2700.81285	1422.4125
2703.4259	1424.1125
2706.03733	1424.4125
2708.64714	1417.3125
2711.25533	1425.1125
2713.86191	1425.6125
2716.46687	1428.1125
2719.07021	1433.2125
2721.67194	1439.9125
2724.27206	1425.0125
2726.87057	1437.3125
2729.46747	1424.2125
2732.06276	1419.4125
2734.65644	1421.2125
2737.24852	1415.2125
2739.83899	1419.3125
2742.42786	1413.8125
2745.01513	1413.6125
2747.60079	1404.4125
2750.18486	1402.3125
2752.76733	1399.7125
2755.3482	1403.0125
2757.92747	1399.1125
2760.50515	1391.4125
2763.08123	1392.3125
2765.65573	1386.4125
2768.22863	1385.3125
2770.79994	1373.7125
2773.36967	1379.0125
2775.9378	1385.7125
2778.50435	1376.8125
2781.06932	1371.0125
2783.6327	1376.8125
2786.1945	1390.1125
2788.75471	1379.1125
2791.31335	1378.7125
2793.87041	1368.0125
2796.42589	1373.2125
2798.97979	1370.6125
2801.53212	1359.1125
2804.08288	1361.8125
2806.63206	1367.3125
2809.17967	1360.5125
2811.72571	1366.4125
2814.27018	1356.1125
2816.81308	1356.1125
2819.35442	1358.2125
2821.89419	1350.1125
2824.43239	1355.2125
2826.96904	1361.6125
2829.50412	1352.8125
2832.03763	1343.4125
2834.56959	1352.9125
2837.1	1356.0125
2839.62884	1359.1125
2842.15613	1370.6125
2844.68186	1387.7125
2847.20604	1400.5125
2849.72867	1396.8125
2852.24974	1412.3125
2854.76927	1414.1125
2857.28724	1406.1125
2859.80367	1396.6125
2862.31855	1407.5125
2864.83189	1400.7125
2867.34368	1405.5125
2869.85393	1402.8125
2872.36264	1402.9125
2874.8698	1402.4125
2877.37543	1404.2125
2879.87952	1400.8125
2882.38207	1402.6125
2884.88308	1403.8125
2887.38256	1395.5125
2889.88051	1401.4125
2892.37692	1396.9125
2894.8718	1390.8125
2897.36515	1395.9125
2899.85698	1401.6125
2902.34727	1407.8125
2904.83604	1408.8125
2907.32328	1405.8125
2909.809	1410.2125
2912.29319	1411.2125
2914.77587	1408.6125
2917.25702	1415.7125
2919.73665	1416.6125
2922.21476	1413.9125
2924.69136	1412.3125
2927.16644	1411.6125
2929.64	1411.9125
2932.11205	1402.3125
2934.58258	1393.0125
2937.05161	1398.3125
2939.51912	1390.1125
2941.98513	1384.4125
2944.44962	1362.8125
2946.91261	1367.9125
2949.37409	1355.0125
2951.83407	1334.3125
2954.29254	1334.0125
2956.74951	1336.4125
2959.20498	1317.5125
2961.65895	1316.4125
2964.11142	1321.3125
2966.56239	1300.4125
2969.01186	1269.7125
2971.45984	1293.0125
2973.90632	1294.6125
2976.35131	1294.3125
2978.7948	1293.4125
2981.23681	1280.3125
2983.67732	1280.7125
2986.11635	1269.5125
2988.55388	1270.4125
2990.98993	1275.1125
2993.4245	1269.4125
2995.85758	1257.8125
2998.28917	1264.7125
3000.71928	1264.9125
3003.14791	1263.0125
3005.57506	1259.4125
3008.00073	1260.8125
3010.42493	1254.3125
3012.84764	1258.8125
3015.26888	1255.5125
3017.68865	1261.9125
3020.10694	1259.6125
3022.52376	1262.1125
3024.9391	1252.1125
3027.35298	1264.7125
3029.76539	1260.7125
3032.17632	1262.1125
3034.5858	1260.7125
3036.9938	1253.8125
3039.40034	1250.4125
3041.80542	1258.2125
3044.20903	1254.5125
3046.61118	1257.3125
3049.01187	1255.5125
3051.4111	1252.4125
3053.80888	1263.5125
3056.20519	1270.9125
3058.60005	1257.3125
3060.99345	1267.9125
3063.3854	1267.8125
3065.7759	1267.2125
3068.16494	1256.7125
3070.55254	1270.2125
3072.93868	1268.1125
3075.32338	1270.4125
3077.70662	1266.7125
3080.08842	1269.9125
3082.46878	1268.5125
3084.84769	1273.7125
3087.22515	1283.2125
3089.60118	1282.5125
3091.97576	1282.8125
3094.3489	1292.3125
3096.72061	1289.2125
3099.09087	1299.0125
3101.4597	1300.5125
3103.82709	1314.0125
3106.19305	1325.8125
3108.55757	1316.0125
3110.92066	1315.4125
3113.28232	1330.4125
3115.64255	1334.7125
3118.00134	1321.1125
3120.35871	1337.4125
3122.71466	1340.2125
3125.06917	1346.0125
