Data from AgNPs_APTES_FTO_UA_50uM_CRN_0uM_R6G_10uM_Scan_RamanShift__26__11-41-23-683.txt Node

Date: Tue Jul 05 11:41:23 BST 2022
User: TCL
Spectrometer: QEP01345
Trigger mode: 4
Integration Time (sec): 7.000000E0
Scans to average: 10
Electric dark correction enabled: true
Nonlinearity correction enabled: false
Boxcar width: 0
XAxis mode: Raman Shifts
Number of Pixels in Spectrum: 1044
>>>>>Begin Spectral Data<<<<<
46.04893	-0.175
50.45542	0.325
54.85868	-0.475
59.25871	-0.675
63.6555	37.225
68.04907	39.825
72.43941	42.425
76.82654	42.325
81.21044	46.025
85.59113	50.125
89.96862	48.225
94.34289	51.625
98.71396	57.425
103.08183	57.325
107.4465	54.925
111.80798	59.725
116.16626	56.425
120.52136	61.425
124.87327	61.025
129.222	61.025
133.56755	61.625
137.90993	61.225
142.24913	66.325
146.58517	70.425
150.91804	81.025
155.24774	89.825
159.57429	108.525
163.89768	129.625
168.21792	168.925
172.53501	221.325
176.84895	299.625
181.15975	410.925
185.46741	569.925
189.77193	788.525
194.07331	1042.025
198.37157	1323.525
202.6667	1631.425
206.9587	1937.825
211.24758	2237.625
215.53334	2537.225
219.81599	2848.425
224.09553	3197.625
228.37195	3581.225
232.64527	4001.325
236.91549	4415.525
241.18261	4830.125
245.44663	5202.925
249.70755	5505.825
253.96539	5759.025
258.22014	5949.425
262.4718	6157.025
266.72039	6271.725
270.96589	6342.825
275.20832	6304.825
279.44768	6226.825
283.68397	6111.525
287.91719	6023.525
292.14735	5971.625
296.37445	5995.025
300.59849	6075.925
304.81948	6193.425
309.03742	6287.625
313.25231	6250.725
317.46415	6078.625
321.67296	5859.325
325.87872	5624.225
330.08145	5522.125
334.28114	5483.125
338.47781	5540.025
342.67145	5626.825
346.86207	5759.425
351.04966	5948.925
355.23424	6174.325
359.4158	6380.925
363.59435	6520.725
367.76989	6616.225
371.94243	6662.025
376.11196	6708.325
380.27849	6742.925
384.44203	6759.125
388.60257	6715.425
392.76012	6717.625
396.91468	6740.825
401.06626	6823.225
405.21485	6872.825
409.36047	6784.225
413.50311	6561.025
417.64277	6348.525
421.77947	6236.525
425.9132	6182.425
430.04396	6155.325
434.17176	6181.325
438.2966	6249.725
442.41849	6312.225
446.53742	6448.425
450.6534	6530.525
454.76644	6583.125
458.87653	6575.525
462.98368	6540.025
467.08789	6478.025
471.18916	6447.025
475.2875	6388.125
479.38291	6380.325
483.4754	6383.325
487.56496	6467.625
491.6516	6527.425
495.73531	6599.925
499.81612	6577.025
503.89401	6603.325
507.96899	6583.225
512.04106	6621.825
516.11023	6701.425
520.1765	6769.825
524.23987	6826.625
528.30034	6794.225
532.35792	6738.225
536.41261	6641.125
540.46441	6533.625
544.51333	6437.525
548.55936	6415.825
552.60252	6430.225
556.64279	6499.725
560.6802	6529.925
564.71473	6544.825
568.7464	6640.725
572.7752	6723.325
576.80114	6617.625
580.82422	6530.325
584.84444	6576.325
588.86181	6648.925
592.87633	6744.425
596.888	6889.025
600.89682	6968.625
604.9028	7377.625
608.90594	8592.425
612.90624	10193.825
616.90371	10025.925
620.89834	8168.725
624.89015	7373.325
628.87913	7440.225
632.86528	7730.325
636.84862	7942.625
640.82913	7838.425
644.80683	7479.725
648.78172	7083.125
652.75379	6854.625
656.72306	6830.525
660.68952	6880.225
664.65319	6772.125
668.61405	6549.025
672.57211	6465.725
676.52738	6486.425
680.47986	6510.025
684.42955	6541.025
688.37646	6518.425
692.32058	6494.125
696.26192	6427.225
700.20048	6416.325
704.13626	6417.425
708.06928	6406.525
711.99952	6376.325
715.927	6383.725
719.85171	6422.525
723.77365	6460.725
727.69284	6479.325
731.60928	6415.925
735.52295	6365.725
739.43388	6339.425
743.34206	6326.725
747.24749	6335.325
751.15017	6322.925
755.05012	6359.425
758.94733	6491.725
762.8418	6867.625
766.73354	7570.225
770.62254	8381.425
774.50882	8860.225
778.39237	8630.125
782.27321	7755.025
786.15132	7012.425
790.02671	6542.225
793.89938	6345.325
797.76935	6287.425
801.6366	6342.825
805.50115	6458.025
809.36299	6603.725
813.22213	6609.425
817.07857	6557.725
820.93231	6421.625
824.78336	6261.425
828.63172	6152.525
832.47738	6104.925
836.32036	6062.025
840.16066	6054.025
843.99827	6062.925
847.8332	6048.325
851.66546	6027.225
855.49504	6014.925
859.32195	6019.325
863.1462	5998.525
866.96777	6033.325
870.78668	6093.425
874.60293	6195.825
878.41652	6285.525
882.22745	6424.125
886.03573	6493.325
889.84136	6517.125
893.64433	6406.225
897.44466	6288.725
901.24235	6164.925
905.0374	6047.425
908.8298	5987.525
912.61957	5937.325
916.40671	5936.425
920.19121	5950.425
923.97308	5977.525
927.75233	6030.425
931.52895	6057.725
935.30295	6026.925
939.07433	5903.525
942.84309	5782.425
946.60924	5686.725
950.37278	5621.725
954.13371	5560.425
957.89203	5528.825
961.64774	5502.025
965.40086	5441.625
969.15137	5420.225
972.89929	5391.425
976.64461	5370.625
980.38733	5326.525
984.12747	5321.425
987.86502	5293.425
991.59999	5330.325
995.33237	5360.425
999.06217	5413.925
1002.78939	5509.725
1006.51404	5607.325
1010.23611	5701.025
1013.95561	5777.625
1017.67255	5773.825
1021.38692	5712.825
1025.09872	5649.425
1028.80796	5521.525
1032.51465	5428.325
1036.21877	5408.925
1039.92035	5382.825
1043.61937	5361.325
1047.31584	5373.525
1051.00976	5391.625
1054.70114	5411.025
1058.38998	5412.025
1062.07627	5485.125
1065.76003	5500.825
1069.44126	5493.025
1073.11995	5533.225
1076.79611	5552.725
1080.46974	5585.725
1084.14085	5601.525
1087.80943	5661.725
1091.47549	5683.825
1095.13903	5600.925
1098.80005	5480.425
1102.45857	5362.425
1106.11456	5319.825
1109.76805	5375.925
1113.41903	5483.525
1117.06751	5676.025
1120.71348	5928.225
1124.35696	6283.325
1127.99793	6659.025
1131.63641	6941.325
1135.2724	6913.325
1138.90589	6696.825
1142.5369	6445.825
1146.16542	6130.025
1149.79145	5825.125
1153.415	5577.925
1157.03607	5432.225
1160.65467	5374.225
1164.27079	5412.325
1167.88443	5567.625
1171.49561	5849.725
1175.10432	6324.825
1178.71056	7047.425
1182.31434	7631.625
1185.91565	7821.325
1189.51451	7659.125
1193.11091	7312.525
1196.70485	7043.225
1200.29634	6858.225
1203.88538	6686.925
1207.47197	6391.225
1211.05612	6074.725
1214.63782	5828.325
1218.21708	5657.325
1221.79391	5536.325
1225.36829	5486.325
1228.94024	5418.825
1232.50976	5365.425
1236.07685	5309.425
1239.6415	5293.325
1243.20374	5293.425
1246.76355	5305.725
1250.32093	5356.925
1253.8759	5405.925
1257.42845	5513.525
1260.97859	5604.925
1264.52631	5743.425
1268.07163	5893.225
1271.61453	5977.325
1275.15503	6044.425
1278.69312	6037.125
1282.22882	6031.925
1285.76211	6071.325
1289.29301	6231.925
1292.82151	6401.425
1296.34761	6612.425
1299.87133	6908.125
1303.39266	7363.925
1306.9116	8025.825
1310.42815	8827.325
1313.94233	9301.425
1317.45412	9136.725
1320.96354	8566.425
1324.47058	7907.725
1327.97525	7303.125
1331.47754	6917.225
1334.97747	6750.425
1338.47502	6759.425
1341.97022	6859.925
1345.46305	7135.025
1348.95352	7654.125
1352.44163	8375.025
1355.92738	9343.625
1359.41078	10671.925
1362.89183	11926.425
1366.37053	11971.025
1369.84688	10480.625
1373.32088	8831.825
1376.79254	7733.425
1380.26186	7088.825
1383.72883	6790.625
1387.19347	6558.425
1390.65578	6315.825
1394.11575	6113.325
1397.57339	5964.525
1401.0287	5854.825
1404.48168	5742.625
1407.93234	5635.025
1411.38068	5534.025
1414.82669	5431.125
1418.27039	5345.125
1421.71177	5284.125
1425.15083	5187.025
1428.58758	5115.725
1432.02203	5101.025
1435.45416	5118.725
1438.88399	5145.025
1442.31151	5139.825
1445.73673	5124.225
1449.15965	5134.425
1452.58027	5124.825
1455.9986	5061.825
1459.41463	5058.125
1462.82837	5064.525
1466.23982	5132.325
1469.64898	5226.325
1473.05586	5257.925
1476.46045	5303.325
1479.86276	5363.025
1483.26279	5441.025
1486.66054	5541.825
1490.05602	5707.225
1493.44922	5939.625
1496.84016	6317.925
1500.22882	6932.525
1503.61521	7790.925
1506.99934	8853.025
1510.38121	9802.725
1513.76081	10263.725
1517.13816	9788.825
1520.51324	8658.725
1523.88607	7472.825
1527.25665	6658.725
1530.62498	6202.525
1533.99105	5980.725
1537.35488	5845.125
1540.71647	5719.625
1544.07581	5684.525
1547.4329	5698.425
1550.78776	5718.725
1554.14038	5771.225
1557.49077	5828.725
1560.83892	5943.425
1564.18484	6058.125
1567.52853	6222.225
1570.86999	6392.525
1574.20922	6516.225
1577.54624	6513.425
1580.88103	6265.325
1584.2136	5872.525
1587.54395	5572.725
1590.87208	5472.925
1594.19801	5569.625
1597.52172	5860.225
1600.84321	6019.825
1604.16251	5945.725
1607.47959	5749.825
1610.79447	5552.825
1614.10715	5346.425
1617.41763	5163.925
1620.7259	5051.625
1624.03199	4999.225
1627.33587	5019.525
1630.63757	5057.625
1633.93707	5166.925
1637.23439	5387.325
1640.52951	5757.425
1643.82246	6359.425
1647.11321	7109.325
1650.40179	7720.225
1653.68819	7720.925
1656.97241	7050.325
1660.25446	6107.325
1663.53433	5409.725
1666.81203	4952.625
1670.08756	4668.925
1673.36092	4480.225
1676.63211	4336.625
1679.90115	4262.425
1683.16801	4176.125
1686.43272	4101.025
1689.69527	4035.425
1692.95567	4010.325
1696.2139	3945.525
1699.46999	3885.325
1702.72392	3810.325
1705.97571	3748.825
1709.22535	3682.825
1712.47284	3609.625
1715.71819	3560.625
1718.96139	3516.825
1722.20246	3475.325
1725.44139	3435.025
1728.67818	3397.425
1731.91284	3347.325
1735.14537	3300.325
1738.37576	3265.625
1741.60403	3250.525
1744.83017	3233.925
1748.05418	3194.425
1751.27607	3200.925
1754.49584	3178.325
1757.71349	3158.825
1760.92903	3139.925
1764.14244	3119.725
1767.35375	3119.825
1770.56294	3093.725
1773.77002	3091.125
1776.97499	3067.425
1780.17785	3072.725
1783.37861	3048.525
1786.57727	3053.725
1789.77382	3033.925
1792.96828	3027.025
1796.16064	3000.325
1799.3509	2999.025
1802.53907	2988.725
1805.72514	2973.225
1808.90913	2955.025
1812.09102	2947.625
1815.27083	2932.325
1818.44856	2917.225
1821.6242	2915.525
1824.79776	2915.125
1827.96924	2902.825
1831.13864	2892.425
1834.30597	2878.425
1837.47122	2863.025
1840.6344	2856.625
1843.7955	2847.025
1846.95454	2843.825
1850.11151	2837.225
1853.26642	2828.825
1856.41926	2815.925
1859.57004	2828.925
1862.71876	2807.025
1865.86542	2813.925
1869.01003	2808.925
1872.15258	2806.425
1875.29308	2785.925
1878.43152	2779.925
1881.56792	2773.525
1884.70227	2771.125
1887.83457	2768.425
1890.96482	2754.025
1894.09304	2748.725
1897.21921	2743.325
1900.34335	2733.825
1903.46544	2728.125
1906.58551	2731.525
1909.70353	2715.625
1912.81953	2714.625
1915.93349	2708.325
1919.04543	2681.625
1922.15534	2685.125
1925.26322	2675.625
1928.36908	2659.425
1931.47292	2648.725
1934.57473	2634.925
1937.67453	2628.025
1940.77232	2620.525
1943.86808	2603.925
1946.96184	2595.125
1950.05358	2583.325
1953.14331	2565.425
1956.23103	2573.825
1959.31675	2551.425
1962.40046	2536.225
1965.48217	2529.625
1968.56188	2516.325
1971.63959	2505.325
1974.7153	2506.925
1977.78901	2482.425
1980.86073	2502.325
1983.93046	2470.925
1986.99819	2452.425
1990.06394	2446.425
1993.1277	2441.425
1996.18947	2426.925
1999.24925	2415.425
2002.30706	2402.225
2005.36288	2393.325
2008.41672	2384.325
2011.46859	2375.225
2014.51848	2359.725
2017.56639	2360.625
2020.61233	2344.825
2023.6563	2337.125
2026.6983	2331.725
2029.73833	2310.125
2032.7764	2306.225
2035.8125	2309.825
2038.84664	2291.825
2041.87881	2296.325
2044.90903	2269.725
2047.93729	2285.225
2050.96359	2266.725
2053.98794	2260.025
2057.01034	2263.225
2060.03078	2260.625
2063.04927	2252.625
2066.06582	2246.825
2069.08042	2237.025
2072.09307	2220.825
2075.10378	2232.625
2078.11255	2234.325
2081.11938	2233.025
2084.12426	2226.125
2087.12722	2227.825
2090.12824	2218.325
2093.12732	2211.525
2096.12447	2207.325
2099.11969	2201.425
2102.11299	2194.725
2105.10435	2197.125
2108.09379	2204.325
2111.08131	2191.825
2114.0669	2196.125
2117.05057	2201.625
2120.03233	2204.625
2123.01216	2201.425
2125.99008	2203.125
2128.96609	2190.125
2131.94018	2193.925
2134.91236	2193.725
2137.88263	2192.425
2140.851	2183.325
2143.81746	2196.525
2146.78201	2174.725
2149.74466	2182.225
2152.7054	2162.625
2155.66425	2170.425
2158.6212	2150.925
2161.57625	2146.325
2164.52941	2143.425
2167.48067	2144.025
2170.43004	2151.725
2173.37752	2147.725
2176.32311	2142.725
2179.26681	2138.025
2182.20863	2123.125
2185.14856	2142.025
2188.08661	2130.425
2191.02278	2115.725
2193.95707	2110.925
2196.88948	2111.025
2199.82001	2110.425
2202.74867	2101.025
2205.67545	2094.625
2208.60037	2094.325
2211.52341	2096.325
2214.44458	2080.525
2217.36388	2066.525
2220.28132	2057.425
2223.1969	2065.225
2226.11061	2065.625
2229.02246	2045.925
2231.93245	2032.425
2234.84058	2037.525
2237.74686	2038.125
2240.65128	2025.925
2243.55385	2013.325
2246.45456	2013.725
2249.35343	2009.025
2252.25044	2005.525
2255.14561	1997.525
2258.03893	1996.725
2260.93041	1995.725
2263.82004	1986.625
2266.70783	1976.425
2269.59378	1972.425
2272.4779	1959.825
2275.36017	1961.525
2278.24061	1952.925
2281.11922	1947.425
2283.996	1944.125
2286.87094	1931.625
2289.74405	1932.125
2292.61534	1915.825
2295.4848	1906.725
2298.35243	1907.325
2301.21824	1910.525
2304.08223	1897.925
2306.94439	1894.325
2309.80474	1877.725
2312.66327	1892.825
2315.51999	1890.625
2318.37489	1874.425
2321.22797	1886.925
2324.07925	1871.825
2326.92871	1863.525
2329.77637	1865.525
2332.62222	1857.225
2335.46626	1845.225
2338.3085	1846.925
2341.14893	1845.425
2343.98756	1840.725
2346.8244	1832.725
2349.65943	1832.125
2352.49267	1828.525
2355.32411	1831.225
2358.15376	1834.425
2360.98161	1834.025
2363.80768	1837.925
2366.63195	1836.325
2369.45444	1842.225
2372.27514	1837.925
2375.09405	1826.825
2377.91118	1824.125
2380.72652	1809.925
2383.54009	1809.025
2386.35187	1795.225
2389.16188	1779.025
2391.97011	1778.625
2394.77657	1764.325
2397.58125	1761.525
2400.38416	1763.825
2403.18529	1744.925
2405.98466	1743.925
2408.78226	1735.025
2411.57809	1738.325
2414.37216	1731.925
2417.16446	1722.725
2419.955	1726.725
2422.74378	1723.325
2425.5308	1716.825
2428.31606	1709.925
2431.09956	1719.625
2433.88131	1701.825
2436.6613	1705.725
2439.43954	1708.325
2442.21603	1698.525
2444.99077	1691.325
2447.76377	1692.125
2450.53501	1691.325
2453.30451	1682.825
2456.07226	1677.625
2458.83827	1687.125
2461.60254	1679.925
2464.36507	1675.525
2467.12586	1683.225
2469.88492	1675.525
2472.64224	1662.225
2475.39782	1676.025
2478.15167	1668.725
2480.90379	1663.725
2483.65417	1667.725
2486.40283	1666.825
2489.14976	1667.325
2491.89497	1673.825
2494.63845	1668.625
2497.3802	1660.525
2500.12024	1649.025
2502.85855	1643.325
2505.59514	1654.525
2508.33002	1642.125
2511.06318	1633.125
2513.79462	1620.325
2516.52435	1608.625
2519.25237	1602.025
2521.97867	1598.125
2524.70327	1591.925
2527.42616	1581.725
2530.14734	1583.525
2532.86681	1577.225
2535.58458	1570.625
2538.30065	1573.125
2541.01501	1572.825
2543.72768	1566.825
2546.43864	1560.525
2549.14791	1555.225
2551.85548	1555.525
2554.56136	1551.725
2557.26554	1547.625
2559.96803	1546.825
2562.66883	1543.825
2565.36794	1535.225
2568.06536	1534.425
2570.7611	1530.525
2573.45514	1515.725
2576.14751	1514.025
2578.83819	1508.825
2581.52719	1513.525
2584.21451	1503.125
2586.90015	1493.125
2589.58411	1493.225
2592.2664	1487.025
2594.94701	1487.025
2597.62594	1483.925
2600.30321	1474.325
2602.9788	1477.525
2605.65273	1473.125
2608.32498	1468.425
2610.99557	1467.225
2613.66449	1468.825
2616.33175	1464.525
2618.99734	1460.625
2621.66128	1458.425
2624.32355	1447.525
2626.98416	1456.625
2629.64311	1443.025
2632.30041	1440.025
2634.95605	1440.725
2637.61004	1427.625
2640.26238	1431.425
2642.91306	1435.425
2645.56209	1422.725
2648.20948	1426.225
2650.85521	1421.825
2653.4993	1414.225
2656.14175	1422.525
2658.78255	1411.725
2661.42171	1418.425
2664.05923	1416.825
2666.6951	1417.725
2669.32934	1416.325
2671.96194	1415.225
2674.59291	1417.025
2677.22224	1417.125
2679.84993	1414.725
2682.476	1414.625
2685.10043	1413.525
2687.72324	1414.125
2690.34441	1400.425
2692.96396	1404.925
2695.58188	1401.325
2698.19818	1401.025
2700.81285	1407.125
2703.4259	1404.625
2706.03733	1395.525
2708.64714	1401.225
2711.25533	1408.925
2713.86191	1407.225
2716.46687	1404.225
2719.07021	1411.525
2721.67194	1402.625
2724.27206	1400.325
2726.87057	1408.025
2729.46747	1401.125
2732.06276	1409.525
2734.65644	1403.025
2737.24852	1398.825
2739.83899	1397.725
2742.42786	1392.425
2745.01513	1392.225
2747.60079	1377.825
2750.18486	1379.425
2752.76733	1378.825
2755.3482	1377.125
2757.92747	1379.025
2760.50515	1382.325
2763.08123	1372.825
2765.65573	1367.625
2768.22863	1364.525
2770.79994	1356.725
2773.36967	1360.825
2775.9378	1360.525
2778.50435	1353.325
2781.06932	1350.825
2783.6327	1343.625
2786.1945	1353.325
2788.75471	1348.625
2791.31335	1356.725
2793.87041	1342.325
2796.42589	1341.425
2798.97979	1341.925
2801.53212	1339.225
2804.08288	1338.325
2806.63206	1340.625
2809.17967	1332.425
2811.72571	1338.825
2814.27018	1327.725
2816.81308	1328.725
2819.35442	1325.425
2821.89419	1324.525
2824.43239	1332.425
2826.96904	1330.025
2829.50412	1324.925
2832.03763	1321.525
2834.56959	1327.225
2837.1	1340.825
2839.62884	1338.425
2842.15613	1334.925
2844.68186	1354.725
2847.20604	1360.825
2849.72867	1372.725
2852.24974	1372.025
2854.76927	1369.125
2857.28724	1366.525
2859.80367	1367.725
2862.31855	1370.225
2864.83189	1370.125
2867.34368	1374.625
2869.85393	1374.625
2872.36264	1367.125
2874.8698	1378.825
2877.37543	1379.225
2879.87952	1382.625
2882.38207	1377.125
2884.88308	1372.325
2887.38256	1369.525
2889.88051	1366.725
2892.37692	1367.425
2894.8718	1381.625
2897.36515	1373.025
2899.85698	1376.925
2902.34727	1377.625
2904.83604	1382.225
2907.32328	1377.725
2909.809	1391.925
2912.29319	1387.125
2914.77587	1390.925
2917.25702	1386.825
2919.73665	1385.625
2922.21476	1395.325
2924.69136	1382.625
2927.16644	1381.325
2929.64	1386.925
2932.11205	1380.425
2934.58258	1375.325
2937.05161	1379.325
2939.51912	1370.825
2941.98513	1372.125
2944.44962	1359.425
2946.91261	1334.525
2949.37409	1332.325
2951.83407	1317.725
2954.29254	1322.525
2956.74951	1305.625
2959.20498	1303.325
2961.65895	1299.325
2964.11142	1292.625
2966.56239	1286.025
2969.01186	1249.925
2971.45984	1271.125
2973.90632	1270.425
2976.35131	1274.325
2978.7948	1263.625
2981.23681	1262.425
2983.67732	1263.325
2986.11635	1246.425
2988.55388	1256.025
2990.98993	1247.825
2993.4245	1249.225
2995.85758	1249.925
2998.28917	1251.025
3000.71928	1239.125
3003.14791	1233.725
3005.57506	1237.525
3008.00073	1237.225
3010.42493	1237.325
3012.84764	1236.625
3015.26888	1236.025
3017.68865	1229.325
3020.10694	1235.925
3022.52376	1235.625
3024.9391	1228.925
3027.35298	1233.925
3029.76539	1225.625
3032.17632	1236.525
3034.5858	1227.825
3036.9938	1235.625
3039.40034	1234.425
3041.80542	1237.925
3044.20903	1228.325
3046.61118	1237.625
3049.01187	1232.225
3051.4111	1227.325
3053.80888	1238.325
3056.20519	1233.125
3058.60005	1238.025
3060.99345	1232.625
3063.3854	1225.925
3065.7759	1236.825
3068.16494	1237.625
3070.55254	1238.025
3072.93868	1231.225
3075.32338	1229.525
3077.70662	1232.325
3080.08842	1234.625
3082.46878	1242.225
3084.84769	1243.625
3087.22515	1249.225
3089.60118	1253.325
3091.97576	1253.925
3094.3489	1257.625
3096.72061	1254.925
3099.09087	1272.625
3101.4597	1277.425
3103.82709	1275.825
3106.19305	1285.025
3108.55757	1281.925
3110.92066	1288.225
3113.28232	1297.225
3115.64255	1294.525
3118.00134	1297.525
3120.35871	1301.225
3122.71466	1302.525
3125.06917	1309.425
3127.42226	1312.925
3129.77393	1324.625
3132.12417	1330.225
3134.47299	1333.625
3136.82039	1339.525
3139.16636	1339.825
3141.51092	1349.425
3143.85406	1356.825
3146.19579	1364.325
3148.53609	1365.625
3150.87499	1376.925
3153.21246	1384.225
3155.54853	1393.225
3157.88318	1400.225
3160.21642	1403.125
3162.54826	1425.725
3164.87868	1423.125
3167.2077	1439.825
3169.5353	1431.825
3171.86151	1439.125
3174.18631	1455.325
3176.5097	1457.625
3178.83169	1453.625
3181.15228	1467.125
3183.47147	1479.125
3185.78926	1472.825
3188.10565	1471.225
3190.42065	1482.825
3192.73424	1487.325
3195.04645	1499.725
3197.35725	1491.125
3199.66667	1493.025
3201.97469	1502.225
3204.28132	1514.225
3206.58656	1519.725
3208.8904	1522.425
3211.19287	1524.725
3213.49394	1530.525
3215.79363	1534.125
3218.09193	1544.225
3220.38884	1539.625
3222.68438	1543.625
3224.97853	1552.525
3227.2713	1560.625
3229.56269	1555.225
3231.8527	1559.925
3234.14133	1565.025
3236.42858	1553.325
