Data from AgNPs_APTES_FTO_UA_50uM_CRN_0uM_R6G_10uM_Scan_RamanShift__6__11-18-03-655.txt Node

Date: Tue Jul 05 11:18:03 BST 2022
User: TCL
Spectrometer: QEP01345
Trigger mode: 4
Integration Time (sec): 7.000000E0
Scans to average: 10
Electric dark correction enabled: true
Nonlinearity correction enabled: false
Boxcar width: 0
XAxis mode: Raman Shifts
Number of Pixels in Spectrum: 1044
>>>>>Begin Spectral Data<<<<<
46.04893	-1.4125
50.45542	0.2875
54.85868	1.0875
59.25871	0.4875
63.6555	37.4875
68.04907	42.9875
72.43941	46.4875
76.82654	47.6875
81.21044	54.2875
85.59113	59.8875
89.96862	58.3875
94.34289	59.2875
98.71396	62.4875
103.08183	64.9875
107.4465	64.6875
111.80798	66.4875
116.16626	61.7875
120.52136	61.4875
124.87327	69.0875
129.222	70.7875
133.56755	69.1875
137.90993	66.5875
142.24913	71.9875
146.58517	77.1875
150.91804	82.1875
155.24774	92.7875
159.57429	107.1875
163.89768	130.7875
168.21792	159.0875
172.53501	206.0875
176.84895	280.0875
181.15975	380.2875
185.46741	526.8875
189.77193	719.8875
194.07331	963.0875
198.37157	1245.8875
202.6667	1537.4875
206.9587	1846.3875
211.24758	2163.7875
215.53334	2485.5875
219.81599	2832.2875
224.09553	3229.7875
228.37195	3632.0875
232.64527	4073.1875
236.91549	4501.3875
241.18261	4874.6875
245.44663	5204.4875
249.70755	5454.1875
253.96539	5643.4875
258.22014	5822.9875
262.4718	5954.2875
266.72039	6021.1875
270.96589	6008.1875
275.20832	5921.7875
279.44768	5759.9875
283.68397	5565.9875
287.91719	5419.2875
292.14735	5347.4875
296.37445	5379.9875
300.59849	5558.1875
304.81948	5815.7875
309.03742	6086.7875
313.25231	6206.0875
317.46415	6038.1875
321.67296	5608.4875
325.87872	5132.8875
330.08145	4867.9875
334.28114	4775.4875
338.47781	4847.2875
342.67145	5001.1875
346.86207	5206.0875
351.04966	5552.1875
355.23424	5901.2875
359.4158	6071.2875
363.59435	6061.4875
367.76989	5938.6875
371.94243	5813.4875
376.11196	5705.1875
380.27849	5591.3875
384.44203	5530.3875
388.60257	5447.8875
392.76012	5408.3875
396.91468	5476.7875
401.06626	5560.9875
405.21485	5651.3875
409.36047	5528.3875
413.50311	5295.9875
417.64277	5194.5875
421.77947	5119.3875
425.9132	4741.3875
430.04396	4562.7875
434.17176	4548.6875
438.2966	4598.7875
442.41849	4703.4875
446.53742	4798.4875
450.6534	4895.6875
454.76644	4938.0875
458.87653	4921.3875
462.98368	4854.6875
467.08789	4796.3875
471.18916	4729.2875
475.2875	4618.3875
479.38291	4534.9875
483.4754	4502.6875
487.56496	4461.9875
491.6516	4457.4875
495.73531	4497.8875
499.81612	4531.6875
503.89401	4592.8875
507.96899	4667.3875
512.04106	4764.7875
516.11023	4868.8875
520.1765	4944.4875
524.23987	4949.4875
528.30034	4893.7875
532.35792	4852.6875
536.41261	4774.9875
540.46441	4653.9875
544.51333	4586.4875
548.55936	4561.3875
552.60252	4627.8875
556.64279	4757.5875
560.6802	4856.5875
564.71473	5003.0875
568.7464	5248.7875
572.7752	5329.2875
576.80114	5022.5875
580.82422	4732.7875
584.84444	4623.5875
588.86181	4677.3875
592.87633	4755.0875
596.888	4879.8875
600.89682	5087.7875
604.9028	5813.9875
608.90594	7836.3875
612.90624	10549.5875
616.90371	10416.7875
620.89834	7216.2875
624.89015	5458.2875
628.87913	5066.2875
632.86528	5128.0875
636.84862	5203.0875
640.82913	5079.8875
644.80683	4766.7875
648.78172	4541.0875
652.75379	4527.2875
656.72306	4732.3875
660.68952	4978.8875
664.65319	4944.3875
668.61405	4656.4875
672.57211	4539.8875
676.52738	4629.8875
680.47986	4818.0875
684.42955	4989.8875
688.37646	5104.9875
692.32058	5043.0875
696.26192	4896.9875
700.20048	4770.0875
704.13626	4699.1875
708.06928	4663.9875
711.99952	4613.7875
715.927	4566.6875
719.85171	4592.1875
723.77365	4580.2875
727.69284	4544.5875
731.60928	4497.5875
735.52295	4484.9875
739.43388	4476.1875
743.34206	4483.0875
747.24749	4478.8875
751.15017	4481.8875
755.05012	4552.2875
758.94733	4831.6875
762.8418	5541.1875
766.73354	6688.7875
770.62254	7798.6875
774.50882	8161.6875
778.39237	7698.4875
782.27321	6697.9875
786.15132	5650.5875
790.02671	4989.7875
793.89938	4678.2875
797.76935	4549.4875
801.6366	4523.4875
805.50115	4503.7875
809.36299	4510.2875
813.22213	4524.4875
817.07857	4507.5875
820.93231	4480.0875
824.78336	4488.8875
828.63172	4493.4875
832.47738	4487.7875
836.32036	4449.7875
840.16066	4434.7875
843.99827	4415.6875
847.8332	4424.3875
851.66546	4424.5875
855.49504	4416.9875
859.32195	4403.2875
863.1462	4376.6875
866.96777	4384.0875
870.78668	4402.5875
874.60293	4439.5875
878.41652	4479.6875
882.22745	4538.3875
886.03573	4606.4875
889.84136	4652.0875
893.64433	4698.4875
897.44466	4721.8875
901.24235	4775.3875
905.0374	4809.0875
908.8298	4840.5875
912.61957	4905.2875
916.40671	5004.7875
920.19121	5145.9875
923.97308	5273.1875
927.75233	5438.8875
931.52895	5542.8875
935.30295	5442.5875
939.07433	5173.7875
942.84309	4910.5875
946.60924	4716.3875
950.37278	4573.1875
954.13371	4459.0875
957.89203	4387.0875
961.64774	4306.0875
965.40086	4243.7875
969.15137	4170.9875
972.89929	4113.4875
976.64461	4070.2875
980.38733	4038.7875
984.12747	3998.6875
987.86502	3984.3875
991.59999	3988.2875
995.33237	4008.2875
999.06217	4019.9875
1002.78939	4078.2875
1006.51404	4178.4875
1010.23611	4254.6875
1013.95561	4275.5875
1017.67255	4263.9875
1021.38692	4231.0875
1025.09872	4176.3875
1028.80796	4122.2875
1032.51465	4103.7875
1036.21877	4099.2875
1039.92035	4114.4875
1043.61937	4143.4875
1047.31584	4176.6875
1051.00976	4204.7875
1054.70114	4177.0875
1058.38998	4159.3875
1062.07627	4166.1875
1065.76003	4150.0875
1069.44126	4131.8875
1073.11995	4119.1875
1076.79611	4189.1875
1080.46974	4263.7875
1084.14085	4421.4875
1087.80943	4605.1875
1091.47549	4644.7875
1095.13903	4487.4875
1098.80005	4280.6875
1102.45857	4121.3875
1106.11456	4078.0875
1109.76805	4111.5875
1113.41903	4229.5875
1117.06751	4413.8875
1120.71348	4705.8875
1124.35696	5057.7875
1127.99793	5423.1875
1131.63641	5456.5875
1135.2724	5095.2875
1138.90589	4746.6875
1142.5369	4513.8875
1146.16542	4346.0875
1149.79145	4212.2875
1153.415	4112.7875
1157.03607	4116.6875
1160.65467	4153.2875
1164.27079	4301.7875
1167.88443	4511.9875
1171.49561	4899.5875
1175.10432	5551.8875
1178.71056	6519.9875
1182.31434	7327.1875
1185.91565	7505.6875
1189.51451	7098.9875
1193.11091	6482.6875
1196.70485	5895.8875
1200.29634	5501.0875
1203.88538	5232.3875
1207.47197	4826.2875
1211.05612	4458.4875
1214.63782	4234.8875
1218.21708	4135.5875
1221.79391	4095.3875
1225.36829	4084.4875
1228.94024	4129.0875
1232.50976	4110.3875
1236.07685	4100.7875
1239.6415	4097.5875
1243.20374	4119.9875
1246.76355	4173.4875
1250.32093	4227.3875
1253.8759	4319.8875
1257.42845	4450.3875
1260.97859	4639.0875
1264.52631	4868.3875
1268.07163	5065.1875
1271.61453	5228.0875
1275.15503	5306.7875
1278.69312	5280.6875
1282.22882	5268.9875
1285.76211	5410.9875
1289.29301	5722.2875
1292.82151	6027.5875
1296.34761	6282.4875
1299.87133	6675.2875
1303.39266	7319.5875
1306.9116	8461.5875
1310.42815	9870.0875
1313.94233	10738.0875
1317.45412	10302.7875
1320.96354	9061.2875
1324.47058	7768.2875
1327.97525	6708.7875
1331.47754	6046.8875
1334.97747	5762.9875
1338.47502	5747.8875
1341.97022	5974.6875
1345.46305	6555.0875
1348.95352	7470.6875
1352.44163	8568.5875
1355.92738	9842.9875
1359.41078	11825.6875
1362.89183	14176.0875
1366.37053	14539.8875
1369.84688	12025.8875
1373.32088	9098.9875
1376.79254	7376.9875
1380.26186	6630.5875
1383.72883	6229.5875
1387.19347	5888.4875
1390.65578	5587.9875
1394.11575	5372.1875
1397.57339	5238.2875
1401.0287	5121.5875
1404.48168	5013.0875
1407.93234	4894.4875
1411.38068	4811.5875
1414.82669	4806.2875
1418.27039	4851.6875
1421.71177	4865.7875
1425.15083	4814.5875
1428.58758	4716.6875
1432.02203	4704.3875
1435.45416	4774.4875
1438.88399	4770.4875
1442.31151	4670.6875
1445.73673	4648.6875
1449.15965	4618.3875
1452.58027	4568.0875
1455.9986	4501.5875
1459.41463	4456.6875
1462.82837	4469.2875
1466.23982	4526.7875
1469.64898	4641.4875
1473.05586	4733.2875
1476.46045	4746.6875
1479.86276	4802.6875
1483.26279	4912.6875
1486.66054	5108.2875
1490.05602	5342.3875
1493.44922	5731.3875
1496.84016	6410.1875
1500.22882	7474.4875
1503.61521	9038.0875
1506.99934	10957.4875
1510.38121	12868.0875
1513.76081	13839.4875
1517.13816	13007.7875
1520.51324	10851.0875
1523.88607	8693.0875
1527.25665	7119.0875
1530.62498	6182.8875
1533.99105	5664.8875
1537.35488	5324.9875
1540.71647	5073.4875
1544.07581	4972.2875
1547.4329	4906.6875
1550.78776	4944.2875
1554.14038	5013.9875
1557.49077	5134.1875
1560.83892	5319.5875
1564.18484	5599.6875
1567.52853	5992.2875
1570.86999	6366.6875
1574.20922	6585.5875
1577.54624	6546.8875
1580.88103	6151.4875
1584.2136	5404.5875
1587.54395	4856.3875
1590.87208	4633.6875
1594.19801	4714.5875
1597.52172	4996.6875
1600.84321	5112.4875
1604.16251	4942.2875
1607.47959	4662.6875
1610.79447	4467.9875
1614.10715	4253.7875
1617.41763	4061.5875
1620.7259	3931.1875
1624.03199	3880.6875
1627.33587	3910.7875
1630.63757	4002.7875
1633.93707	4163.6875
1637.23439	4463.8875
1640.52951	4982.8875
1643.82246	5898.8875
1647.11321	7158.0875
1650.40179	8352.1875
1653.68819	8538.1875
1656.97241	7464.5875
1660.25446	5942.3875
1663.53433	4784.2875
1666.81203	4092.9875
1670.08756	3686.8875
1673.36092	3490.2875
1676.63211	3333.0875
1679.90115	3267.2875
1683.16801	3198.4875
1686.43272	3159.1875
1689.69527	3133.1875
1692.95567	3100.3875
1696.2139	3074.0875
1699.46999	3045.1875
1702.72392	3024.9875
1705.97571	3007.6875
1709.22535	2989.3875
1712.47284	2929.4875
1715.71819	2912.2875
1718.96139	2887.5875
1722.20246	2842.2875
1725.44139	2814.9875
1728.67818	2772.9875
1731.91284	2744.6875
1735.14537	2701.0875
1738.37576	2667.1875
1741.60403	2647.5875
1744.83017	2628.3875
1748.05418	2616.2875
1751.27607	2612.9875
1754.49584	2587.4875
1757.71349	2583.1875
1760.92903	2569.5875
1764.14244	2545.7875
1767.35375	2545.9875
1770.56294	2533.5875
1773.77002	2520.6875
1776.97499	2509.8875
1780.17785	2484.0875
1783.37861	2484.6875
1786.57727	2470.8875
1789.77382	2467.3875
1792.96828	2442.3875
1796.16064	2440.0875
1799.3509	2425.3875
1802.53907	2429.3875
1805.72514	2417.5875
1808.90913	2393.0875
1812.09102	2388.4875
1815.27083	2375.5875
1818.44856	2348.5875
1821.6242	2347.6875
1824.79776	2332.7875
1827.96924	2327.0875
1831.13864	2319.2875
1834.30597	2308.6875
1837.47122	2308.9875
1840.6344	2287.7875
1843.7955	2276.6875
1846.95454	2269.7875
1850.11151	2274.5875
1853.26642	2263.8875
1856.41926	2260.1875
1859.57004	2252.4875
1862.71876	2246.1875
1865.86542	2243.3875
1869.01003	2245.1875
1872.15258	2235.2875
1875.29308	2234.3875
1878.43152	2230.1875
1881.56792	2228.1875
1884.70227	2213.2875
1887.83457	2212.8875
1890.96482	2190.0875
1894.09304	2203.7875
1897.21921	2191.5875
1900.34335	2185.9875
1903.46544	2176.4875
1906.58551	2179.6875
1909.70353	2172.4875
1912.81953	2170.9875
1915.93349	2181.6875
1919.04543	2163.6875
1922.15534	2158.6875
1925.26322	2155.4875
1928.36908	2140.6875
1931.47292	2139.7875
1934.57473	2117.7875
1937.67453	2118.5875
1940.77232	2093.6875
1943.86808	2094.5875
1946.96184	2093.2875
1950.05358	2073.1875
1953.14331	2067.8875
1956.23103	2069.4875
1959.31675	2061.5875
1962.40046	2063.7875
1965.48217	2058.6875
1968.56188	2051.2875
1971.63959	2040.4875
1974.7153	2041.7875
1977.78901	2035.4875
1980.86073	2024.5875
1983.93046	2013.2875
1986.99819	2001.9875
1990.06394	2008.1875
1993.1277	1993.3875
1996.18947	1986.6875
1999.24925	1977.4875
2002.30706	1962.6875
2005.36288	1947.5875
2008.41672	1943.3875
2011.46859	1941.0875
2014.51848	1932.6875
2017.56639	1935.9875
2020.61233	1919.6875
2023.6563	1907.4875
2026.6983	1900.6875
2029.73833	1895.1875
2032.7764	1887.3875
2035.8125	1883.1875
2038.84664	1883.6875
2041.87881	1872.6875
2044.90903	1881.5875
2047.93729	1868.7875
2050.96359	1880.7875
2053.98794	1867.1875
2057.01034	1861.6875
2060.03078	1861.2875
2063.04927	1867.4875
2066.06582	1864.2875
2069.08042	1864.5875
2072.09307	1850.4875
2075.10378	1859.4875
2078.11255	1858.8875
2081.11938	1879.1875
2084.12426	1883.3875
2087.12722	1885.9875
2090.12824	1885.0875
2093.12732	1889.6875
2096.12447	1894.2875
2099.11969	1895.4875
2102.11299	1892.6875
2105.10435	1905.6875
2108.09379	1900.7875
2111.08131	1897.8875
2114.0669	1893.2875
2117.05057	1908.7875
2120.03233	1894.9875
2123.01216	1900.1875
2125.99008	1889.0875
2128.96609	1892.6875
2131.94018	1885.7875
2134.91236	1877.2875
2137.88263	1870.7875
2140.851	1865.1875
2143.81746	1855.3875
2146.78201	1843.1875
2149.74466	1825.6875
2152.7054	1814.7875
2155.66425	1812.6875
2158.6212	1793.0875
2161.57625	1787.9875
2164.52941	1780.3875
2167.48067	1779.5875
2170.43004	1784.5875
2173.37752	1772.9875
2176.32311	1768.4875
2179.26681	1770.9875
2182.20863	1759.3875
2185.14856	1758.4875
2188.08661	1763.6875
2191.02278	1755.4875
2193.95707	1747.3875
2196.88948	1740.6875
2199.82001	1748.7875
2202.74867	1741.2875
2205.67545	1731.6875
2208.60037	1731.0875
2211.52341	1725.7875
2214.44458	1717.3875
2217.36388	1710.2875
2220.28132	1704.5875
2223.1969	1704.8875
2226.11061	1693.2875
2229.02246	1695.6875
2231.93245	1679.7875
2234.84058	1676.0875
2237.74686	1678.5875
2240.65128	1683.3875
2243.55385	1682.5875
2246.45456	1668.8875
2249.35343	1666.9875
2252.25044	1664.9875
2255.14561	1667.9875
2258.03893	1659.9875
2260.93041	1659.5875
2263.82004	1656.8875
2266.70783	1661.0875
2269.59378	1649.1875
2272.4779	1650.2875
2275.36017	1634.3875
2278.24061	1640.1875
2281.11922	1639.1875
2283.996	1637.2875
2286.87094	1623.2875
2289.74405	1620.7875
2292.61534	1619.1875
2295.4848	1599.4875
2298.35243	1596.7875
2301.21824	1606.3875
2304.08223	1598.3875
2306.94439	1591.5875
2309.80474	1587.3875
2312.66327	1582.5875
2315.51999	1587.4875
2318.37489	1578.4875
2321.22797	1580.3875
2324.07925	1567.0875
2326.92871	1574.9875
2329.77637	1567.5875
2332.62222	1573.3875
2335.46626	1553.9875
2338.3085	1561.7875
2341.14893	1552.8875
2343.98756	1556.2875
2346.8244	1551.0875
2349.65943	1550.9875
2352.49267	1549.9875
2355.32411	1550.4875
2358.15376	1567.0875
2360.98161	1570.2875
2363.80768	1569.8875
2366.63195	1572.0875
2369.45444	1569.6875
2372.27514	1581.3875
2375.09405	1578.6875
2377.91118	1571.4875
2380.72652	1558.2875
2383.54009	1540.2875
2386.35187	1541.1875
2389.16188	1529.6875
2391.97011	1525.6875
2394.77657	1511.7875
2397.58125	1493.0875
2400.38416	1501.4875
2403.18529	1483.1875
2405.98466	1474.5875
2408.78226	1480.5875
2411.57809	1478.6875
2414.37216	1462.8875
2417.16446	1468.3875
2419.955	1470.3875
2422.74378	1473.1875
2425.5308	1466.6875
2428.31606	1468.4875
2431.09956	1466.0875
2433.88131	1461.5875
2436.6613	1466.5875
2439.43954	1459.8875
2442.21603	1461.8875
2444.99077	1469.5875
2447.76377	1468.2875
2450.53501	1467.4875
2453.30451	1463.3875
2456.07226	1456.6875
2458.83827	1462.1875
2461.60254	1457.3875
2464.36507	1458.9875
2467.12586	1452.5875
2469.88492	1448.4875
2472.64224	1446.4875
2475.39782	1451.9875
2478.15167	1454.7875
2480.90379	1439.9875
2483.65417	1453.7875
2486.40283	1460.4875
2489.14976	1464.4875
2491.89497	1459.9875
2494.63845	1465.9875
2497.3802	1458.0875
2500.12024	1451.3875
2502.85855	1454.0875
2505.59514	1452.0875
2508.33002	1441.1875
2511.06318	1424.1875
2513.79462	1407.8875
2516.52435	1398.3875
2519.25237	1392.6875
2521.97867	1398.0875
2524.70327	1382.1875
2527.42616	1369.4875
2530.14734	1363.5875
2532.86681	1357.3875
2535.58458	1356.7875
2538.30065	1363.6875
2541.01501	1357.6875
2543.72768	1358.9875
2546.43864	1354.3875
2549.14791	1342.7875
2551.85548	1353.8875
2554.56136	1353.4875
2557.26554	1351.5875
2559.96803	1346.0875
2562.66883	1348.4875
2565.36794	1345.6875
2568.06536	1338.0875
2570.7611	1343.8875
2573.45514	1338.9875
2576.14751	1338.7875
2578.83819	1324.8875
2581.52719	1326.9875
2584.21451	1312.2875
2586.90015	1311.6875
2589.58411	1305.2875
2592.2664	1303.6875
2594.94701	1304.7875
2597.62594	1302.2875
2600.30321	1296.9875
2602.9788	1299.0875
2605.65273	1296.1875
2608.32498	1298.1875
2610.99557	1292.3875
2613.66449	1290.4875
2616.33175	1294.2875
2618.99734	1289.0875
2621.66128	1280.7875
2624.32355	1284.2875
2626.98416	1279.8875
2629.64311	1269.9875
2632.30041	1274.1875
2634.95605	1269.2875
2637.61004	1262.3875
2640.26238	1259.6875
2642.91306	1252.3875
2645.56209	1249.9875
2648.20948	1249.1875
2650.85521	1257.7875
2653.4993	1249.2875
2656.14175	1254.8875
2658.78255	1256.3875
2661.42171	1256.7875
2664.05923	1263.0875
2666.6951	1265.8875
2669.32934	1263.8875
2671.96194	1263.1875
2674.59291	1266.6875
2677.22224	1276.0875
2679.84993	1264.4875
2682.476	1267.4875
2685.10043	1266.6875
2687.72324	1265.9875
2690.34441	1268.3875
2692.96396	1260.5875
2695.58188	1259.5875
2698.19818	1250.5875
2700.81285	1260.4875
2703.4259	1257.1875
2706.03733	1254.6875
2708.64714	1247.7875
2711.25533	1250.4875
2713.86191	1253.4875
2716.46687	1258.6875
2719.07021	1259.4875
2721.67194	1259.7875
2724.27206	1263.3875
2726.87057	1255.1875
2729.46747	1258.9875
2732.06276	1252.7875
2734.65644	1251.1875
2737.24852	1253.7875
2739.83899	1239.6875
2742.42786	1245.4875
2745.01513	1244.6875
2747.60079	1248.7875
2750.18486	1233.7875
2752.76733	1226.0875
2755.3482	1226.3875
2757.92747	1223.4875
2760.50515	1213.6875
2763.08123	1232.2875
2765.65573	1215.1875
2768.22863	1214.6875
2770.79994	1205.4875
2773.36967	1203.3875
2775.9378	1197.6875
2778.50435	1203.8875
2781.06932	1201.6875
2783.6327	1200.8875
2786.1945	1205.9875
2788.75471	1192.6875
2791.31335	1187.1875
2793.87041	1191.9875
2796.42589	1187.9875
2798.97979	1180.2875
2801.53212	1182.0875
2804.08288	1184.3875
2806.63206	1185.0875
2809.17967	1179.2875
2811.72571	1179.1875
2814.27018	1184.5875
2816.81308	1180.2875
2819.35442	1177.5875
2821.89419	1172.9875
2824.43239	1183.7875
2826.96904	1187.3875
2829.50412	1186.2875
2832.03763	1185.4875
2834.56959	1175.6875
2837.1	1188.2875
2839.62884	1182.3875
2842.15613	1186.5875
2844.68186	1204.8875
2847.20604	1207.6875
2849.72867	1224.5875
2852.24974	1223.7875
2854.76927	1219.5875
2857.28724	1224.8875
2859.80367	1231.6875
2862.31855	1236.5875
2864.83189	1231.5875
2867.34368	1235.5875
2869.85393	1236.3875
2872.36264	1243.6875
2874.8698	1236.8875
2877.37543	1243.8875
2879.87952	1243.2875
2882.38207	1240.4875
2884.88308	1246.6875
2887.38256	1236.1875
2889.88051	1239.1875
2892.37692	1238.8875
2894.8718	1245.6875
2897.36515	1247.1875
2899.85698	1250.4875
2902.34727	1260.3875
2904.83604	1276.4875
2907.32328	1283.2875
2909.809	1296.5875
2912.29319	1291.9875
2914.77587	1309.8875
2917.25702	1325.1875
2919.73665	1312.9875
2922.21476	1322.5875
2924.69136	1314.5875
2927.16644	1314.9875
2929.64	1316.7875
2932.11205	1305.0875
2934.58258	1303.7875
2937.05161	1302.9875
2939.51912	1303.4875
2941.98513	1295.0875
2944.44962	1277.3875
2946.91261	1265.5875
2949.37409	1256.4875
2951.83407	1243.0875
2954.29254	1235.8875
2956.74951	1229.2875
2959.20498	1218.9875
2961.65895	1214.0875
2964.11142	1212.1875
2966.56239	1199.0875
2969.01186	1160.0875
2971.45984	1181.1875
2973.90632	1189.1875
2976.35131	1178.4875
2978.7948	1174.0875
2981.23681	1170.1875
2983.67732	1161.7875
2986.11635	1153.1875
2988.55388	1156.9875
2990.98993	1153.4875
2993.4245	1151.7875
2995.85758	1144.0875
2998.28917	1148.5875
3000.71928	1144.4875
3003.14791	1140.9875
3005.57506	1141.2875
3008.00073	1148.6875
3010.42493	1143.0875
3012.84764	1142.5875
3015.26888	1143.3875
3017.68865	1145.7875
3020.10694	1142.9875
3022.52376	1137.5875
3024.9391	1140.8875
3027.35298	1131.5875
3029.76539	1136.2875
3032.17632	1133.7875
3034.5858	1131.7875
3036.9938	1127.6875
3039.40034	1128.6875
3041.80542	1133.3875
3044.20903	1118.9875
3046.61118	1128.0875
3049.01187	1122.2875
3051.4111	1117.6875
3053.80888	1122.9875
3056.20519	1117.3875
3058.60005	1119.9875
3060.99345	1131.1875
3063.3854	1120.3875
3065.7759	1124.1875
3068.16494	1122.9875
3070.55254	1125.5875
3072.93868	1127.1875
3075.32338	1123.2875
3077.70662	1126.5875
3080.08842	1123.7875
3082.46878	1123.1875
3084.84769	1117.2875
3087.22515	1124.6875
3089.60118	1130.9875
3091.97576	1130.2875
3094.3489	1128.9875
3096.72061	1132.8875
3099.09087	1142.9875
3101.4597	1146.4875
3103.82709	1146.2875
3106.19305	1151.7875
3108.55757	1148.2875
3110.92066	1157.9875
3113.28232	1162.8875
3115.64255	1166.3875
3118.00134	1160.6875
3120.35871	1169.1875
3122.71466	1166.5875
3125.06917	1173.6875
