Data from AgNPs_APTES_FTO_UA_50uM_CRN_0uM_R6G_10uM_Scan_RamanShift__40__11-57-43-703.txt Node

Date: Tue Jul 05 11:57:43 BST 2022
User: TCL
Spectrometer: QEP01345
Trigger mode: 4
Integration Time (sec): 7.000000E0
Scans to average: 10
Electric dark correction enabled: true
Nonlinearity correction enabled: false
Boxcar width: 0
XAxis mode: Raman Shifts
Number of Pixels in Spectrum: 1044
>>>>>Begin Spectral Data<<<<<
46.04893	0.1375
50.45542	-0.0625
54.85868	-0.7625
59.25871	0.5375
63.6555	36.1375
68.04907	40.3375
72.43941	42.8375
76.82654	46.5375
81.21044	47.8375
85.59113	54.9375
89.96862	55.1375
94.34289	54.3375
98.71396	58.6375
103.08183	59.7375
107.4465	59.1375
111.80798	61.7375
116.16626	59.9375
120.52136	56.8375
124.87327	61.8375
129.222	60.8375
133.56755	65.6375
137.90993	65.3375
142.24913	64.7375
146.58517	68.7375
150.91804	69.5375
155.24774	81.1375
159.57429	91.4375
163.89768	109.8375
168.21792	134.8375
172.53501	173.4375
176.84895	230.7375
181.15975	301.0375
185.46741	417.1375
189.77193	564.2375
194.07331	732.5375
198.37157	937.0375
202.6667	1131.8375
206.9587	1331.3375
211.24758	1523.9375
215.53334	1729.3375
219.81599	1929.6375
224.09553	2169.7375
228.37195	2418.2375
232.64527	2685.2375
236.91549	2954.2375
241.18261	3189.1375
245.44663	3374.1375
249.70755	3512.7375
253.96539	3623.8375
258.22014	3694.9375
262.4718	3782.4375
266.72039	3813.2375
270.96589	3832.4375
275.20832	3795.1375
279.44768	3742.2375
283.68397	3684.8375
287.91719	3642.8375
292.14735	3623.5375
296.37445	3697.0375
300.59849	3837.7375
304.81948	3971.2375
309.03742	4113.3375
313.25231	4072.9375
317.46415	3874.8375
321.67296	3581.9375
325.87872	3306.7375
330.08145	3170.5375
334.28114	3138.6375
338.47781	3168.9375
342.67145	3258.5375
346.86207	3402.8375
351.04966	3620.0375
355.23424	3867.3375
359.4158	4088.9375
363.59435	4208.3375
367.76989	4278.4375
371.94243	4300.6375
376.11196	4313.6375
380.27849	4302.1375
384.44203	4276.1375
388.60257	4213.6375
392.76012	4170.0375
396.91468	4196.7375
401.06626	4279.3375
405.21485	4320.1375
409.36047	4210.8375
413.50311	3953.7375
417.64277	3699.4375
421.77947	3541.6375
425.9132	3466.2375
430.04396	3449.3375
434.17176	3486.2375
438.2966	3553.0375
442.41849	3665.5375
446.53742	3807.9375
450.6534	3948.1375
454.76644	4000.3375
458.87653	3981.9375
462.98368	3924.9375
467.08789	3860.3375
471.18916	3781.5375
475.2875	3708.7375
479.38291	3680.1375
483.4754	3704.6375
487.56496	3802.5375
491.6516	3907.5375
495.73531	3968.0375
499.81612	3918.1375
503.89401	3842.0375
507.96899	3807.6375
512.04106	3859.1375
516.11023	3978.6375
520.1765	4125.2375
524.23987	4173.7375
528.30034	4140.2375
532.35792	4020.5375
536.41261	3842.2375
540.46441	3656.2375
544.51333	3504.9375
548.55936	3436.6375
552.60252	3469.4375
556.64279	3530.9375
560.6802	3550.9375
564.71473	3574.0375
568.7464	3688.9375
572.7752	3765.5375
576.80114	3669.1375
580.82422	3584.8375
584.84444	3645.2375
588.86181	3770.0375
592.87633	3907.4375
596.888	3957.4375
600.89682	4000.2375
604.9028	4438.7375
608.90594	5749.3375
612.90624	7479.8375
616.90371	7355.2375
620.89834	5634.5375
624.89015	5079.9375
628.87913	5344.9375
632.86528	5754.4375
636.84862	5966.3375
640.82913	5801.6375
644.80683	5261.6375
648.78172	4703.4375
652.75379	4296.4375
656.72306	4124.6375
660.68952	4081.4375
664.65319	3876.4375
668.61405	3587.5375
672.57211	3451.6375
676.52738	3435.3375
680.47986	3427.0375
684.42955	3419.6375
688.37646	3407.2375
692.32058	3422.1375
696.26192	3419.0375
700.20048	3462.2375
704.13626	3491.0375
708.06928	3455.4375
711.99952	3424.3375
715.927	3427.3375
719.85171	3521.9375
723.77365	3599.2375
727.69284	3591.9375
731.60928	3537.6375
735.52295	3467.7375
739.43388	3424.9375
743.34206	3429.7375
747.24749	3429.7375
751.15017	3437.3375
755.05012	3478.7375
758.94733	3662.7375
762.8418	4075.8375
766.73354	4773.5375
770.62254	5551.7375
774.50882	6006.0375
778.39237	5766.7375
782.27321	4954.3375
786.15132	4131.3375
790.02671	3686.5375
793.89938	3527.7375
797.76935	3535.9375
801.6366	3671.1375
805.50115	3972.6375
809.36299	4227.8375
813.22213	4294.2375
817.07857	4123.6375
820.93231	3865.5375
824.78336	3616.5375
828.63172	3420.2375
832.47738	3313.8375
836.32036	3223.6375
840.16066	3194.3375
843.99827	3147.2375
847.8332	3128.5375
851.66546	3116.2375
855.49504	3115.7375
859.32195	3127.8375
863.1462	3136.4375
866.96777	3202.6375
870.78668	3333.1375
874.60293	3522.3375
878.41652	3762.2375
882.22745	3975.4375
886.03573	4084.2375
889.84136	4055.0375
893.64433	3890.0375
897.44466	3675.0375
901.24235	3435.3375
905.0374	3252.3375
908.8298	3117.0375
912.61957	3044.6375
916.40671	3011.2375
920.19121	2976.8375
923.97308	3010.1375
927.75233	3031.2375
931.52895	3068.0375
935.30295	3025.9375
939.07433	2926.7375
942.84309	2830.6375
946.60924	2764.3375
950.37278	2717.0375
954.13371	2702.7375
957.89203	2686.5375
961.64774	2674.1375
965.40086	2660.1375
969.15137	2641.7375
972.89929	2629.6375
976.64461	2634.0375
980.38733	2626.9375
984.12747	2636.2375
987.86502	2666.7375
991.59999	2699.2375
995.33237	2768.9375
999.06217	2873.1375
1002.78939	3028.0375
1006.51404	3169.1375
1010.23611	3319.2375
1013.95561	3431.0375
1017.67255	3441.4375
1021.38692	3356.6375
1025.09872	3240.0375
1028.80796	3112.1375
1032.51465	3006.7375
1036.21877	2977.6375
1039.92035	2975.8375
1043.61937	2973.4375
1047.31584	2940.6375
1051.00976	2940.4375
1054.70114	2943.3375
1058.38998	2976.9375
1062.07627	3040.2375
1065.76003	3130.3375
1069.44126	3173.2375
1073.11995	3220.6375
1076.79611	3245.0375
1080.46974	3287.5375
1084.14085	3316.2375
1087.80943	3333.2375
1091.47549	3285.9375
1095.13903	3168.1375
1098.80005	3006.6375
1102.45857	2906.1375
1106.11456	2906.3375
1109.76805	3002.2375
1113.41903	3181.6375
1117.06751	3442.6375
1120.71348	3811.5375
1124.35696	4304.3375
1127.99793	4827.7375
1131.63641	5174.1375
1135.2724	5201.0375
1138.90589	5048.7375
1142.5369	4756.5375
1146.16542	4362.3375
1149.79145	3953.8375
1153.415	3596.6375
1157.03607	3343.6375
1160.65467	3232.4375
1164.27079	3236.9375
1167.88443	3377.3375
1171.49561	3674.4375
1175.10432	4204.0375
1178.71056	4958.8375
1182.31434	5583.1375
1185.91565	5876.6375
1189.51451	5912.0375
1193.11091	5870.4375
1196.70485	5808.9375
1200.29634	5783.5375
1203.88538	5674.6375
1207.47197	5331.7375
1211.05612	4891.8375
1214.63782	4515.3375
1218.21708	4189.4375
1221.79391	3906.8375
1225.36829	3684.9375
1228.94024	3520.9375
1232.50976	3400.4375
1236.07685	3358.4375
1239.6415	3366.0375
1243.20374	3401.8375
1246.76355	3445.4375
1250.32093	3494.7375
1253.8759	3571.8375
1257.42845	3670.2375
1260.97859	3789.2375
1264.52631	3895.6375
1268.07163	3990.4375
1271.61453	4067.0375
1275.15503	4110.6375
1278.69312	4062.9375
1282.22882	4044.6375
1285.76211	4133.4375
1289.29301	4288.8375
1292.82151	4486.7375
1296.34761	4722.1375
1299.87133	5032.4375
1303.39266	5530.8375
1306.9116	6200.5375
1310.42815	6984.7375
1313.94233	7369.3375
1317.45412	7226.9375
1320.96354	6660.8375
1324.47058	6013.6375
1327.97525	5494.4375
1331.47754	5201.1375
1334.97747	5154.8375
1338.47502	5267.4375
1341.97022	5525.0375
1345.46305	5885.8375
1348.95352	6401.9375
1352.44163	7179.0375
1355.92738	8194.3375
1359.41078	9429.9375
1362.89183	10292.2375
1366.37053	9875.8375
1369.84688	8522.7375
1373.32088	7132.5375
1376.79254	6100.6375
1380.26186	5464.2375
1383.72883	5088.6375
1387.19347	4774.1375
1390.65578	4481.7375
1394.11575	4240.0375
1397.57339	4081.4375
1401.0287	3979.7375
1404.48168	3895.7375
1407.93234	3790.9375
1411.38068	3733.2375
1414.82669	3652.3375
1418.27039	3570.8375
1421.71177	3508.8375
1425.15083	3429.4375
1428.58758	3392.4375
1432.02203	3431.7375
1435.45416	3471.1375
1438.88399	3485.1375
1442.31151	3481.4375
1445.73673	3479.0375
1449.15965	3473.2375
1452.58027	3421.5375
1455.9986	3365.8375
1459.41463	3325.0375
1462.82837	3351.6375
1466.23982	3446.6375
1469.64898	3549.5375
1473.05586	3645.9375
1476.46045	3725.9375
1479.86276	3843.9375
1483.26279	4036.1375
1486.66054	4211.0375
1490.05602	4443.1375
1493.44922	4729.3375
1496.84016	5134.7375
1500.22882	5755.4375
1503.61521	6535.4375
1506.99934	7338.2375
1510.38121	7974.6375
1513.76081	8182.4375
1517.13816	7639.6375
1520.51324	6584.8375
1523.88607	5566.8375
1527.25665	4924.0375
1530.62498	4633.0375
1533.99105	4510.8375
1537.35488	4484.6375
1540.71647	4527.2375
1544.07581	4576.2375
1547.4329	4636.7375
1550.78776	4662.6375
1554.14038	4672.6375
1557.49077	4650.2375
1560.83892	4665.4375
1564.18484	4748.5375
1567.52853	4916.4375
1570.86999	5102.8375
1574.20922	5270.3375
1577.54624	5274.8375
1580.88103	5010.6375
1584.2136	4612.5375
1587.54395	4349.0375
1590.87208	4315.9375
1594.19801	4510.1375
1597.52172	4799.7375
1600.84321	5009.4375
1604.16251	4959.7375
1607.47959	4756.6375
1610.79447	4484.7375
1614.10715	4168.1375
1617.41763	3971.2375
1620.7259	3865.8375
1624.03199	3837.8375
1627.33587	3893.6375
1630.63757	3996.7375
1633.93707	4210.7375
1637.23439	4553.1375
1640.52951	5078.2375
1643.82246	5764.5375
1647.11321	6559.8375
1650.40179	7135.9375
1653.68819	7105.1375
1656.97241	6385.6375
1660.25446	5442.1375
1663.53433	4637.9375
1666.81203	4033.1375
1670.08756	3558.8375
1673.36092	3245.0375
1676.63211	3005.8375
1679.90115	2822.5375
1683.16801	2677.5375
1686.43272	2584.8375
1689.69527	2492.5375
1692.95567	2440.1375
1696.2139	2369.9375
1699.46999	2306.0375
1702.72392	2250.0375
1705.97571	2197.7375
1709.22535	2147.8375
1712.47284	2108.5375
1715.71819	2081.2375
1718.96139	2048.9375
1722.20246	2036.8375
1725.44139	2014.6375
1728.67818	1981.7375
1731.91284	1956.2375
1735.14537	1899.9375
1738.37576	1903.3375
1741.60403	1867.5375
1744.83017	1866.3375
1748.05418	1860.9375
1751.27607	1846.5375
1754.49584	1841.8375
1757.71349	1819.8375
1760.92903	1818.7375
1764.14244	1813.3375
1767.35375	1803.6375
1770.56294	1793.5375
1773.77002	1776.0375
1776.97499	1755.3375
1780.17785	1744.7375
1783.37861	1736.8375
1786.57727	1723.9375
1789.77382	1718.8375
1792.96828	1702.2375
1796.16064	1702.4375
1799.3509	1692.3375
1802.53907	1686.7375
1805.72514	1682.6375
1808.90913	1673.1375
1812.09102	1666.2375
1815.27083	1640.5375
1818.44856	1637.6375
1821.6242	1631.4375
1824.79776	1626.1375
1827.96924	1610.4375
1831.13864	1617.4375
1834.30597	1608.9375
1837.47122	1611.8375
1840.6344	1606.4375
1843.7955	1600.6375
1846.95454	1592.7375
1850.11151	1590.2375
1853.26642	1597.2375
1856.41926	1584.2375
1859.57004	1580.0375
1862.71876	1575.1375
1865.86542	1564.7375
1869.01003	1573.4375
1872.15258	1568.8375
1875.29308	1560.9375
1878.43152	1564.8375
1881.56792	1545.6375
1884.70227	1548.6375
1887.83457	1548.5375
1890.96482	1539.9375
1894.09304	1538.0375
1897.21921	1525.2375
1900.34335	1531.7375
1903.46544	1535.4375
1906.58551	1528.5375
1909.70353	1525.3375
1912.81953	1514.3375
1915.93349	1514.0375
1919.04543	1509.8375
1922.15534	1506.1375
1925.26322	1495.2375
1928.36908	1507.4375
1931.47292	1493.6375
1934.57473	1480.2375
1937.67453	1490.9375
1940.77232	1474.7375
1943.86808	1470.8375
1946.96184	1461.3375
1950.05358	1446.0375
1953.14331	1450.2375
1956.23103	1445.6375
1959.31675	1432.0375
1962.40046	1435.0375
1965.48217	1427.5375
1968.56188	1428.0375
1971.63959	1420.0375
1974.7153	1416.6375
1977.78901	1414.0375
1980.86073	1416.4375
1983.93046	1406.9375
1986.99819	1389.3375
1990.06394	1386.9375
1993.1277	1389.9375
1996.18947	1381.9375
1999.24925	1370.4375
2002.30706	1367.5375
2005.36288	1358.3375
2008.41672	1355.8375
2011.46859	1351.5375
2014.51848	1348.0375
2017.56639	1339.5375
2020.61233	1336.0375
2023.6563	1324.3375
2026.6983	1323.6375
2029.73833	1319.6375
2032.7764	1310.8375
2035.8125	1312.8375
2038.84664	1306.6375
2041.87881	1305.5375
2044.90903	1308.7375
2047.93729	1304.0375
2050.96359	1296.7375
2053.98794	1299.9375
2057.01034	1294.4375
2060.03078	1292.5375
2063.04927	1288.0375
2066.06582	1300.1375
2069.08042	1283.9375
2072.09307	1284.6375
2075.10378	1276.8375
2078.11255	1284.8375
2081.11938	1285.7375
2084.12426	1283.2375
2087.12722	1285.0375
2090.12824	1273.5375
2093.12732	1273.6375
2096.12447	1277.2375
2099.11969	1276.3375
2102.11299	1275.1375
2105.10435	1271.5375
2108.09379	1267.6375
2111.08131	1265.6375
2114.0669	1274.7375
2117.05057	1269.2375
2120.03233	1272.2375
2123.01216	1271.2375
2125.99008	1269.3375
2128.96609	1275.2375
2131.94018	1271.0375
2134.91236	1272.3375
2137.88263	1269.1375
2140.851	1264.7375
2143.81746	1265.4375
2146.78201	1264.8375
2149.74466	1258.8375
2152.7054	1259.9375
2155.66425	1245.6375
2158.6212	1252.6375
2161.57625	1246.0375
2164.52941	1242.7375
2167.48067	1238.1375
2170.43004	1249.1375
2173.37752	1239.0375
2176.32311	1235.9375
2179.26681	1229.7375
2182.20863	1240.5375
2185.14856	1237.8375
2188.08661	1238.1375
2191.02278	1234.6375
2193.95707	1234.2375
2196.88948	1223.8375
2199.82001	1223.1375
2202.74867	1213.6375
2205.67545	1216.1375
2208.60037	1218.8375
2211.52341	1200.6375
2214.44458	1206.2375
2217.36388	1200.5375
2220.28132	1205.5375
2223.1969	1199.0375
2226.11061	1197.0375
2229.02246	1188.4375
2231.93245	1183.2375
2234.84058	1187.4375
2237.74686	1183.5375
2240.65128	1178.1375
2243.55385	1186.2375
2246.45456	1175.2375
2249.35343	1171.3375
2252.25044	1168.0375
2255.14561	1170.1375
2258.03893	1178.1375
2260.93041	1180.5375
2263.82004	1169.8375
2266.70783	1162.8375
2269.59378	1161.6375
2272.4779	1159.3375
2275.36017	1156.3375
2278.24061	1145.9375
2281.11922	1154.0375
2283.996	1157.1375
2286.87094	1144.1375
2289.74405	1134.3375
2292.61534	1140.8375
2295.4848	1124.7375
2298.35243	1118.8375
2301.21824	1121.3375
2304.08223	1126.4375
2306.94439	1116.6375
2309.80474	1108.0375
2312.66327	1115.4375
2315.51999	1121.8375
2318.37489	1107.2375
2321.22797	1108.3375
2324.07925	1099.3375
2326.92871	1102.1375
2329.77637	1107.0375
2332.62222	1097.8375
2335.46626	1092.9375
2338.3085	1093.8375
2341.14893	1096.7375
2343.98756	1089.9375
2346.8244	1094.7375
2349.65943	1092.6375
2352.49267	1088.6375
2355.32411	1093.5375
2358.15376	1090.6375
2360.98161	1105.6375
2363.80768	1105.0375
2366.63195	1106.6375
2369.45444	1106.3375
2372.27514	1109.7375
2375.09405	1106.8375
2377.91118	1111.2375
2380.72652	1104.9375
2383.54009	1104.0375
2386.35187	1091.9375
2389.16188	1089.9375
2391.97011	1085.5375
2394.77657	1072.7375
2397.58125	1066.1375
2400.38416	1075.7375
2403.18529	1059.6375
2405.98466	1056.7375
2408.78226	1056.9375
2411.57809	1041.3375
2414.37216	1050.8375
2417.16446	1046.9375
2419.955	1047.4375
2422.74378	1044.0375
2425.5308	1044.7375
2428.31606	1044.3375
2431.09956	1040.0375
2433.88131	1031.4375
2436.6613	1036.0375
2439.43954	1037.8375
2442.21603	1034.8375
2444.99077	1031.5375
2447.76377	1039.5375
2450.53501	1043.1375
2453.30451	1030.8375
2456.07226	1031.6375
2458.83827	1028.4375
2461.60254	1028.3375
2464.36507	1027.8375
2467.12586	1024.0375
2469.88492	1024.9375
2472.64224	1024.3375
2475.39782	1031.6375
2478.15167	1035.0375
2480.90379	1028.2375
2483.65417	1041.9375
2486.40283	1036.7375
2489.14976	1047.3375
2491.89497	1044.1375
2494.63845	1051.9375
2497.3802	1042.1375
2500.12024	1043.1375
2502.85855	1032.5375
2505.59514	1042.6375
2508.33002	1028.9375
2511.06318	1012.7375
2513.79462	1016.3375
2516.52435	1009.0375
2519.25237	1006.0375
2521.97867	1005.5375
2524.70327	1004.6375
2527.42616	991.2375
2530.14734	988.9375
2532.86681	980.9375
2535.58458	976.4375
2538.30065	989.8375
2541.01501	993.3375
2543.72768	987.6375
2546.43864	976.9375
2549.14791	983.9375
2551.85548	976.9375
2554.56136	983.9375
2557.26554	983.7375
2559.96803	975.9375
2562.66883	981.2375
2565.36794	971.8375
2568.06536	980.9375
2570.7611	972.8375
2573.45514	961.6375
2576.14751	974.2375
2578.83819	962.7375
2581.52719	959.0375
2584.21451	967.3375
2586.90015	957.3375
2589.58411	962.4375
2592.2664	957.1375
2594.94701	955.8375
2597.62594	954.0375
2600.30321	943.6375
2602.9788	948.7375
2605.65273	948.7375
2608.32498	948.3375
2610.99557	945.0375
2613.66449	946.1375
2616.33175	949.7375
2618.99734	944.1375
2621.66128	944.0375
2624.32355	943.7375
2626.98416	943.2375
2629.64311	929.7375
2632.30041	936.7375
2634.95605	929.5375
2637.61004	927.2375
2640.26238	925.3375
2642.91306	927.3375
2645.56209	920.0375
2648.20948	929.1375
2650.85521	924.1375
2653.4993	920.8375
2656.14175	925.0375
2658.78255	924.3375
2661.42171	930.3375
2664.05923	932.9375
2666.6951	928.8375
2669.32934	940.3375
2671.96194	935.0375
2674.59291	944.0375
2677.22224	938.9375
2679.84993	933.8375
2682.476	938.5375
2685.10043	943.7375
2687.72324	942.4375
2690.34441	948.6375
2692.96396	951.0375
2695.58188	948.0375
2698.19818	953.1375
2700.81285	952.6375
2703.4259	957.9375
2706.03733	973.9375
2708.64714	960.7375
2711.25533	971.9375
2713.86191	984.7375
2716.46687	986.4375
2719.07021	983.2375
2721.67194	983.8375
2724.27206	983.7375
2726.87057	993.8375
2729.46747	983.7375
2732.06276	983.0375
2734.65644	982.0375
2737.24852	974.9375
2739.83899	961.5375
2742.42786	970.0375
2745.01513	967.6375
2747.60079	968.0375
2750.18486	972.2375
2752.76733	961.0375
2755.3482	959.9375
2757.92747	964.4375
2760.50515	956.9375
2763.08123	957.8375
2765.65573	955.6375
2768.22863	968.3375
2770.79994	971.1375
2773.36967	969.3375
2775.9378	967.9375
2778.50435	974.1375
2781.06932	975.7375
2783.6327	982.5375
2786.1945	986.6375
2788.75471	1000.4375
2791.31335	998.8375
2793.87041	1001.0375
2796.42589	1008.8375
2798.97979	1007.1375
2801.53212	1016.4375
2804.08288	1028.2375
2806.63206	1029.9375
2809.17967	1027.5375
2811.72571	1040.5375
2814.27018	1046.0375
2816.81308	1040.2375
2819.35442	1049.6375
2821.89419	1049.2375
2824.43239	1056.1375
2826.96904	1056.6375
2829.50412	1060.2375
2832.03763	1063.7375
2834.56959	1068.9375
2837.1	1072.5375
2839.62884	1089.6375
2842.15613	1099.9375
2844.68186	1121.9375
2847.20604	1143.5375
2849.72867	1173.5375
2852.24974	1176.0375
2854.76927	1188.3375
2857.28724	1179.7375
2859.80367	1172.2375
2862.31855	1169.0375
2864.83189	1169.4375
2867.34368	1154.1375
2869.85393	1164.8375
2872.36264	1149.7375
2874.8698	1153.9375
2877.37543	1139.6375
2879.87952	1141.0375
2882.38207	1145.1375
2884.88308	1143.4375
2887.38256	1142.2375
2889.88051	1139.9375
2892.37692	1143.2375
2894.8718	1137.8375
2897.36515	1138.9375
2899.85698	1138.2375
2902.34727	1150.2375
2904.83604	1145.2375
2907.32328	1145.3375
2909.809	1150.5375
2912.29319	1148.7375
2914.77587	1146.1375
2917.25702	1145.5375
2919.73665	1139.4375
2922.21476	1137.2375
2924.69136	1131.5375
2927.16644	1131.6375
2929.64	1118.8375
2932.11205	1117.5375
2934.58258	1108.5375
2937.05161	1098.7375
2939.51912	1087.7375
2941.98513	1078.5375
2944.44962	1060.1375
2946.91261	1045.0375
2949.37409	1031.8375
2951.83407	1019.6375
2954.29254	1007.8375
2956.74951	996.5375
2959.20498	993.5375
2961.65895	992.0375
2964.11142	986.7375
2966.56239	971.8375
2969.01186	938.8375
2971.45984	966.1375
2973.90632	969.5375
2976.35131	963.9375
2978.7948	956.8375
2981.23681	956.8375
2983.67732	959.5375
2986.11635	955.8375
2988.55388	948.3375
2990.98993	948.2375
2993.4245	946.3375
2995.85758	940.5375
2998.28917	949.1375
3000.71928	937.1375
3003.14791	938.7375
3005.57506	936.5375
3008.00073	937.4375
3010.42493	935.6375
3012.84764	948.8375
3015.26888	943.0375
3017.68865	943.7375
3020.10694	948.3375
3022.52376	948.3375
3024.9391	956.3375
3027.35298	952.7375
3029.76539	951.1375
3032.17632	949.5375
3034.5858	951.5375
3036.9938	956.1375
3039.40034	967.1375
3041.80542	959.7375
3044.20903	956.0375
3046.61118	962.4375
3049.01187	968.5375
3051.4111	965.9375
3053.80888	972.1375
3056.20519	986.1375
3058.60005	976.6375
3060.99345	990.5375
3063.3854	987.6375
3065.7759	989.8375
3068.16494	997.9375
3070.55254	999.5375
3072.93868	996.4375
3075.32338	1004.5375
3077.70662	995.6375
3080.08842	992.9375
3082.46878	1003.1375
3084.84769	1002.4375
3087.22515	1006.7375
3089.60118	1009.1375
3091.97576	1004.4375
3094.3489	1020.1375
3096.72061	1020.7375
3099.09087	1019.1375
3101.4597	1030.0375
3103.82709	1045.1375
3106.19305	1043.7375
3108.55757	1047.8375
3110.92066	1050.7375
3113.28232	1068.5375
3115.64255	1064.5375
3118.00134	1072.1375
3120.35871	1070.4375
3122.71466	1075.8375
3125.06917	1086.8375
3127.42226	1091.2375
3129.77393	1112.0375
3132.12417	1113.1375
3134.47299	1125.5375
3136.82039	1129.8375
3139.16636	1131.7375
3141.51092	1141.3375
3143.85406	1149.0375
