Data from AgNPs_APTES_FTO_UA_50uM_CRN_0uM_R6G_10uM_Scan_RamanShift__23__11-37-53-679.txt Node

Date: Tue Jul 05 11:37:53 BST 2022
User: TCL
Spectrometer: QEP01345
Trigger mode: 4
Integration Time (sec): 7.000000E0
Scans to average: 10
Electric dark correction enabled: true
Nonlinearity correction enabled: false
Boxcar width: 0
XAxis mode: Raman Shifts
Number of Pixels in Spectrum: 1044
>>>>>Begin Spectral Data<<<<<
46.04893	-0.5125
50.45542	-0.7125
54.85868	-1.4125
59.25871	1.9875
63.6555	35.6875
68.04907	40.8875
72.43941	42.7875
76.82654	43.5875
81.21044	51.1875
85.59113	53.7875
89.96862	53.9875
94.34289	53.4875
98.71396	60.0875
103.08183	59.8875
107.4465	57.7875
111.80798	61.6875
116.16626	60.2875
120.52136	58.5875
124.87327	62.4875
129.222	62.3875
133.56755	66.5875
137.90993	62.7875
142.24913	71.5875
146.58517	75.1875
150.91804	82.1875
155.24774	87.7875
159.57429	107.0875
163.89768	131.3875
168.21792	168.9875
172.53501	218.8875
176.84895	293.4875
181.15975	407.0875
185.46741	562.4875
189.77193	769.1875
194.07331	1028.4875
198.37157	1303.4875
202.6667	1612.7875
206.9587	1916.9875
211.24758	2211.9875
215.53334	2519.6875
219.81599	2847.5875
224.09553	3194.2875
228.37195	3561.9875
232.64527	4005.9875
236.91549	4438.0875
241.18261	4846.9875
245.44663	5192.8875
249.70755	5499.1875
253.96539	5767.3875
258.22014	5947.8875
262.4718	6149.7875
266.72039	6276.4875
270.96589	6333.6875
275.20832	6305.8875
279.44768	6226.9875
283.68397	6111.3875
287.91719	5997.5875
292.14735	5943.2875
296.37445	5976.2875
300.59849	6048.3875
304.81948	6175.2875
309.03742	6236.3875
313.25231	6243.8875
317.46415	6067.6875
321.67296	5821.7875
325.87872	5601.8875
330.08145	5483.6875
334.28114	5476.4875
338.47781	5508.8875
342.67145	5596.5875
346.86207	5741.1875
351.04966	5911.5875
355.23424	6125.7875
359.4158	6344.2875
363.59435	6457.8875
367.76989	6555.9875
371.94243	6587.5875
376.11196	6627.3875
380.27849	6652.4875
384.44203	6682.9875
388.60257	6643.2875
392.76012	6642.1875
396.91468	6681.4875
401.06626	6740.0875
405.21485	6800.1875
409.36047	6694.8875
413.50311	6480.2875
417.64277	6271.1875
421.77947	6146.0875
425.9132	6100.0875
430.04396	6071.6875
434.17176	6105.6875
438.2966	6158.0875
442.41849	6237.7875
446.53742	6370.1875
450.6534	6468.6875
454.76644	6516.1875
458.87653	6528.7875
462.98368	6467.0875
467.08789	6407.1875
471.18916	6353.1875
475.2875	6315.9875
479.38291	6266.2875
483.4754	6247.3875
487.56496	6298.9875
491.6516	6373.4875
495.73531	6413.7875
499.81612	6438.4875
503.89401	6458.2875
507.96899	6470.1875
512.04106	6514.7875
516.11023	6596.2875
520.1765	6633.3875
524.23987	6676.4875
528.30034	6628.0875
532.35792	6590.6875
536.41261	6498.5875
540.46441	6382.0875
544.51333	6304.4875
548.55936	6294.4875
552.60252	6332.4875
556.64279	6395.2875
560.6802	6460.9875
564.71473	6456.2875
568.7464	6558.8875
572.7752	6625.4875
576.80114	6540.4875
580.82422	6457.4875
584.84444	6487.1875
588.86181	6581.2875
592.87633	6699.6875
596.888	6795.1875
600.89682	6917.8875
604.9028	7338.3875
608.90594	8566.3875
612.90624	10182.0875
616.90371	9961.1875
620.89834	8007.3875
624.89015	7102.4875
628.87913	7081.3875
632.86528	7326.2875
636.84862	7524.8875
640.82913	7428.8875
644.80683	7130.9875
648.78172	6798.0875
652.75379	6622.1875
656.72306	6651.1875
660.68952	6715.8875
664.65319	6640.6875
668.61405	6430.5875
672.57211	6327.8875
676.52738	6346.8875
680.47986	6402.5875
684.42955	6451.0875
688.37646	6459.2875
692.32058	6414.1875
696.26192	6346.0875
700.20048	6331.6875
704.13626	6332.5875
708.06928	6274.9875
711.99952	6277.2875
715.927	6247.5875
719.85171	6303.8875
723.77365	6340.1875
727.69284	6316.3875
731.60928	6277.2875
735.52295	6239.2875
739.43388	6215.1875
743.34206	6224.7875
747.24749	6221.9875
751.15017	6213.4875
755.05012	6252.1875
758.94733	6379.1875
762.8418	6794.1875
766.73354	7512.5875
770.62254	8379.6875
774.50882	8857.9875
778.39237	8552.2875
782.27321	7707.7875
786.15132	6900.3875
790.02671	6472.8875
793.89938	6242.6875
797.76935	6178.8875
801.6366	6210.7875
805.50115	6289.6875
809.36299	6383.1875
813.22213	6394.0875
817.07857	6332.9875
820.93231	6235.1875
824.78336	6127.5875
828.63172	6045.3875
832.47738	6014.9875
836.32036	5962.7875
840.16066	5958.4875
843.99827	5950.7875
847.8332	5965.1875
851.66546	5945.5875
855.49504	5927.8875
859.32195	5937.7875
863.1462	5923.4875
866.96777	5946.7875
870.78668	5982.8875
874.60293	6056.5875
878.41652	6140.3875
882.22745	6210.9875
886.03573	6301.2875
889.84136	6314.4875
893.64433	6251.6875
897.44466	6177.6875
901.24235	6067.4875
905.0374	6006.4875
908.8298	5962.5875
912.61957	5910.2875
916.40671	5942.2875
920.19121	5967.0875
923.97308	6041.6875
927.75233	6099.4875
931.52895	6143.3875
935.30295	6081.9875
939.07433	5927.9875
942.84309	5789.4875
946.60924	5686.3875
950.37278	5611.9875
954.13371	5551.6875
957.89203	5516.0875
961.64774	5474.7875
965.40086	5430.3875
969.15137	5381.1875
972.89929	5352.8875
976.64461	5329.4875
980.38733	5299.0875
984.12747	5260.6875
987.86502	5257.7875
991.59999	5263.9875
995.33237	5304.4875
999.06217	5369.0875
1002.78939	5444.1875
1006.51404	5536.0875
1010.23611	5632.1875
1013.95561	5695.6875
1017.67255	5721.3875
1021.38692	5645.7875
1025.09872	5558.5875
1028.80796	5470.9875
1032.51465	5382.8875
1036.21877	5345.0875
1039.92035	5333.8875
1043.61937	5344.1875
1047.31584	5331.5875
1051.00976	5356.4875
1054.70114	5370.5875
1058.38998	5392.8875
1062.07627	5418.3875
1065.76003	5452.5875
1069.44126	5433.5875
1073.11995	5469.4875
1076.79611	5502.9875
1080.46974	5528.5875
1084.14085	5564.7875
1087.80943	5621.6875
1091.47549	5666.0875
1095.13903	5593.3875
1098.80005	5468.3875
1102.45857	5331.8875
1106.11456	5279.0875
1109.76805	5331.2875
1113.41903	5434.1875
1117.06751	5596.0875
1120.71348	5850.7875
1124.35696	6151.8875
1127.99793	6491.0875
1131.63641	6713.1875
1135.2724	6652.8875
1138.90589	6438.9875
1142.5369	6192.8875
1146.16542	5919.2875
1149.79145	5673.6875
1153.415	5490.0875
1157.03607	5364.4875
1160.65467	5345.5875
1164.27079	5403.5875
1167.88443	5571.4875
1171.49561	5891.5875
1175.10432	6417.3875
1178.71056	7159.9875
1182.31434	7785.3875
1185.91565	7940.4875
1189.51451	7748.9875
1193.11091	7346.3875
1196.70485	6974.9875
1200.29634	6722.4875
1203.88538	6522.8875
1207.47197	6216.8875
1211.05612	5917.6875
1214.63782	5702.0875
1218.21708	5554.9875
1221.79391	5481.0875
1225.36829	5454.8875
1228.94024	5425.1875
1232.50976	5370.3875
1236.07685	5326.9875
1239.6415	5290.3875
1243.20374	5273.7875
1246.76355	5319.4875
1250.32093	5345.0875
1253.8759	5395.7875
1257.42845	5514.6875
1260.97859	5630.5875
1264.52631	5783.6875
1268.07163	5909.4875
1271.61453	6059.0875
1275.15503	6134.0875
1278.69312	6152.8875
1282.22882	6160.3875
1285.76211	6228.9875
1289.29301	6380.3875
1292.82151	6605.0875
1296.34761	6825.4875
1299.87133	7125.1875
1303.39266	7645.7875
1306.9116	8319.3875
1310.42815	9130.7875
1313.94233	9629.9875
1317.45412	9495.4875
1320.96354	8866.2875
1324.47058	8178.2875
1327.97525	7563.6875
1331.47754	7129.5875
1334.97747	6914.3875
1338.47502	6878.8875
1341.97022	6988.1875
1345.46305	7239.6875
1348.95352	7767.4875
1352.44163	8505.8875
1355.92738	9521.8875
1359.41078	10879.5875
1362.89183	12254.4875
1366.37053	12353.6875
1369.84688	10834.8875
1373.32088	9054.7875
1376.79254	7852.7875
1380.26186	7217.6875
1383.72883	6897.1875
1387.19347	6664.8875
1390.65578	6421.9875
1394.11575	6253.6875
1397.57339	6081.9875
1401.0287	6009.1875
1404.48168	5902.0875
1407.93234	5792.0875
1411.38068	5687.0875
1414.82669	5570.0875
1418.27039	5495.4875
1421.71177	5423.2875
1425.15083	5329.5875
1428.58758	5236.3875
1432.02203	5221.0875
1435.45416	5247.3875
1438.88399	5282.7875
1442.31151	5297.0875
1445.73673	5279.1875
1449.15965	5290.8875
1452.58027	5278.7875
1455.9986	5218.2875
1459.41463	5210.7875
1462.82837	5225.3875
1466.23982	5297.1875
1469.64898	5383.2875
1473.05586	5442.2875
1476.46045	5469.2875
1479.86276	5510.3875
1483.26279	5613.5875
1486.66054	5715.8875
1490.05602	5852.1875
1493.44922	6094.9875
1496.84016	6483.7875
1500.22882	7122.3875
1503.61521	8034.5875
1506.99934	9107.1875
1510.38121	10124.4875
1513.76081	10592.7875
1517.13816	10086.5875
1520.51324	8878.0875
1523.88607	7674.6875
1527.25665	6819.0875
1530.62498	6353.6875
1533.99105	6095.1875
1537.35488	5923.8875
1540.71647	5799.5875
1544.07581	5743.5875
1547.4329	5719.6875
1550.78776	5725.1875
1554.14038	5791.6875
1557.49077	5853.0875
1560.83892	5959.3875
1564.18484	6108.5875
1567.52853	6277.9875
1570.86999	6466.4875
1574.20922	6575.2875
1577.54624	6579.5875
1580.88103	6336.9875
1584.2136	5908.5875
1587.54395	5607.3875
1590.87208	5488.4875
1594.19801	5619.6875
1597.52172	5888.4875
1600.84321	6083.9875
1604.16251	5996.5875
1607.47959	5753.5875
1610.79447	5529.0875
1614.10715	5314.5875
1617.41763	5114.6875
1620.7259	4970.7875
1624.03199	4926.8875
1627.33587	4921.9875
1630.63757	4968.4875
1633.93707	5088.6875
1637.23439	5323.2875
1640.52951	5743.9875
1643.82246	6407.8875
1647.11321	7182.8875
1650.40179	7831.1875
1653.68819	7829.1875
1656.97241	7060.2875
1660.25446	6087.6875
1663.53433	5335.1875
1666.81203	4850.8875
1670.08756	4570.4875
1673.36092	4411.2875
1676.63211	4272.9875
1679.90115	4193.4875
1683.16801	4107.3875
1686.43272	4063.1875
1689.69527	4016.2875
1692.95567	3975.7875
1696.2139	3935.3875
1699.46999	3887.3875
1702.72392	3826.8875
1705.97571	3771.9875
1709.22535	3699.8875
1712.47284	3644.8875
1715.71819	3583.5875
1718.96139	3546.9875
1722.20246	3500.2875
1725.44139	3455.9875
1728.67818	3402.6875
1731.91284	3361.2875
1735.14537	3328.3875
1738.37576	3283.4875
1741.60403	3258.4875
1744.83017	3235.9875
1748.05418	3231.3875
1751.27607	3215.7875
1754.49584	3191.3875
1757.71349	3173.1875
1760.92903	3138.2875
1764.14244	3124.0875
1767.35375	3124.9875
1770.56294	3110.0875
1773.77002	3098.0875
1776.97499	3088.9875
1780.17785	3086.6875
1783.37861	3076.7875
1786.57727	3061.5875
1789.77382	3040.0875
1792.96828	3029.7875
1796.16064	3001.8875
1799.3509	3013.2875
1802.53907	3002.4875
1805.72514	2990.6875
1808.90913	2983.1875
1812.09102	2952.5875
1815.27083	2946.3875
1818.44856	2942.0875
1821.6242	2943.6875
1824.79776	2916.6875
1827.96924	2895.1875
1831.13864	2898.8875
1834.30597	2888.0875
1837.47122	2883.9875
1840.6344	2883.5875
1843.7955	2866.4875
1846.95454	2846.7875
1850.11151	2858.3875
1853.26642	2841.2875
1856.41926	2830.3875
1859.57004	2835.4875
1862.71876	2836.3875
1865.86542	2824.0875
1869.01003	2827.2875
1872.15258	2810.2875
1875.29308	2823.0875
1878.43152	2798.7875
1881.56792	2788.7875
1884.70227	2773.1875
1887.83457	2773.4875
1890.96482	2772.6875
1894.09304	2770.4875
1897.21921	2763.2875
1900.34335	2758.8875
1903.46544	2743.1875
1906.58551	2743.4875
1909.70353	2730.7875
1912.81953	2728.8875
1915.93349	2723.0875
1919.04543	2715.2875
1922.15534	2728.8875
1925.26322	2696.6875
1928.36908	2676.5875
1931.47292	2659.8875
1934.57473	2653.9875
1937.67453	2641.2875
1940.77232	2629.2875
1943.86808	2599.6875
1946.96184	2608.0875
1950.05358	2583.5875
1953.14331	2580.8875
1956.23103	2589.5875
1959.31675	2558.7875
1962.40046	2553.0875
1965.48217	2546.1875
1968.56188	2548.7875
1971.63959	2529.2875
1974.7153	2522.2875
1977.78901	2495.7875
1980.86073	2505.2875
1983.93046	2491.3875
1986.99819	2479.4875
1990.06394	2466.5875
1993.1277	2460.3875
1996.18947	2444.3875
1999.24925	2424.4875
2002.30706	2424.1875
2005.36288	2402.7875
2008.41672	2405.2875
2011.46859	2389.0875
2014.51848	2381.1875
2017.56639	2376.3875
2020.61233	2359.2875
2023.6563	2350.5875
2026.6983	2330.8875
2029.73833	2323.1875
2032.7764	2321.7875
2035.8125	2315.1875
2038.84664	2309.5875
2041.87881	2300.1875
2044.90903	2302.0875
2047.93729	2301.5875
2050.96359	2286.5875
2053.98794	2288.7875
2057.01034	2278.4875
2060.03078	2262.1875
2063.04927	2282.6875
2066.06582	2264.1875
2069.08042	2251.0875
2072.09307	2249.4875
2075.10378	2243.9875
2078.11255	2243.4875
2081.11938	2244.1875
2084.12426	2240.3875
2087.12722	2238.4875
2090.12824	2230.6875
2093.12732	2236.0875
2096.12447	2228.4875
2099.11969	2217.8875
2102.11299	2221.3875
2105.10435	2215.1875
2108.09379	2225.4875
2111.08131	2225.5875
2114.0669	2218.9875
2117.05057	2223.4875
2120.03233	2214.2875
2123.01216	2210.3875
2125.99008	2214.3875
2128.96609	2216.3875
2131.94018	2211.5875
2134.91236	2208.4875
2137.88263	2216.0875
2140.851	2209.5875
2143.81746	2211.6875
2146.78201	2193.4875
2149.74466	2186.0875
2152.7054	2178.5875
2155.66425	2182.6875
2158.6212	2178.0875
2161.57625	2172.7875
2164.52941	2150.5875
2167.48067	2157.3875
2170.43004	2155.6875
2173.37752	2166.3875
2176.32311	2152.5875
2179.26681	2154.3875
2182.20863	2148.3875
2185.14856	2143.7875
2188.08661	2143.7875
2191.02278	2138.4875
2193.95707	2126.4875
2196.88948	2133.6875
2199.82001	2134.1875
2202.74867	2116.2875
2205.67545	2116.9875
2208.60037	2106.6875
2211.52341	2099.5875
2214.44458	2092.7875
2217.36388	2093.4875
2220.28132	2085.3875
2223.1969	2075.9875
2226.11061	2069.4875
2229.02246	2047.9875
2231.93245	2044.9875
2234.84058	2038.9875
2237.74686	2047.3875
2240.65128	2039.0875
2243.55385	2037.5875
2246.45456	2027.7875
2249.35343	2008.2875
2252.25044	2018.6875
2255.14561	2025.3875
2258.03893	2010.9875
2260.93041	2009.2875
2263.82004	1995.4875
2266.70783	1987.7875
2269.59378	1982.7875
2272.4779	1975.6875
2275.36017	1971.6875
2278.24061	1971.6875
2281.11922	1955.3875
2283.996	1959.2875
2286.87094	1954.3875
2289.74405	1938.7875
2292.61534	1933.9875
2295.4848	1921.2875
2298.35243	1922.6875
2301.21824	1922.6875
2304.08223	1907.4875
2306.94439	1914.3875
2309.80474	1913.0875
2312.66327	1916.4875
2315.51999	1900.1875
2318.37489	1892.6875
2321.22797	1896.2875
2324.07925	1890.2875
2326.92871	1876.2875
2329.77637	1884.3875
2332.62222	1876.4875
2335.46626	1864.3875
2338.3085	1863.1875
2341.14893	1852.2875
2343.98756	1859.3875
2346.8244	1845.9875
2349.65943	1850.1875
2352.49267	1841.7875
2355.32411	1843.2875
2358.15376	1843.3875
2360.98161	1847.7875
2363.80768	1867.1875
2366.63195	1860.4875
2369.45444	1859.7875
2372.27514	1859.8875
2375.09405	1853.6875
2377.91118	1836.9875
2380.72652	1835.1875
2383.54009	1822.2875
2386.35187	1815.4875
2389.16188	1797.3875
2391.97011	1792.9875
2394.77657	1790.6875
2397.58125	1771.2875
2400.38416	1771.6875
2403.18529	1762.7875
2405.98466	1752.8875
2408.78226	1764.5875
2411.57809	1753.6875
2414.37216	1748.6875
2417.16446	1745.3875
2419.955	1740.7875
2422.74378	1740.3875
2425.5308	1737.9875
2428.31606	1738.3875
2431.09956	1722.0875
2433.88131	1729.6875
2436.6613	1727.7875
2439.43954	1724.2875
2442.21603	1718.4875
2444.99077	1727.9875
2447.76377	1715.3875
2450.53501	1712.9875
2453.30451	1716.1875
2456.07226	1701.6875
2458.83827	1699.9875
2461.60254	1706.8875
2464.36507	1691.6875
2467.12586	1695.9875
2469.88492	1690.6875
2472.64224	1688.8875
2475.39782	1678.9875
2478.15167	1683.8875
2480.90379	1685.5875
2483.65417	1686.8875
2486.40283	1685.1875
2489.14976	1683.9875
2491.89497	1684.8875
2494.63845	1691.8875
2497.3802	1678.2875
2500.12024	1681.2875
2502.85855	1668.2875
2505.59514	1669.6875
2508.33002	1656.4875
2511.06318	1656.3875
2513.79462	1636.1875
2516.52435	1628.0875
2519.25237	1629.0875
2521.97867	1620.9875
2524.70327	1607.7875
2527.42616	1605.1875
2530.14734	1604.6875
2532.86681	1597.8875
2535.58458	1598.7875
2538.30065	1587.1875
2541.01501	1575.5875
2543.72768	1579.2875
2546.43864	1573.9875
2549.14791	1569.7875
2551.85548	1568.3875
2554.56136	1569.7875
2557.26554	1572.1875
2559.96803	1563.1875
2562.66883	1555.4875
2565.36794	1550.6875
2568.06536	1549.0875
2570.7611	1537.5875
2573.45514	1536.2875
2576.14751	1542.6875
2578.83819	1533.5875
2581.52719	1527.0875
2584.21451	1524.0875
2586.90015	1515.4875
2589.58411	1516.8875
2592.2664	1505.9875
2594.94701	1499.6875
2597.62594	1501.4875
2600.30321	1496.6875
2602.9788	1489.5875
2605.65273	1490.3875
2608.32498	1488.4875
2610.99557	1490.3875
2613.66449	1488.5875
2616.33175	1488.4875
2618.99734	1475.1875
2621.66128	1473.8875
2624.32355	1471.1875
2626.98416	1472.4875
2629.64311	1462.2875
2632.30041	1458.3875
2634.95605	1458.8875
2637.61004	1456.2875
2640.26238	1457.8875
2642.91306	1440.8875
2645.56209	1442.0875
2648.20948	1440.1875
2650.85521	1441.2875
2653.4993	1438.7875
2656.14175	1436.8875
2658.78255	1431.1875
2661.42171	1439.9875
2664.05923	1439.0875
2666.6951	1436.8875
2669.32934	1441.2875
2671.96194	1431.6875
2674.59291	1437.0875
2677.22224	1434.9875
2679.84993	1433.1875
2682.476	1438.0875
2685.10043	1430.6875
2687.72324	1428.7875
2690.34441	1434.5875
2692.96396	1431.8875
2695.58188	1426.5875
2698.19818	1421.1875
2700.81285	1426.0875
2703.4259	1411.6875
2706.03733	1414.8875
2708.64714	1416.3875
2711.25533	1424.1875
2713.86191	1424.3875
2716.46687	1427.9875
2719.07021	1413.3875
2721.67194	1420.8875
2724.27206	1435.1875
2726.87057	1437.1875
2729.46747	1423.7875
2732.06276	1424.5875
2734.65644	1418.3875
2737.24852	1421.9875
2739.83899	1402.6875
2742.42786	1418.3875
2745.01513	1414.3875
2747.60079	1405.6875
2750.18486	1398.8875
2752.76733	1397.2875
2755.3482	1393.0875
2757.92747	1392.4875
2760.50515	1392.7875
2763.08123	1389.4875
2765.65573	1385.4875
2768.22863	1374.7875
2770.79994	1374.9875
2773.36967	1376.5875
2775.9378	1379.6875
2778.50435	1373.5875
2781.06932	1371.0875
2783.6327	1367.6875
2786.1945	1370.4875
2788.75471	1363.6875
2791.31335	1356.2875
2793.87041	1360.2875
2796.42589	1359.2875
2798.97979	1355.5875
2801.53212	1347.7875
2804.08288	1351.5875
2806.63206	1346.6875
2809.17967	1342.4875
2811.72571	1348.7875
2814.27018	1331.4875
2816.81308	1343.2875
2819.35442	1340.3875
2821.89419	1334.8875
2824.43239	1334.8875
2826.96904	1335.2875
2829.50412	1339.2875
2832.03763	1333.6875
2834.56959	1334.3875
2837.1	1345.4875
2839.62884	1337.7875
2842.15613	1350.8875
2844.68186	1363.0875
2847.20604	1374.2875
2849.72867	1375.2875
2852.24974	1384.9875
2854.76927	1382.5875
2857.28724	1374.1875
2859.80367	1381.0875
2862.31855	1388.8875
2864.83189	1385.5875
2867.34368	1386.1875
2869.85393	1384.5875
2872.36264	1381.2875
2874.8698	1389.8875
2877.37543	1390.4875
2879.87952	1395.1875
2882.38207	1389.3875
2884.88308	1381.8875
2887.38256	1378.1875
2889.88051	1388.1875
2892.37692	1379.0875
2894.8718	1385.7875
2897.36515	1384.0875
2899.85698	1387.5875
2902.34727	1399.5875
2904.83604	1390.4875
2907.32328	1393.6875
2909.809	1410.8875
2912.29319	1408.6875
2914.77587	1406.8875
2917.25702	1409.5875
2919.73665	1403.2875
2922.21476	1411.6875
2924.69136	1413.5875
2927.16644	1411.6875
2929.64	1403.2875
2932.11205	1407.3875
2934.58258	1395.5875
2937.05161	1401.1875
2939.51912	1397.2875
2941.98513	1391.8875
2944.44962	1377.9875
2946.91261	1355.2875
2949.37409	1360.6875
2951.83407	1343.5875
2954.29254	1337.7875
2956.74951	1315.2875
2959.20498	1324.8875
2961.65895	1319.9875
2964.11142	1317.0875
2966.56239	1300.3875
2969.01186	1266.2875
2971.45984	1289.3875
2973.90632	1297.0875
2976.35131	1282.7875
2978.7948	1285.6875
2981.23681	1273.5875
2983.67732	1274.2875
2986.11635	1273.9875
2988.55388	1268.9875
2990.98993	1260.4875
2993.4245	1261.5875
2995.85758	1261.9875
2998.28917	1260.9875
3000.71928	1253.8875
3003.14791	1257.2875
3005.57506	1248.2875
3008.00073	1251.5875
3010.42493	1251.1875
3012.84764	1250.3875
3015.26888	1249.8875
3017.68865	1246.7875
3020.10694	1246.5875
3022.52376	1251.8875
3024.9391	1254.6875
3027.35298	1242.1875
3029.76539	1240.9875
3032.17632	1239.7875
3034.5858	1245.2875
3036.9938	1242.8875
3039.40034	1247.6875
3041.80542	1236.8875
3044.20903	1234.6875
3046.61118	1243.3875
3049.01187	1234.6875
3051.4111	1241.8875
3053.80888	1239.4875
3056.20519	1244.9875
3058.60005	1242.0875
3060.99345	1238.2875
3063.3854	1248.0875
3065.7759	1245.0875
3068.16494	1245.2875
3070.55254	1243.8875
3072.93868	1244.5875
3075.32338	1243.0875
3077.70662	1249.9875
3080.08842	1241.9875
3082.46878	1239.5875
3084.84769	1249.6875
3087.22515	1255.0875
3089.60118	1260.7875
3091.97576	1251.2875
3094.3489	1261.3875
3096.72061	1264.7875
3099.09087	1279.3875
3101.4597	1285.9875
3103.82709	1278.5875
3106.19305	1291.2875
3108.55757	1288.0875
3110.92066	1287.2875
3113.28232	1303.1875
3115.64255	1294.8875
3118.00134	1292.4875
3120.35871	1301.1875
3122.71466	1306.2875
3125.06917	1311.6875
