Data from AgNPs_APTES_FTO_UA_50uM_CRN_0uM_R6G_10uM_Scan_RamanShift__36__11-53-03-697.txt Node

Date: Tue Jul 05 11:53:03 BST 2022
User: TCL
Spectrometer: QEP01345
Trigger mode: 4
Integration Time (sec): 7.000000E0
Scans to average: 10
Electric dark correction enabled: true
Nonlinearity correction enabled: false
Boxcar width: 0
XAxis mode: Raman Shifts
Number of Pixels in Spectrum: 1044
>>>>>Begin Spectral Data<<<<<
46.04893	0.2875
50.45542	-0.4125
54.85868	-1.4125
59.25871	1.2875
63.6555	35.1875
68.04907	40.5875
72.43941	40.3875
76.82654	44.7875
81.21044	43.3875
85.59113	49.2875
89.96862	51.8875
94.34289	49.6875
98.71396	56.9875
103.08183	60.9875
107.4465	59.1875
111.80798	57.8875
116.16626	55.3875
120.52136	55.7875
124.87327	60.2875
129.222	58.2875
133.56755	60.2875
137.90993	58.8875
142.24913	67.8875
146.58517	71.3875
150.91804	77.8875
155.24774	84.4875
159.57429	96.8875
163.89768	118.8875
168.21792	153.6875
172.53501	198.6875
176.84895	263.8875
181.15975	354.3875
185.46741	484.0875
189.77193	655.1875
194.07331	859.2875
198.37157	1104.2875
202.6667	1350.5875
206.9587	1588.3875
211.24758	1836.0875
215.53334	2082.3875
219.81599	2336.7875
224.09553	2601.7875
228.37195	2887.2875
232.64527	3231.8875
236.91549	3553.8875
241.18261	3834.2875
245.44663	4072.7875
249.70755	4281.1875
253.96539	4438.1875
258.22014	4568.2875
262.4718	4659.9875
266.72039	4730.0875
270.96589	4757.5875
275.20832	4745.7875
279.44768	4671.2875
283.68397	4578.7875
287.91719	4528.3875
292.14735	4513.3875
296.37445	4577.4875
300.59849	4693.4875
304.81948	4829.0875
309.03742	4921.0875
313.25231	4895.4875
317.46415	4717.9875
321.67296	4426.0875
325.87872	4162.5875
330.08145	4024.1875
334.28114	3973.4875
338.47781	4012.6875
342.67145	4083.9875
346.86207	4221.5875
351.04966	4431.7875
355.23424	4675.2875
359.4158	4874.4875
363.59435	4988.1875
367.76989	5069.8875
371.94243	5110.5875
376.11196	5130.6875
380.27849	5146.6875
384.44203	5130.8875
388.60257	5086.6875
392.76012	5071.9875
396.91468	5079.4875
401.06626	5163.0875
405.21485	5224.7875
409.36047	5109.6875
413.50311	4866.1875
417.64277	4632.4875
421.77947	4482.2875
425.9132	4423.5875
430.04396	4418.5875
434.17176	4443.3875
438.2966	4507.0875
442.41849	4649.9875
446.53742	4800.5875
450.6534	4932.7875
454.76644	4974.7875
458.87653	4971.4875
462.98368	4905.3875
467.08789	4839.3875
471.18916	4790.8875
475.2875	4699.6875
479.38291	4707.8875
483.4754	4721.0875
487.56496	4840.2875
491.6516	4971.1875
495.73531	5033.6875
499.81612	4996.3875
503.89401	4902.6875
507.96899	4847.9875
512.04106	4852.2875
516.11023	4957.6875
520.1765	5071.0875
524.23987	5150.4875
528.30034	5148.2875
532.35792	5058.2875
536.41261	4895.1875
540.46441	4701.7875
544.51333	4560.1875
548.55936	4496.0875
552.60252	4505.8875
556.64279	4553.3875
560.6802	4577.9875
564.71473	4608.9875
568.7464	4712.3875
572.7752	4806.6875
576.80114	4710.1875
580.82422	4639.1875
584.84444	4715.9875
588.86181	4881.1875
592.87633	5052.3875
596.888	5092.6875
600.89682	5124.8875
604.9028	5533.3875
608.90594	6802.1875
612.90624	8512.3875
616.90371	8353.6875
620.89834	6652.2875
624.89015	6101.8875
628.87913	6453.9875
632.86528	6953.4875
636.84862	7232.3875
640.82913	7080.6875
644.80683	6542.1875
648.78172	5920.0875
652.75379	5449.5875
656.72306	5241.1875
660.68952	5147.8875
664.65319	4927.4875
668.61405	4662.0875
672.57211	4528.6875
676.52738	4514.6875
680.47986	4526.8875
684.42955	4483.2875
688.37646	4458.9875
692.32058	4440.4875
696.26192	4435.9875
700.20048	4463.6875
704.13626	4464.6875
708.06928	4438.7875
711.99952	4425.2875
715.927	4439.7875
719.85171	4533.7875
723.77365	4628.9875
727.69284	4627.9875
731.60928	4563.9875
735.52295	4493.1875
739.43388	4444.3875
743.34206	4467.9875
747.24749	4445.9875
751.15017	4433.7875
755.05012	4467.1875
758.94733	4623.4875
762.8418	5035.3875
766.73354	5734.4875
770.62254	6487.2875
774.50882	6939.7875
778.39237	6695.2875
782.27321	5901.5875
786.15132	5105.0875
790.02671	4634.8875
793.89938	4467.1875
797.76935	4468.1875
801.6366	4599.5875
805.50115	4869.7875
809.36299	5132.0875
813.22213	5195.8875
817.07857	5079.9875
820.93231	4827.6875
824.78336	4547.8875
828.63172	4366.4875
832.47738	4257.3875
836.32036	4186.7875
840.16066	4151.1875
843.99827	4109.9875
847.8332	4096.5875
851.66546	4088.9875
855.49504	4070.5875
859.32195	4079.9875
863.1462	4096.7875
866.96777	4166.2875
870.78668	4287.4875
874.60293	4489.5875
878.41652	4714.6875
882.22745	4927.7875
886.03573	5028.7875
889.84136	5000.6875
893.64433	4842.0875
897.44466	4617.0875
901.24235	4394.5875
905.0374	4228.0875
908.8298	4080.4875
912.61957	4004.0875
916.40671	3971.1875
920.19121	3948.0875
923.97308	3951.5875
927.75233	3982.8875
931.52895	4019.3875
935.30295	3965.8875
939.07433	3864.5875
942.84309	3772.3875
946.60924	3701.2875
950.37278	3644.7875
954.13371	3637.7875
957.89203	3618.6875
961.64774	3597.8875
965.40086	3562.0875
969.15137	3562.4875
972.89929	3549.4875
976.64461	3534.4875
980.38733	3537.8875
984.12747	3525.7875
987.86502	3534.2875
991.59999	3576.8875
995.33237	3655.7875
999.06217	3758.9875
1002.78939	3902.3875
1006.51404	4036.5875
1010.23611	4193.8875
1013.95561	4288.9875
1017.67255	4307.4875
1021.38692	4243.2875
1025.09872	4104.0875
1028.80796	3964.6875
1032.51465	3851.5875
1036.21877	3795.6875
1039.92035	3792.7875
1043.61937	3760.6875
1047.31584	3765.7875
1051.00976	3760.9875
1054.70114	3780.2875
1058.38998	3810.9875
1062.07627	3895.5875
1065.76003	3965.5875
1069.44126	4029.7875
1073.11995	4070.9875
1076.79611	4098.0875
1080.46974	4120.2875
1084.14085	4163.6875
1087.80943	4182.4875
1091.47549	4131.2875
1095.13903	4024.7875
1098.80005	3856.4875
1102.45857	3751.9875
1106.11456	3753.5875
1109.76805	3827.5875
1113.41903	3994.7875
1117.06751	4255.9875
1120.71348	4651.6875
1124.35696	5162.3875
1127.99793	5726.2875
1131.63641	6134.8875
1135.2724	6224.0875
1138.90589	6083.6875
1142.5369	5802.6875
1146.16542	5368.8875
1149.79145	4904.8875
1153.415	4514.0875
1157.03607	4207.9875
1160.65467	4061.1875
1164.27079	4038.7875
1167.88443	4163.2875
1171.49561	4445.8875
1175.10432	4951.5875
1178.71056	5695.5875
1182.31434	6371.7875
1185.91565	6660.9875
1189.51451	6696.3875
1193.11091	6606.0875
1196.70485	6506.9875
1200.29634	6468.2875
1203.88538	6350.9875
1207.47197	6037.7875
1211.05612	5641.6875
1214.63782	5277.5875
1218.21708	4967.2875
1221.79391	4723.4875
1225.36829	4505.6875
1228.94024	4337.8875
1232.50976	4204.2875
1236.07685	4153.6875
1239.6415	4141.9875
1243.20374	4193.6875
1246.76355	4227.2875
1250.32093	4258.6875
1253.8759	4366.9875
1257.42845	4466.6875
1260.97859	4595.4875
1264.52631	4716.2875
1268.07163	4826.8875
1271.61453	4902.8875
1275.15503	4910.2875
1278.69312	4885.0875
1282.22882	4863.5875
1285.76211	4928.7875
1289.29301	5099.6875
1292.82151	5311.5875
1296.34761	5546.9875
1299.87133	5832.3875
1303.39266	6309.1875
1306.9116	6983.4875
1310.42815	7813.9875
1313.94233	8333.2875
1317.45412	8214.1875
1320.96354	7637.8875
1324.47058	6958.4875
1327.97525	6406.9875
1331.47754	6053.6875
1334.97747	5968.7875
1338.47502	6091.3875
1341.97022	6303.6875
1345.46305	6578.2875
1348.95352	7103.8875
1352.44163	7819.1875
1355.92738	8807.6875
1359.41078	10049.7875
1362.89183	11120.1875
1366.37053	10989.7875
1369.84688	9558.7875
1373.32088	7979.2875
1376.79254	6857.5875
1380.26186	6263.9875
1383.72883	5922.8875
1387.19347	5648.4875
1390.65578	5317.9875
1394.11575	5058.5875
1397.57339	4889.6875
1401.0287	4793.4875
1404.48168	4686.9875
1407.93234	4584.0875
1411.38068	4500.6875
1414.82669	4417.2875
1418.27039	4350.8875
1421.71177	4248.6875
1425.15083	4171.0875
1428.58758	4113.5875
1432.02203	4149.2875
1435.45416	4218.1875
1438.88399	4228.6875
1442.31151	4218.2875
1445.73673	4194.1875
1449.15965	4202.6875
1452.58027	4150.6875
1455.9986	4078.1875
1459.41463	4025.8875
1462.82837	4067.4875
1466.23982	4147.9875
1469.64898	4261.2875
1473.05586	4373.6875
1476.46045	4450.3875
1479.86276	4586.4875
1483.26279	4756.3875
1486.66054	4950.4875
1490.05602	5140.0875
1493.44922	5391.2875
1496.84016	5747.7875
1500.22882	6291.6875
1503.61521	7040.1875
1506.99934	7911.7875
1510.38121	8708.9875
1513.76081	9047.3875
1517.13816	8608.0875
1520.51324	7532.4875
1523.88607	6452.5875
1527.25665	5730.6875
1530.62498	5370.0875
1533.99105	5258.4875
1537.35488	5201.4875
1540.71647	5192.3875
1544.07581	5231.0875
1547.4329	5288.0875
1550.78776	5319.2875
1554.14038	5338.0875
1557.49077	5345.7875
1560.83892	5394.3875
1564.18484	5472.8875
1567.52853	5642.1875
1570.86999	5797.1875
1574.20922	5948.0875
1577.54624	5944.0875
1580.88103	5726.4875
1584.2136	5332.5875
1587.54395	5056.5875
1590.87208	5030.5875
1594.19801	5186.9875
1597.52172	5535.9875
1600.84321	5792.0875
1604.16251	5781.0875
1607.47959	5561.8875
1610.79447	5274.6875
1614.10715	4959.2875
1617.41763	4750.0875
1620.7259	4642.3875
1624.03199	4624.2875
1627.33587	4694.6875
1630.63757	4823.3875
1633.93707	5061.9875
1637.23439	5425.1875
1640.52951	5984.3875
1643.82246	6774.5875
1647.11321	7635.6875
1650.40179	8318.8875
1653.68819	8250.5875
1656.97241	7469.7875
1660.25446	6430.7875
1663.53433	5525.6875
1666.81203	4857.3875
1670.08756	4374.9875
1673.36092	3998.7875
1676.63211	3734.9875
1679.90115	3550.7875
1683.16801	3390.3875
1686.43272	3271.1875
1689.69527	3179.1875
1692.95567	3088.8875
1696.2139	3002.4875
1699.46999	2942.5875
1702.72392	2859.1875
1705.97571	2778.1875
1709.22535	2724.1875
1712.47284	2656.6875
1715.71819	2633.9875
1718.96139	2612.5875
1722.20246	2574.0875
1725.44139	2533.2875
1728.67818	2506.3875
1731.91284	2467.2875
1735.14537	2440.5875
1738.37576	2399.4875
1741.60403	2386.1875
1744.83017	2384.6875
1748.05418	2364.5875
1751.27607	2342.9875
1754.49584	2344.9875
1757.71349	2329.2875
1760.92903	2310.0875
1764.14244	2300.1875
1767.35375	2301.6875
1770.56294	2288.0875
1773.77002	2279.7875
1776.97499	2258.9875
1780.17785	2248.6875
1783.37861	2235.0875
1786.57727	2231.2875
1789.77382	2204.4875
1792.96828	2204.7875
1796.16064	2202.5875
1799.3509	2189.9875
1802.53907	2178.6875
1805.72514	2161.8875
1808.90913	2156.5875
1812.09102	2148.1875
1815.27083	2141.3875
1818.44856	2131.8875
1821.6242	2115.9875
1824.79776	2118.8875
1827.96924	2097.1875
1831.13864	2096.7875
1834.30597	2083.3875
1837.47122	2089.3875
1840.6344	2075.0875
1843.7955	2067.0875
1846.95454	2066.4875
1850.11151	2053.4875
1853.26642	2051.8875
1856.41926	2054.9875
1859.57004	2043.8875
1862.71876	2044.6875
1865.86542	2031.1875
1869.01003	2043.8875
1872.15258	2029.3875
1875.29308	2033.3875
1878.43152	2005.4875
1881.56792	2021.6875
1884.70227	2006.4875
1887.83457	2006.9875
1890.96482	1995.3875
1894.09304	1987.6875
1897.21921	1993.5875
1900.34335	1973.8875
1903.46544	1979.9875
1906.58551	1975.6875
1909.70353	1973.6875
1912.81953	1959.6875
1915.93349	1960.9875
1919.04543	1947.9875
1922.15534	1953.0875
1925.26322	1945.1875
1928.36908	1940.3875
1931.47292	1931.1875
1934.57473	1919.0875
1937.67453	1910.3875
1940.77232	1898.0875
1943.86808	1898.4875
1946.96184	1890.7875
1950.05358	1882.7875
1953.14331	1875.5875
1956.23103	1867.4875
1959.31675	1856.4875
1962.40046	1858.8875
1965.48217	1847.4875
1968.56188	1843.5875
1971.63959	1840.5875
1974.7153	1828.1875
1977.78901	1821.0875
1980.86073	1820.9875
1983.93046	1810.7875
1986.99819	1799.7875
1990.06394	1789.4875
1993.1277	1781.1875
1996.18947	1781.6875
1999.24925	1766.0875
2002.30706	1768.2875
2005.36288	1745.3875
2008.41672	1741.5875
2011.46859	1746.8875
2014.51848	1744.5875
2017.56639	1729.6875
2020.61233	1724.7875
2023.6563	1718.7875
2026.6983	1695.7875
2029.73833	1704.3875
2032.7764	1694.0875
2035.8125	1683.9875
2038.84664	1687.1875
2041.87881	1686.4875
2044.90903	1681.2875
2047.93729	1674.3875
2050.96359	1678.2875
2053.98794	1659.0875
2057.01034	1660.5875
2060.03078	1656.7875
2063.04927	1671.4875
2066.06582	1656.7875
2069.08042	1654.9875
2072.09307	1656.6875
2075.10378	1646.3875
2078.11255	1651.4875
2081.11938	1651.5875
2084.12426	1643.5875
2087.12722	1648.8875
2090.12824	1635.2875
2093.12732	1639.1875
2096.12447	1630.4875
2099.11969	1636.0875
2102.11299	1633.3875
2105.10435	1627.0875
2108.09379	1632.4875
2111.08131	1629.0875
2114.0669	1624.4875
2117.05057	1638.1875
2120.03233	1634.7875
2123.01216	1631.3875
2125.99008	1628.2875
2128.96609	1627.4875
2131.94018	1627.4875
2134.91236	1622.2875
2137.88263	1637.3875
2140.851	1621.9875
2143.81746	1631.5875
2146.78201	1622.9875
2149.74466	1615.6875
2152.7054	1611.2875
2155.66425	1601.7875
2158.6212	1597.4875
2161.57625	1596.5875
2164.52941	1588.3875
2167.48067	1588.6875
2170.43004	1600.2875
2173.37752	1597.4875
2176.32311	1589.5875
2179.26681	1581.3875
2182.20863	1586.1875
2185.14856	1586.7875
2188.08661	1582.3875
2191.02278	1577.8875
2193.95707	1573.1875
2196.88948	1574.7875
2199.82001	1572.8875
2202.74867	1563.0875
2205.67545	1561.7875
2208.60037	1557.8875
2211.52341	1557.8875
2214.44458	1540.7875
2217.36388	1546.9875
2220.28132	1538.7875
2223.1969	1536.7875
2226.11061	1530.7875
2229.02246	1520.3875
2231.93245	1519.5875
2234.84058	1517.6875
2237.74686	1513.9875
2240.65128	1510.9875
2243.55385	1514.1875
2246.45456	1505.8875
2249.35343	1498.5875
2252.25044	1507.3875
2255.14561	1503.0875
2258.03893	1508.7875
2260.93041	1496.3875
2263.82004	1496.5875
2266.70783	1493.7875
2269.59378	1492.0875
2272.4779	1488.1875
2275.36017	1481.0875
2278.24061	1468.6875
2281.11922	1465.0875
2283.996	1465.8875
2286.87094	1452.7875
2289.74405	1445.7875
2292.61534	1444.5875
2295.4848	1427.6875
2298.35243	1446.6875
2301.21824	1433.7875
2304.08223	1428.4875
2306.94439	1429.1875
2309.80474	1420.4875
2312.66327	1429.1875
2315.51999	1425.4875
2318.37489	1419.1875
2321.22797	1416.0875
2324.07925	1410.1875
2326.92871	1406.1875
2329.77637	1407.2875
2332.62222	1405.2875
2335.46626	1395.2875
2338.3085	1397.6875
2341.14893	1395.6875
2343.98756	1388.2875
2346.8244	1393.6875
2349.65943	1385.8875
2352.49267	1387.7875
2355.32411	1386.5875
2358.15376	1390.6875
2360.98161	1395.8875
2363.80768	1395.9875
2366.63195	1407.9875
2369.45444	1399.3875
2372.27514	1409.7875
2375.09405	1408.6875
2377.91118	1395.6875
2380.72652	1395.8875
2383.54009	1384.2875
2386.35187	1377.0875
2389.16188	1370.0875
2391.97011	1369.6875
2394.77657	1358.5875
2397.58125	1358.7875
2400.38416	1346.6875
2403.18529	1342.8875
2405.98466	1336.5875
2408.78226	1346.1875
2411.57809	1332.1875
2414.37216	1327.4875
2417.16446	1317.7875
2419.955	1320.4875
2422.74378	1325.9875
2425.5308	1319.4875
2428.31606	1320.9875
2431.09956	1322.1875
2433.88131	1310.0875
2436.6613	1305.3875
2439.43954	1304.3875
2442.21603	1309.2875
2444.99077	1300.6875
2447.76377	1307.7875
2450.53501	1305.9875
2453.30451	1308.2875
2456.07226	1300.0875
2458.83827	1292.3875
2461.60254	1293.0875
2464.36507	1301.0875
2467.12586	1299.2875
2469.88492	1295.0875
2472.64224	1295.5875
2475.39782	1296.5875
2478.15167	1295.2875
2480.90379	1293.8875
2483.65417	1303.6875
2486.40283	1300.6875
2489.14976	1294.2875
2491.89497	1301.3875
2494.63845	1310.2875
2497.3802	1299.2875
2500.12024	1302.4875
2502.85855	1290.0875
2505.59514	1287.1875
2508.33002	1294.4875
2511.06318	1273.9875
2513.79462	1267.8875
2516.52435	1256.8875
2519.25237	1256.7875
2521.97867	1252.6875
2524.70327	1247.9875
2527.42616	1235.9875
2530.14734	1240.6875
2532.86681	1229.7875
2535.58458	1234.8875
2538.30065	1228.8875
2541.01501	1227.8875
2543.72768	1231.4875
2546.43864	1220.0875
2549.14791	1226.8875
2551.85548	1215.9875
2554.56136	1226.5875
2557.26554	1227.2875
2559.96803	1222.0875
2562.66883	1218.1875
2565.36794	1214.2875
2568.06536	1210.6875
2570.7611	1205.6875
2573.45514	1209.1875
2576.14751	1206.8875
2578.83819	1205.3875
2581.52719	1198.2875
2584.21451	1194.6875
2586.90015	1192.9875
2589.58411	1177.1875
2592.2664	1188.7875
2594.94701	1189.5875
2597.62594	1183.7875
2600.30321	1173.7875
2602.9788	1188.7875
2605.65273	1182.1875
2608.32498	1179.1875
2610.99557	1165.9875
2613.66449	1173.3875
2616.33175	1172.6875
2618.99734	1163.2875
2621.66128	1164.5875
2624.32355	1173.2875
2626.98416	1164.1875
2629.64311	1154.4875
2632.30041	1157.5875
2634.95605	1161.5875
2637.61004	1149.0875
2640.26238	1147.9875
2642.91306	1147.8875
2645.56209	1138.2875
2648.20948	1149.1875
2650.85521	1137.4875
2653.4993	1145.6875
2656.14175	1144.5875
2658.78255	1148.8875
2661.42171	1143.5875
2664.05923	1147.3875
2666.6951	1145.1875
2669.32934	1151.3875
2671.96194	1155.5875
2674.59291	1151.6875
2677.22224	1147.9875
2679.84993	1156.5875
2682.476	1155.1875
2685.10043	1155.9875
2687.72324	1155.2875
2690.34441	1153.3875
2692.96396	1161.5875
2695.58188	1156.2875
2698.19818	1157.2875
2700.81285	1162.0875
2703.4259	1161.8875
2706.03733	1179.4875
2708.64714	1164.8875
2711.25533	1168.3875
2713.86191	1170.9875
2716.46687	1177.3875
2719.07021	1176.3875
2721.67194	1180.8875
2724.27206	1179.9875
2726.87057	1177.7875
2729.46747	1176.5875
2732.06276	1174.8875
2734.65644	1175.2875
2737.24852	1179.3875
2739.83899	1175.4875
2742.42786	1171.7875
2745.01513	1162.9875
2747.60079	1165.5875
2750.18486	1162.9875
2752.76733	1160.2875
2755.3482	1154.1875
2757.92747	1152.1875
2760.50515	1152.3875
2763.08123	1160.8875
2765.65573	1154.7875
2768.22863	1161.1875
2770.79994	1156.1875
2773.36967	1151.5875
2775.9378	1154.1875
2778.50435	1159.3875
2781.06932	1164.7875
2783.6327	1168.5875
2786.1945	1165.6875
2788.75471	1169.2875
2791.31335	1173.6875
2793.87041	1177.4875
2796.42589	1178.2875
2798.97979	1182.0875
2801.53212	1184.9875
2804.08288	1186.8875
2806.63206	1183.5875
2809.17967	1180.3875
2811.72571	1192.5875
2814.27018	1187.3875
2816.81308	1184.9875
2819.35442	1190.0875
2821.89419	1188.1875
2824.43239	1194.2875
2826.96904	1197.3875
2829.50412	1196.9875
2832.03763	1196.5875
2834.56959	1206.8875
2837.1	1213.3875
2839.62884	1220.4875
2842.15613	1219.8875
2844.68186	1253.7875
2847.20604	1271.7875
2849.72867	1280.0875
2852.24974	1286.4875
2854.76927	1288.4875
2857.28724	1290.9875
2859.80367	1291.2875
2862.31855	1283.3875
2864.83189	1279.7875
2867.34368	1277.1875
2869.85393	1270.8875
2872.36264	1265.7875
2874.8698	1265.9875
2877.37543	1274.8875
2879.87952	1266.6875
2882.38207	1268.0875
2884.88308	1268.0875
2887.38256	1263.5875
2889.88051	1263.3875
2892.37692	1260.8875
2894.8718	1263.4875
2897.36515	1260.7875
2899.85698	1275.6875
2902.34727	1272.8875
2904.83604	1267.7875
2907.32328	1270.9875
2909.809	1275.2875
2912.29319	1274.5875
2914.77587	1270.8875
2917.25702	1283.6875
2919.73665	1270.2875
2922.21476	1278.0875
2924.69136	1267.2875
2927.16644	1267.0875
2929.64	1260.1875
2932.11205	1259.7875
2934.58258	1245.0875
2937.05161	1231.1875
2939.51912	1226.4875
2941.98513	1219.6875
2944.44962	1206.5875
2946.91261	1194.3875
2949.37409	1180.6875
2951.83407	1168.2875
2954.29254	1156.5875
2956.74951	1144.3875
2959.20498	1145.4875
2961.65895	1142.9875
2964.11142	1142.0875
2966.56239	1129.8875
2969.01186	1102.5875
2971.45984	1114.5875
2973.90632	1123.2875
2976.35131	1119.2875
2978.7948	1110.8875
2981.23681	1107.5875
2983.67732	1106.8875
2986.11635	1098.2875
2988.55388	1104.6875
2990.98993	1101.3875
2993.4245	1099.7875
2995.85758	1095.1875
2998.28917	1096.9875
3000.71928	1094.9875
3003.14791	1100.4875
3005.57506	1089.3875
3008.00073	1084.4875
3010.42493	1094.9875
3012.84764	1093.9875
3015.26888	1095.8875
3017.68865	1096.9875
3020.10694	1093.7875
3022.52376	1097.0875
3024.9391	1098.4875
3027.35298	1104.5875
3029.76539	1098.2875
3032.17632	1097.1875
3034.5858	1101.7875
3036.9938	1098.4875
3039.40034	1102.0875
3041.80542	1104.8875
3044.20903	1105.2875
3046.61118	1112.0875
3049.01187	1108.1875
3051.4111	1106.0875
3053.80888	1114.5875
3056.20519	1117.1875
3058.60005	1118.1875
3060.99345	1129.2875
3063.3854	1127.4875
3065.7759	1126.0875
3068.16494	1127.4875
3070.55254	1135.3875
3072.93868	1129.8875
3075.32338	1139.6875
3077.70662	1135.2875
3080.08842	1126.5875
3082.46878	1135.1875
3084.84769	1143.5875
3087.22515	1144.1875
3089.60118	1148.1875
3091.97576	1148.0875
3094.3489	1151.9875
3096.72061	1155.8875
3099.09087	1160.3875
3101.4597	1166.4875
3103.82709	1179.5875
3106.19305	1180.8875
3108.55757	1185.6875
3110.92066	1184.9875
3113.28232	1191.8875
3115.64255	1195.7875
3118.00134	1197.4875
3120.35871	1208.8875
3122.71466	1205.9875
3125.06917	1217.1875
3127.42226	1225.0875
