Data from AgNPs_APTES_FTO_UA_50uM_CRN_0uM_R6G_10uM_Scan_RamanShift__32__11-48-23-692.txt Node

Date: Tue Jul 05 11:48:23 BST 2022
User: TCL
Spectrometer: QEP01345
Trigger mode: 4
Integration Time (sec): 7.000000E0
Scans to average: 10
Electric dark correction enabled: true
Nonlinearity correction enabled: false
Boxcar width: 0
XAxis mode: Raman Shifts
Number of Pixels in Spectrum: 1044
>>>>>Begin Spectral Data<<<<<
46.04893	-0.125
50.45542	-0.325
54.85868	-1.525
59.25871	0.675
63.6555	36.475
68.04907	37.975
72.43941	44.275
76.82654	43.775
81.21044	48.775
85.59113	50.675
89.96862	51.175
94.34289	54.375
98.71396	53.175
103.08183	61.575
107.4465	56.775
111.80798	59.375
116.16626	58.375
120.52136	58.675
124.87327	59.175
129.222	60.175
133.56755	62.075
137.90993	64.575
142.24913	68.475
146.58517	74.075
150.91804	79.175
155.24774	91.475
159.57429	102.575
163.89768	127.375
168.21792	165.775
172.53501	212.175
176.84895	288.675
181.15975	398.375
185.46741	549.075
189.77193	744.075
194.07331	990.775
198.37157	1269.375
202.6667	1560.275
206.9587	1842.975
211.24758	2121.275
215.53334	2403.375
219.81599	2705.575
224.09553	3019.775
228.37195	3377.975
232.64527	3757.975
236.91549	4139.475
241.18261	4504.075
245.44663	4820.475
249.70755	5102.875
253.96539	5326.375
258.22014	5499.875
262.4718	5649.275
266.72039	5759.275
270.96589	5804.375
275.20832	5781.475
279.44768	5717.975
283.68397	5618.175
287.91719	5546.775
292.14735	5499.175
296.37445	5531.175
300.59849	5613.075
304.81948	5752.875
309.03742	5823.675
313.25231	5806.975
317.46415	5651.075
321.67296	5372.575
325.87872	5144.175
330.08145	5025.475
334.28114	4993.875
338.47781	5017.975
342.67145	5107.775
346.86207	5231.975
351.04966	5443.675
355.23424	5643.975
359.4158	5852.175
363.59435	5984.375
367.76989	6054.975
371.94243	6121.975
376.11196	6154.275
380.27849	6177.675
384.44203	6178.575
388.60257	6179.975
392.76012	6147.975
396.91468	6164.875
401.06626	6271.175
405.21485	6305.775
409.36047	6229.175
413.50311	5999.475
417.64277	5760.675
421.77947	5646.675
425.9132	5582.275
430.04396	5576.175
434.17176	5617.975
438.2966	5684.775
442.41849	5794.775
446.53742	5932.475
450.6534	6049.275
454.76644	6119.475
458.87653	6105.275
462.98368	6062.775
467.08789	5987.575
471.18916	5945.275
475.2875	5909.475
479.38291	5886.575
483.4754	5915.275
487.56496	6035.975
491.6516	6162.575
495.73531	6247.775
499.81612	6211.275
503.89401	6136.075
507.96899	6079.375
512.04106	6101.075
516.11023	6203.275
520.1765	6273.875
524.23987	6323.975
528.30034	6336.375
532.35792	6268.275
536.41261	6163.475
540.46441	5989.875
544.51333	5872.975
548.55936	5802.075
552.60252	5803.775
556.64279	5854.475
560.6802	5874.875
564.71473	5889.875
568.7464	5988.575
572.7752	6056.275
576.80114	5987.875
580.82422	5915.175
584.84444	5962.275
588.86181	6141.375
592.87633	6280.275
596.888	6351.175
600.89682	6384.675
604.9028	6786.975
608.90594	7987.675
612.90624	9570.975
616.90371	9420.275
620.89834	7799.975
624.89015	7221.875
628.87913	7504.575
632.86528	7994.475
636.84862	8290.775
640.82913	8151.375
644.80683	7667.275
648.78172	7100.075
652.75379	6683.575
656.72306	6470.275
660.68952	6400.175
664.65319	6238.075
668.61405	5970.475
672.57211	5854.375
676.52738	5855.075
680.47986	5848.175
684.42955	5831.275
688.37646	5787.875
692.32058	5757.575
696.26192	5760.075
700.20048	5760.675
704.13626	5776.375
708.06928	5745.575
711.99952	5716.275
715.927	5732.975
719.85171	5809.275
723.77365	5888.675
727.69284	5889.075
731.60928	5849.975
735.52295	5782.575
739.43388	5734.475
743.34206	5710.375
747.24749	5730.175
751.15017	5708.975
755.05012	5723.875
758.94733	5865.275
762.8418	6232.675
766.73354	6897.675
770.62254	7633.775
774.50882	8073.275
778.39237	7840.775
782.27321	7074.075
786.15132	6315.375
790.02671	5884.975
793.89938	5697.375
797.76935	5681.375
801.6366	5785.075
805.50115	5998.375
809.36299	6246.875
813.22213	6306.475
817.07857	6187.475
820.93231	5969.175
824.78336	5745.775
828.63172	5574.675
832.47738	5461.975
836.32036	5403.675
840.16066	5369.575
843.99827	5347.175
847.8332	5351.675
851.66546	5334.975
855.49504	5317.975
859.32195	5319.075
863.1462	5346.075
866.96777	5384.275
870.78668	5482.175
874.60293	5646.575
878.41652	5847.675
882.22745	6032.175
886.03573	6140.675
889.84136	6119.975
893.64433	5998.775
897.44466	5788.475
901.24235	5585.375
905.0374	5418.175
908.8298	5288.775
912.61957	5209.175
916.40671	5175.275
920.19121	5157.675
923.97308	5166.175
927.75233	5195.675
931.52895	5229.675
935.30295	5180.275
939.07433	5067.675
942.84309	4978.875
946.60924	4890.075
950.37278	4882.175
954.13371	4821.875
957.89203	4786.675
961.64774	4770.875
965.40086	4745.175
969.15137	4714.375
972.89929	4695.675
976.64461	4677.275
980.38733	4667.675
984.12747	4638.675
987.86502	4657.975
991.59999	4678.675
995.33237	4746.775
999.06217	4841.175
1002.78939	4955.975
1006.51404	5079.075
1010.23611	5202.675
1013.95561	5299.275
1017.67255	5302.075
1021.38692	5266.975
1025.09872	5123.375
1028.80796	5010.675
1032.51465	4890.775
1036.21877	4824.975
1039.92035	4792.375
1043.61937	4779.475
1047.31584	4779.075
1051.00976	4793.375
1054.70114	4803.375
1058.38998	4844.275
1062.07627	4908.275
1065.76003	4967.775
1069.44126	5006.775
1073.11995	5042.575
1076.79611	5065.475
1080.46974	5089.275
1084.14085	5117.675
1087.80943	5138.075
1091.47549	5127.175
1095.13903	5006.775
1098.80005	4860.775
1102.45857	4767.375
1106.11456	4732.275
1109.76805	4801.075
1113.41903	4955.075
1117.06751	5200.575
1120.71348	5549.675
1124.35696	6035.875
1127.99793	6547.475
1131.63641	6961.275
1135.2724	7030.475
1138.90589	6874.175
1142.5369	6598.675
1146.16542	6204.375
1149.79145	5763.275
1153.415	5366.275
1157.03607	5097.275
1160.65467	4957.675
1164.27079	4934.275
1167.88443	5047.175
1171.49561	5302.875
1175.10432	5769.675
1178.71056	6434.675
1182.31434	7065.875
1185.91565	7334.775
1189.51451	7303.475
1193.11091	7168.375
1196.70485	7001.975
1200.29634	6930.075
1203.88538	6833.075
1207.47197	6560.075
1211.05612	6203.075
1214.63782	5871.975
1218.21708	5624.775
1221.79391	5420.475
1225.36829	5268.275
1228.94024	5124.675
1232.50976	5009.575
1236.07685	4951.975
1239.6415	4937.175
1243.20374	4952.975
1246.76355	4995.475
1250.32093	5042.875
1253.8759	5098.375
1257.42845	5215.775
1260.97859	5314.075
1264.52631	5419.275
1268.07163	5529.475
1271.61453	5606.275
1275.15503	5640.875
1278.69312	5597.775
1282.22882	5576.675
1285.76211	5646.375
1289.29301	5797.375
1292.82151	5953.575
1296.34761	6164.775
1299.87133	6431.675
1303.39266	6888.675
1306.9116	7540.875
1310.42815	8305.775
1313.94233	8796.875
1317.45412	8702.075
1320.96354	8170.675
1324.47058	7538.975
1327.97525	6955.275
1331.47754	6623.875
1334.97747	6502.375
1338.47502	6567.975
1341.97022	6757.975
1345.46305	7010.675
1348.95352	7501.975
1352.44163	8202.075
1355.92738	9121.775
1359.41078	10342.675
1362.89183	11465.775
1366.37053	11406.175
1369.84688	10071.475
1373.32088	8463.075
1376.79254	7410.175
1380.26186	6844.775
1383.72883	6548.475
1387.19347	6274.275
1390.65578	5965.175
1394.11575	5726.675
1397.57339	5568.075
1401.0287	5461.875
1404.48168	5371.775
1407.93234	5270.675
1411.38068	5151.875
1414.82669	5078.175
1418.27039	4979.075
1421.71177	4905.175
1425.15083	4809.275
1428.58758	4755.275
1432.02203	4737.575
1435.45416	4787.875
1438.88399	4816.675
1442.31151	4820.875
1445.73673	4788.475
1449.15965	4799.575
1452.58027	4759.075
1455.9986	4690.675
1459.41463	4639.275
1462.82837	4644.775
1466.23982	4743.275
1469.64898	4845.075
1473.05586	4929.575
1476.46045	4991.875
1479.86276	5096.675
1483.26279	5245.975
1486.66054	5408.375
1490.05602	5574.175
1493.44922	5796.175
1496.84016	6155.975
1500.22882	6681.475
1503.61521	7444.375
1506.99934	8341.075
1510.38121	9137.575
1513.76081	9554.275
1517.13816	9122.675
1520.51324	8061.675
1523.88607	7024.575
1527.25665	6280.375
1530.62498	5898.175
1533.99105	5733.875
1537.35488	5661.075
1540.71647	5628.275
1544.07581	5641.275
1547.4329	5679.375
1550.78776	5720.675
1554.14038	5748.975
1557.49077	5771.175
1560.83892	5833.675
1564.18484	5942.475
1567.52853	6071.375
1570.86999	6247.675
1574.20922	6377.875
1577.54624	6373.775
1580.88103	6158.175
1584.2136	5792.675
1587.54395	5513.475
1590.87208	5453.675
1594.19801	5614.075
1597.52172	5903.575
1600.84321	6140.975
1604.16251	6121.975
1607.47959	5932.175
1610.79447	5689.975
1614.10715	5416.975
1617.41763	5248.675
1620.7259	5145.775
1624.03199	5116.275
1627.33587	5140.775
1630.63757	5242.275
1633.93707	5456.975
1637.23439	5755.475
1640.52951	6228.275
1643.82246	6930.575
1647.11321	7759.075
1650.40179	8382.875
1653.68819	8364.675
1656.97241	7633.775
1660.25446	6643.975
1663.53433	5849.575
1666.81203	5281.675
1670.08756	4849.475
1673.36092	4547.375
1676.63211	4308.675
1679.90115	4146.775
1683.16801	4007.175
1686.43272	3898.175
1689.69527	3806.075
1692.95567	3725.875
1696.2139	3637.375
1699.46999	3559.575
1702.72392	3462.975
1705.97571	3397.275
1709.22535	3322.275
1712.47284	3263.675
1715.71819	3207.975
1718.96139	3165.675
1722.20246	3129.675
1725.44139	3089.275
1728.67818	3043.075
1731.91284	3015.975
1735.14537	2988.475
1738.37576	2946.775
1741.60403	2932.975
1744.83017	2915.275
1748.05418	2898.175
1751.27607	2896.375
1754.49584	2872.675
1757.71349	2854.475
1760.92903	2846.775
1764.14244	2828.775
1767.35375	2810.675
1770.56294	2791.175
1773.77002	2782.075
1776.97499	2766.075
1780.17785	2765.275
1783.37861	2764.275
1786.57727	2746.575
1789.77382	2726.575
1792.96828	2720.075
1796.16064	2701.675
1799.3509	2690.775
1802.53907	2683.575
1805.72514	2671.875
1808.90913	2664.375
1812.09102	2643.575
1815.27083	2644.075
1818.44856	2631.675
1821.6242	2617.275
1824.79776	2607.875
1827.96924	2598.175
1831.13864	2585.675
1834.30597	2579.175
1837.47122	2589.175
1840.6344	2562.775
1843.7955	2563.475
1846.95454	2554.275
1850.11151	2543.175
1853.26642	2549.375
1856.41926	2532.475
1859.57004	2519.075
1862.71876	2528.275
1865.86542	2513.975
1869.01003	2515.475
1872.15258	2519.175
1875.29308	2503.375
1878.43152	2494.075
1881.56792	2491.975
1884.70227	2483.075
1887.83457	2477.675
1890.96482	2476.575
1894.09304	2459.675
1897.21921	2461.975
1900.34335	2453.175
1903.46544	2444.675
1906.58551	2443.175
1909.70353	2442.775
1912.81953	2442.575
1915.93349	2433.975
1919.04543	2420.275
1922.15534	2413.175
1925.26322	2391.475
1928.36908	2390.675
1931.47292	2378.375
1934.57473	2374.375
1937.67453	2358.175
1940.77232	2352.475
1943.86808	2338.775
1946.96184	2339.375
1950.05358	2328.675
1953.14331	2312.475
1956.23103	2306.475
1959.31675	2294.775
1962.40046	2279.875
1965.48217	2278.375
1968.56188	2266.975
1971.63959	2258.775
1974.7153	2250.275
1977.78901	2247.775
1980.86073	2243.475
1983.93046	2232.675
1986.99819	2207.875
1990.06394	2207.175
1993.1277	2202.875
1996.18947	2182.275
1999.24925	2169.475
2002.30706	2172.675
2005.36288	2145.875
2008.41672	2144.775
2011.46859	2144.275
2014.51848	2135.975
2017.56639	2136.875
2020.61233	2109.675
2023.6563	2110.175
2026.6983	2095.375
2029.73833	2095.075
2032.7764	2077.775
2035.8125	2077.175
2038.84664	2083.975
2041.87881	2068.075
2044.90903	2066.375
2047.93729	2047.475
2050.96359	2051.675
2053.98794	2048.875
2057.01034	2033.675
2060.03078	2032.775
2063.04927	2035.375
2066.06582	2025.875
2069.08042	2025.975
2072.09307	2021.875
2075.10378	2016.275
2078.11255	2015.975
2081.11938	2025.775
2084.12426	2006.175
2087.12722	2015.075
2090.12824	1999.975
2093.12732	2000.475
2096.12447	2009.675
2099.11969	1994.175
2102.11299	1991.175
2105.10435	1987.275
2108.09379	1992.475
2111.08131	1996.375
2114.0669	1985.475
2117.05057	1993.475
2120.03233	1985.775
2123.01216	1991.075
2125.99008	1990.175
2128.96609	1992.275
2131.94018	1980.875
2134.91236	1986.375
2137.88263	1996.675
2140.851	1980.575
2143.81746	1986.775
2146.78201	1979.675
2149.74466	1980.375
2152.7054	1965.175
2155.66425	1957.375
2158.6212	1952.375
2161.57625	1951.375
2164.52941	1946.675
2167.48067	1947.275
2170.43004	1948.875
2173.37752	1948.475
2176.32311	1946.375
2179.26681	1940.775
2182.20863	1928.375
2185.14856	1939.775
2188.08661	1925.775
2191.02278	1925.875
2193.95707	1914.975
2196.88948	1915.775
2199.82001	1921.975
2202.74867	1899.375
2205.67545	1903.675
2208.60037	1897.775
2211.52341	1898.075
2214.44458	1881.875
2217.36388	1872.175
2220.28132	1880.875
2223.1969	1867.975
2226.11061	1865.775
2229.02246	1859.675
2231.93245	1847.475
2234.84058	1844.475
2237.74686	1845.275
2240.65128	1842.975
2243.55385	1838.075
2246.45456	1824.375
2249.35343	1820.775
2252.25044	1830.875
2255.14561	1814.875
2258.03893	1814.475
2260.93041	1816.675
2263.82004	1809.375
2266.70783	1818.875
2269.59378	1789.075
2272.4779	1786.275
2275.36017	1780.475
2278.24061	1773.175
2281.11922	1773.475
2283.996	1766.975
2286.87094	1767.175
2289.74405	1754.275
2292.61534	1735.675
2295.4848	1740.275
2298.35243	1743.275
2301.21824	1745.675
2304.08223	1739.175
2306.94439	1732.175
2309.80474	1725.175
2312.66327	1718.075
2315.51999	1725.875
2318.37489	1706.475
2321.22797	1712.675
2324.07925	1704.075
2326.92871	1701.875
2329.77637	1699.575
2332.62222	1706.275
2335.46626	1686.375
2338.3085	1676.475
2341.14893	1678.275
2343.98756	1674.975
2346.8244	1674.375
2349.65943	1669.775
2352.49267	1671.575
2355.32411	1672.675
2358.15376	1668.875
2360.98161	1671.575
2363.80768	1682.575
2366.63195	1677.875
2369.45444	1685.875
2372.27514	1683.875
2375.09405	1676.675
2377.91118	1665.275
2380.72652	1668.075
2383.54009	1656.875
2386.35187	1643.775
2389.16188	1634.675
2391.97011	1633.775
2394.77657	1629.775
2397.58125	1610.075
2400.38416	1608.475
2403.18529	1607.875
2405.98466	1604.975
2408.78226	1603.275
2411.57809	1596.875
2414.37216	1592.675
2417.16446	1587.475
2419.955	1586.975
2422.74378	1581.775
2425.5308	1573.075
2428.31606	1585.575
2431.09956	1575.575
2433.88131	1564.275
2436.6613	1565.375
2439.43954	1560.975
2442.21603	1562.175
2444.99077	1570.475
2447.76377	1558.375
2450.53501	1559.575
2453.30451	1558.775
2456.07226	1550.075
2458.83827	1542.275
2461.60254	1549.575
2464.36507	1540.075
2467.12586	1542.575
2469.88492	1537.075
2472.64224	1532.775
2475.39782	1537.675
2478.15167	1536.175
2480.90379	1533.275
2483.65417	1535.775
2486.40283	1526.775
2489.14976	1537.375
2491.89497	1543.175
2494.63845	1536.875
2497.3802	1524.975
2500.12024	1534.575
2502.85855	1528.375
2505.59514	1525.975
2508.33002	1515.575
2511.06318	1506.475
2513.79462	1493.775
2516.52435	1485.575
2519.25237	1482.375
2521.97867	1480.875
2524.70327	1466.075
2527.42616	1464.575
2530.14734	1462.675
2532.86681	1460.175
2535.58458	1459.475
2538.30065	1452.275
2541.01501	1457.375
2543.72768	1448.375
2546.43864	1449.575
2549.14791	1441.675
2551.85548	1445.675
2554.56136	1439.875
2557.26554	1426.275
2559.96803	1427.975
2562.66883	1425.875
2565.36794	1423.275
2568.06536	1419.475
2570.7611	1415.775
2573.45514	1410.375
2576.14751	1411.375
2578.83819	1409.375
2581.52719	1398.775
2584.21451	1397.075
2586.90015	1389.575
2589.58411	1394.075
2592.2664	1384.775
2594.94701	1379.875
2597.62594	1375.275
2600.30321	1377.675
2602.9788	1379.375
2605.65273	1366.875
2608.32498	1366.875
2610.99557	1376.875
2613.66449	1374.175
2616.33175	1362.075
2618.99734	1358.375
2621.66128	1360.875
2624.32355	1353.275
2626.98416	1356.475
2629.64311	1338.675
2632.30041	1353.875
2634.95605	1343.975
2637.61004	1342.175
2640.26238	1332.675
2642.91306	1327.875
2645.56209	1330.275
2648.20948	1337.275
2650.85521	1339.175
2653.4993	1332.175
2656.14175	1331.375
2658.78255	1333.275
2661.42171	1328.175
2664.05923	1329.075
2666.6951	1333.475
2669.32934	1330.475
2671.96194	1335.775
2674.59291	1342.375
2677.22224	1332.775
2679.84993	1330.675
2682.476	1325.875
2685.10043	1333.775
2687.72324	1332.075
2690.34441	1334.075
2692.96396	1324.275
2695.58188	1333.975
2698.19818	1329.575
2700.81285	1332.075
2703.4259	1339.875
2706.03733	1334.875
2708.64714	1330.675
2711.25533	1334.875
2713.86191	1331.175
2716.46687	1335.375
2719.07021	1339.275
2721.67194	1347.975
2724.27206	1342.375
2726.87057	1341.575
2729.46747	1330.175
2732.06276	1338.975
2734.65644	1337.075
2737.24852	1335.175
2739.83899	1322.075
2742.42786	1331.075
2745.01513	1327.575
2747.60079	1316.475
2750.18486	1319.475
2752.76733	1318.475
2755.3482	1323.475
2757.92747	1313.775
2760.50515	1307.275
2763.08123	1310.375
2765.65573	1311.875
2768.22863	1302.675
2770.79994	1302.775
2773.36967	1301.875
2775.9378	1307.575
2778.50435	1297.575
2781.06932	1308.575
2783.6327	1303.475
2786.1945	1310.675
2788.75471	1321.075
2791.31335	1312.075
2793.87041	1305.975
2796.42589	1306.175
2798.97979	1309.675
2801.53212	1299.075
2804.08288	1306.575
2806.63206	1306.675
2809.17967	1306.575
2811.72571	1313.375
2814.27018	1299.175
2816.81308	1298.175
2819.35442	1300.475
2821.89419	1305.275
2824.43239	1299.675
2826.96904	1316.575
2829.50412	1301.575
2832.03763	1311.875
2834.56959	1312.675
2837.1	1313.975
2839.62884	1316.675
2842.15613	1331.675
2844.68186	1342.675
2847.20604	1358.875
2849.72867	1365.475
2852.24974	1373.675
2854.76927	1372.875
2857.28724	1377.675
2859.80367	1371.875
2862.31855	1363.475
2864.83189	1365.975
2867.34368	1359.275
2869.85393	1373.975
2872.36264	1355.775
2874.8698	1363.775
2877.37543	1360.375
2879.87952	1369.175
2882.38207	1368.875
2884.88308	1360.575
2887.38256	1356.675
2889.88051	1353.875
2892.37692	1354.775
2894.8718	1358.975
2897.36515	1353.675
2899.85698	1360.875
2902.34727	1366.275
2904.83604	1368.575
2907.32328	1374.175
2909.809	1371.475
2912.29319	1369.575
2914.77587	1370.475
2917.25702	1378.275
2919.73665	1359.375
2922.21476	1366.675
2924.69136	1370.575
2927.16644	1366.575
2929.64	1359.975
2932.11205	1354.475
2934.58258	1349.975
2937.05161	1347.675
2939.51912	1337.975
2941.98513	1323.575
2944.44962	1315.775
2946.91261	1303.775
2949.37409	1291.575
2951.83407	1287.175
2954.29254	1267.175
2956.74951	1266.575
2959.20498	1264.875
2961.65895	1259.775
2964.11142	1259.575
2966.56239	1248.875
2969.01186	1209.875
2971.45984	1238.075
2973.90632	1239.175
2976.35131	1237.375
2978.7948	1232.575
2981.23681	1213.175
2983.67732	1225.475
2986.11635	1221.575
2988.55388	1216.675
2990.98993	1221.275
2993.4245	1208.675
2995.85758	1213.675
2998.28917	1207.275
3000.71928	1216.375
3003.14791	1203.675
3005.57506	1211.975
3008.00073	1203.875
3010.42493	1215.075
3012.84764	1201.775
3015.26888	1207.475
3017.68865	1206.875
3020.10694	1216.975
3022.52376	1204.875
3024.9391	1206.175
3027.35298	1207.275
3029.76539	1207.675
3032.17632	1213.475
3034.5858	1213.175
3036.9938	1208.475
3039.40034	1205.875
3041.80542	1208.675
3044.20903	1209.375
3046.61118	1207.675
3049.01187	1210.975
3051.4111	1216.775
3053.80888	1218.675
3056.20519	1209.375
3058.60005	1220.975
3060.99345	1225.075
3063.3854	1221.675
3065.7759	1221.975
3068.16494	1222.875
3070.55254	1227.475
3072.93868	1226.675
3075.32338	1228.075
3077.70662	1229.375
3080.08842	1226.375
3082.46878	1229.075
3084.84769	1229.775
3087.22515	1236.875
3089.60118	1238.175
3091.97576	1243.875
3094.3489	1244.775
3096.72061	1256.175
3099.09087	1264.275
3101.4597	1257.675
3103.82709	1277.475
3106.19305	1276.275
3108.55757	1280.275
3110.92066	1282.675
3113.28232	1287.375
3115.64255	1292.175
3118.00134	1296.975
3120.35871	1294.575
3122.71466	1298.475
3125.06917	1313.375
3127.42226	1309.875
3129.77393	1335.675
3132.12417	1328.975
3134.47299	1332.875
3136.82039	1347.775
3139.16636	1346.675
3141.51092	1360.175
3143.85406	1359.375
3146.19579	1369.775
3148.53609	1378.375
3150.87499	1392.675
3153.21246	1394.175
3155.54853	1400.975
3157.88318	1402.075
3160.21642	1416.475
3162.54826	1432.075
3164.87868	1432.575
3167.2077	1451.475
3169.5353	1455.575
3171.86151	1458.575
3174.18631	1462.275
3176.5097	1466.775
3178.83169	1474.475
3181.15228	1474.775
3183.47147	1488.575
3185.78926	1489.575
3188.10565	1487.375
3190.42065	1499.575
3192.73424	1498.275
3195.04645	1514.675
3197.35725	1510.175
3199.66667	1516.375
3201.97469	1533.075
3204.28132	1540.475
3206.58656	1536.675
3208.8904	1544.175
3211.19287	1544.875
3213.49394	1554.975
3215.79363	1570.575
3218.09193	1568.475
3220.38884	1568.575
3222.68438	1583.075
3224.97853	1588.475
3227.2713	1589.175
3229.56269	1579.075
3231.8527	1584.975
3234.14133	1584.375
3236.42858	1589.775
