Data from AgNPs_APTES_FTO_UA_50uM_CRN_0uM_R6G_10uM_Scan_RamanShift__8__11-20-23-658.txt Node

Date: Tue Jul 05 11:20:23 BST 2022
User: TCL
Spectrometer: QEP01345
Trigger mode: 4
Integration Time (sec): 7.000000E0
Scans to average: 10
Electric dark correction enabled: true
Nonlinearity correction enabled: false
Boxcar width: 0
XAxis mode: Raman Shifts
Number of Pixels in Spectrum: 1044
>>>>>Begin Spectral Data<<<<<
46.04893	0.2875
50.45542	-0.6125
54.85868	-0.1125
59.25871	0.8875
63.6555	40.6875
68.04907	43.9875
72.43941	43.8875
76.82654	50.0875
81.21044	51.5875
85.59113	59.4875
89.96862	59.8875
94.34289	57.2875
98.71396	63.0875
103.08183	64.8875
107.4465	64.5875
111.80798	68.1875
116.16626	64.6875
120.52136	63.7875
124.87327	66.9875
129.222	64.1875
133.56755	67.9875
137.90993	68.0875
142.24913	78.7875
146.58517	77.9875
150.91804	83.8875
155.24774	90.8875
159.57429	105.9875
163.89768	131.0875
168.21792	160.9875
172.53501	216.5875
176.84895	287.1875
181.15975	395.3875
185.46741	544.0875
189.77193	741.8875
194.07331	999.5875
198.37157	1286.1875
202.6667	1579.0875
206.9587	1905.8875
211.24758	2210.3875
215.53334	2534.7875
219.81599	2890.3875
224.09553	3281.4875
228.37195	3698.4875
232.64527	4144.1875
236.91549	4583.9875
241.18261	4984.5875
245.44663	5319.4875
249.70755	5566.6875
253.96539	5790.5875
258.22014	5956.1875
262.4718	6110.6875
266.72039	6193.2875
270.96589	6205.3875
275.20832	6117.0875
279.44768	5975.7875
283.68397	5786.2875
287.91719	5659.0875
292.14735	5578.3875
296.37445	5622.6875
300.59849	5781.5875
304.81948	6011.3875
309.03742	6259.0875
313.25231	6381.8875
317.46415	6245.4875
321.67296	5832.0875
325.87872	5382.0875
330.08145	5156.3875
334.28114	5061.9875
338.47781	5121.3875
342.67145	5250.1875
346.86207	5463.4875
351.04966	5782.7875
355.23424	6126.0875
359.4158	6297.9875
363.59435	6315.3875
367.76989	6201.8875
371.94243	6120.8875
376.11196	6037.8875
380.27849	5965.6875
384.44203	5872.9875
388.60257	5811.3875
392.76012	5794.5875
396.91468	5847.9875
401.06626	5959.6875
405.21485	6010.7875
409.36047	5914.2875
413.50311	5722.3875
417.64277	5661.1875
421.77947	5620.2875
425.9132	5192.1875
430.04396	5004.4875
434.17176	4997.0875
438.2966	5049.6875
442.41849	5147.0875
446.53742	5258.3875
450.6534	5377.9875
454.76644	5400.9875
458.87653	5387.3875
462.98368	5332.3875
467.08789	5263.6875
471.18916	5181.7875
475.2875	5092.9875
479.38291	4998.0875
483.4754	4943.3875
487.56496	4938.0875
491.6516	4940.2875
495.73531	4961.2875
499.81612	4998.2875
503.89401	5049.7875
507.96899	5129.6875
512.04106	5224.2875
516.11023	5332.4875
520.1765	5383.2875
524.23987	5405.1875
528.30034	5371.1875
532.35792	5295.2875
536.41261	5205.2875
540.46441	5103.4875
544.51333	5014.3875
548.55936	5005.4875
552.60252	5084.0875
556.64279	5201.6875
560.6802	5306.6875
564.71473	5432.8875
568.7464	5668.2875
572.7752	5734.4875
576.80114	5480.4875
580.82422	5212.4875
584.84444	5155.7875
588.86181	5204.8875
592.87633	5293.6875
596.888	5419.1875
600.89682	5594.0875
604.9028	6285.5875
608.90594	8235.8875
612.90624	10797.2875
616.90371	10627.3875
620.89834	7525.3875
624.89015	5869.5875
628.87913	5478.1875
632.86528	5545.0875
636.84862	5655.0875
640.82913	5521.8875
644.80683	5218.6875
648.78172	4996.1875
652.75379	4975.5875
656.72306	5168.0875
660.68952	5406.6875
664.65319	5347.3875
668.61405	5069.5875
672.57211	4959.1875
676.52738	5044.2875
680.47986	5226.5875
684.42955	5397.6875
688.37646	5500.0875
692.32058	5416.0875
696.26192	5266.8875
700.20048	5161.6875
704.13626	5115.4875
708.06928	5075.0875
711.99952	5033.9875
715.927	5003.8875
719.85171	4995.5875
723.77365	5012.0875
727.69284	4969.7875
731.60928	4923.0875
735.52295	4895.7875
739.43388	4899.8875
743.34206	4896.9875
747.24749	4916.4875
751.15017	4901.1875
755.05012	4983.3875
758.94733	5253.4875
762.8418	5925.0875
766.73354	7053.7875
770.62254	8104.6875
774.50882	8505.4875
778.39237	8050.1875
782.27321	7036.7875
786.15132	6014.7875
790.02671	5384.9875
793.89938	5087.9875
797.76935	4977.9875
801.6366	4940.5875
805.50115	4939.7875
809.36299	4940.3875
813.22213	4913.0875
817.07857	4915.0875
820.93231	4878.6875
824.78336	4876.2875
828.63172	4887.2875
832.47738	4873.8875
836.32036	4845.8875
840.16066	4820.9875
843.99827	4811.3875
847.8332	4818.4875
851.66546	4819.4875
855.49504	4776.8875
859.32195	4802.1875
863.1462	4765.4875
866.96777	4767.0875
870.78668	4782.7875
874.60293	4811.9875
878.41652	4849.7875
882.22745	4926.1875
886.03573	4973.0875
889.84136	5010.2875
893.64433	5036.6875
897.44466	5095.4875
901.24235	5109.7875
905.0374	5131.4875
908.8298	5175.5875
912.61957	5217.7875
916.40671	5337.9875
920.19121	5439.7875
923.97308	5609.6875
927.75233	5750.3875
931.52895	5850.3875
935.30295	5741.6875
939.07433	5487.9875
942.84309	5251.5875
946.60924	5022.6875
950.37278	4881.7875
954.13371	4775.7875
957.89203	4708.5875
961.64774	4628.9875
965.40086	4555.9875
969.15137	4497.3875
972.89929	4426.1875
976.64461	4387.9875
980.38733	4369.3875
984.12747	4330.7875
987.86502	4318.1875
991.59999	4308.5875
995.33237	4310.1875
999.06217	4351.6875
1002.78939	4418.9875
1006.51404	4504.0875
1010.23611	4586.2875
1013.95561	4639.9875
1017.67255	4622.8875
1021.38692	4580.6875
1025.09872	4524.4875
1028.80796	4464.6875
1032.51465	4414.3875
1036.21877	4423.1875
1039.92035	4430.3875
1043.61937	4461.3875
1047.31584	4470.7875
1051.00976	4495.2875
1054.70114	4484.3875
1058.38998	4474.6875
1062.07627	4479.1875
1065.76003	4474.1875
1069.44126	4454.5875
1073.11995	4461.7875
1076.79611	4525.6875
1080.46974	4592.1875
1084.14085	4749.2875
1087.80943	4910.4875
1091.47549	4943.5875
1095.13903	4819.1875
1098.80005	4611.1875
1102.45857	4447.0875
1106.11456	4407.6875
1109.76805	4425.2875
1113.41903	4544.4875
1117.06751	4731.1875
1120.71348	5004.3875
1124.35696	5317.8875
1127.99793	5676.1875
1131.63641	5726.7875
1135.2724	5413.2875
1138.90589	5053.0875
1142.5369	4828.9875
1146.16542	4651.1875
1149.79145	4536.5875
1153.415	4442.4875
1157.03607	4428.9875
1160.65467	4489.6875
1164.27079	4633.8875
1167.88443	4879.7875
1171.49561	5243.6875
1175.10432	5907.0875
1178.71056	6874.2875
1182.31434	7687.3875
1185.91565	7849.6875
1189.51451	7503.8875
1193.11091	6914.5875
1196.70485	6349.8875
1200.29634	5913.0875
1203.88538	5598.1875
1207.47197	5187.2875
1211.05612	4816.1875
1214.63782	4582.2875
1218.21708	4484.0875
1221.79391	4450.5875
1225.36829	4457.5875
1228.94024	4477.4875
1232.50976	4473.0875
1236.07685	4437.9875
1239.6415	4427.9875
1243.20374	4441.9875
1246.76355	4506.2875
1250.32093	4552.1875
1253.8759	4634.9875
1257.42845	4775.4875
1260.97859	4975.1875
1264.52631	5204.7875
1268.07163	5427.4875
1271.61453	5582.6875
1275.15503	5648.2875
1278.69312	5640.3875
1282.22882	5636.1875
1285.76211	5773.6875
1289.29301	6063.7875
1292.82151	6371.5875
1296.34761	6657.6875
1299.87133	7025.1875
1303.39266	7714.7875
1306.9116	8745.8875
1310.42815	10123.5875
1313.94233	10974.9875
1317.45412	10631.7875
1320.96354	9516.8875
1324.47058	8254.5875
1327.97525	7234.4875
1331.47754	6572.1875
1334.97747	6268.3875
1338.47502	6191.4875
1341.97022	6416.5875
1345.46305	6918.9875
1348.95352	7828.6875
1352.44163	8879.6875
1355.92738	10161.3875
1359.41078	12074.3875
1362.89183	14319.2875
1366.37053	14724.3875
1369.84688	12286.5875
1373.32088	9461.4875
1376.79254	7707.5875
1380.26186	6958.6875
1383.72883	6528.2875
1387.19347	6213.7875
1390.65578	5929.3875
1394.11575	5683.2875
1397.57339	5542.6875
1401.0287	5459.5875
1404.48168	5343.8875
1407.93234	5230.0875
1411.38068	5150.3875
1414.82669	5120.7875
1418.27039	5126.5875
1421.71177	5141.1875
1425.15083	5073.8875
1428.58758	4964.6875
1432.02203	4969.8875
1435.45416	5042.9875
1438.88399	5038.1875
1442.31151	4981.5875
1445.73673	4940.6875
1449.15965	4932.6875
1452.58027	4885.0875
1455.9986	4799.5875
1459.41463	4767.5875
1462.82837	4773.3875
1466.23982	4837.2875
1469.64898	4946.9875
1473.05586	5039.8875
1476.46045	5090.0875
1479.86276	5128.0875
1483.26279	5234.8875
1486.66054	5415.2875
1490.05602	5645.9875
1493.44922	6045.8875
1496.84016	6656.0875
1500.22882	7673.8875
1503.61521	9119.7875
1506.99934	10930.1875
1510.38121	12744.9875
1513.76081	13738.0875
1517.13816	13007.6875
1520.51324	10979.7875
1523.88607	8886.5875
1527.25665	7370.1875
1530.62498	6496.1875
1533.99105	5978.6875
1537.35488	5615.3875
1540.71647	5380.6875
1544.07581	5246.6875
1547.4329	5198.5875
1550.78776	5210.5875
1554.14038	5286.7875
1557.49077	5397.3875
1560.83892	5571.2875
1564.18484	5815.6875
1567.52853	6201.8875
1570.86999	6531.8875
1574.20922	6732.5875
1577.54624	6736.1875
1580.88103	6319.0875
1584.2136	5643.0875
1587.54395	5132.5875
1590.87208	4924.5875
1594.19801	5032.8875
1597.52172	5347.3875
1600.84321	5511.3875
1604.16251	5297.3875
1607.47959	5002.3875
1610.79447	4758.8875
1614.10715	4525.5875
1617.41763	4327.0875
1620.7259	4164.4875
1624.03199	4105.3875
1627.33587	4144.9875
1630.63757	4219.2875
1633.93707	4394.2875
1637.23439	4705.9875
1640.52951	5280.0875
1643.82246	6172.8875
1647.11321	7447.4875
1650.40179	8565.2875
1653.68819	8743.3875
1656.97241	7666.5875
1660.25446	6171.5875
1663.53433	4981.1875
1666.81203	4278.8875
1670.08756	3887.3875
1673.36092	3677.6875
1676.63211	3537.3875
1679.90115	3447.3875
1683.16801	3382.7875
1686.43272	3335.3875
1689.69527	3315.9875
1692.95567	3284.6875
1696.2139	3257.4875
1699.46999	3232.5875
1702.72392	3201.8875
1705.97571	3171.2875
1709.22535	3144.9875
1712.47284	3116.2875
1715.71819	3100.0875
1718.96139	3060.4875
1722.20246	3008.1875
1725.44139	2972.8875
1728.67818	2943.1875
1731.91284	2883.2875
1735.14537	2844.2875
1738.37576	2815.9875
1741.60403	2787.4875
1744.83017	2780.1875
1748.05418	2769.6875
1751.27607	2746.8875
1754.49584	2741.8875
1757.71349	2724.3875
1760.92903	2708.5875
1764.14244	2700.0875
1767.35375	2682.5875
1770.56294	2676.1875
1773.77002	2666.5875
1776.97499	2639.8875
1780.17785	2636.3875
1783.37861	2611.9875
1786.57727	2606.4875
1789.77382	2592.9875
1792.96828	2590.6875
1796.16064	2563.9875
1799.3509	2564.1875
1802.53907	2560.6875
1805.72514	2541.0875
1808.90913	2534.4875
1812.09102	2518.3875
1815.27083	2504.1875
1818.44856	2489.4875
1821.6242	2472.1875
1824.79776	2476.1875
1827.96924	2463.9875
1831.13864	2467.8875
1834.30597	2444.4875
1837.47122	2439.4875
1840.6344	2432.2875
1843.7955	2425.3875
1846.95454	2407.8875
1850.11151	2401.0875
1853.26642	2399.3875
1856.41926	2395.3875
1859.57004	2382.0875
1862.71876	2386.5875
1865.86542	2377.0875
1869.01003	2387.0875
1872.15258	2366.8875
1875.29308	2380.8875
1878.43152	2360.8875
1881.56792	2362.4875
1884.70227	2339.5875
1887.83457	2338.8875
1890.96482	2338.5875
1894.09304	2334.9875
1897.21921	2328.7875
1900.34335	2310.1875
1903.46544	2319.5875
1906.58551	2308.7875
1909.70353	2304.7875
1912.81953	2297.6875
1915.93349	2290.5875
1919.04543	2283.1875
1922.15534	2277.6875
1925.26322	2269.9875
1928.36908	2266.0875
1931.47292	2262.4875
1934.57473	2234.1875
1937.67453	2234.9875
1940.77232	2210.9875
1943.86808	2193.0875
1946.96184	2201.7875
1950.05358	2194.6875
1953.14331	2180.2875
1956.23103	2184.3875
1959.31675	2169.4875
1962.40046	2172.1875
1965.48217	2153.9875
1968.56188	2163.1875
1971.63959	2152.7875
1974.7153	2142.4875
1977.78901	2137.5875
1980.86073	2141.5875
1983.93046	2125.0875
1986.99819	2102.3875
1990.06394	2106.6875
1993.1277	2098.5875
1996.18947	2092.0875
1999.24925	2080.0875
2002.30706	2062.3875
2005.36288	2064.3875
2008.41672	2046.8875
2011.46859	2039.1875
2014.51848	2024.6875
2017.56639	2025.5875
2020.61233	2007.8875
2023.6563	2009.6875
2026.6983	1998.8875
2029.73833	1990.2875
2032.7764	1984.7875
2035.8125	1986.3875
2038.84664	1973.4875
2041.87881	1963.1875
2044.90903	1972.2875
2047.93729	1959.8875
2050.96359	1970.0875
2053.98794	1959.4875
2057.01034	1958.2875
2060.03078	1957.3875
2063.04927	1953.4875
2066.06582	1949.3875
2069.08042	1945.6875
2072.09307	1937.4875
2075.10378	1939.9875
2078.11255	1946.6875
2081.11938	1955.5875
2084.12426	1955.5875
2087.12722	1963.2875
2090.12824	1962.4875
2093.12732	1956.7875
2096.12447	1959.8875
2099.11969	1963.1875
2102.11299	1962.5875
2105.10435	1966.2875
2108.09379	1966.9875
2111.08131	1962.2875
2114.0669	1952.1875
2117.05057	1960.9875
2120.03233	1963.5875
2123.01216	1968.2875
2125.99008	1964.3875
2128.96609	1957.2875
2131.94018	1936.9875
2134.91236	1942.8875
2137.88263	1946.0875
2140.851	1929.1875
2143.81746	1936.6875
2146.78201	1916.2875
2149.74466	1902.2875
2152.7054	1900.4875
2155.66425	1878.6875
2158.6212	1878.4875
2161.57625	1858.6875
2164.52941	1855.8875
2167.48067	1862.3875
2170.43004	1865.5875
2173.37752	1858.7875
2176.32311	1847.8875
2179.26681	1848.9875
2182.20863	1843.5875
2185.14856	1843.9875
2188.08661	1832.2875
2191.02278	1827.0875
2193.95707	1821.7875
2196.88948	1818.5875
2199.82001	1830.7875
2202.74867	1812.9875
2205.67545	1807.6875
2208.60037	1809.8875
2211.52341	1799.7875
2214.44458	1792.9875
2217.36388	1788.7875
2220.28132	1785.8875
2223.1969	1777.7875
2226.11061	1781.3875
2229.02246	1770.9875
2231.93245	1756.2875
2234.84058	1750.4875
2237.74686	1758.9875
2240.65128	1748.9875
2243.55385	1748.2875
2246.45456	1754.3875
2249.35343	1742.6875
2252.25044	1733.4875
2255.14561	1740.5875
2258.03893	1742.7875
2260.93041	1734.0875
2263.82004	1735.1875
2266.70783	1730.5875
2269.59378	1718.1875
2272.4779	1717.7875
2275.36017	1706.8875
2278.24061	1707.4875
2281.11922	1702.7875
2283.996	1703.0875
2286.87094	1696.9875
2289.74405	1689.1875
2292.61534	1680.1875
2295.4848	1666.6875
2298.35243	1664.2875
2301.21824	1653.1875
2304.08223	1656.1875
2306.94439	1647.1875
2309.80474	1653.4875
2312.66327	1655.6875
2315.51999	1650.2875
2318.37489	1639.5875
2321.22797	1636.7875
2324.07925	1638.1875
2326.92871	1621.0875
2329.77637	1630.0875
2332.62222	1625.9875
2335.46626	1621.1875
2338.3085	1622.6875
2341.14893	1616.9875
2343.98756	1616.2875
2346.8244	1612.9875
2349.65943	1611.0875
2352.49267	1606.6875
2355.32411	1624.9875
2358.15376	1619.3875
2360.98161	1631.9875
2363.80768	1623.8875
2366.63195	1630.1875
2369.45444	1633.4875
2372.27514	1645.3875
2375.09405	1634.9875
2377.91118	1621.4875
2380.72652	1609.3875
2383.54009	1608.1875
2386.35187	1596.6875
2389.16188	1581.0875
2391.97011	1577.5875
2394.77657	1569.9875
2397.58125	1558.7875
2400.38416	1554.4875
2403.18529	1543.3875
2405.98466	1545.3875
2408.78226	1543.7875
2411.57809	1530.4875
2414.37216	1526.4875
2417.16446	1528.9875
2419.955	1519.4875
2422.74378	1532.9875
2425.5308	1523.1875
2428.31606	1524.5875
2431.09956	1524.3875
2433.88131	1517.2875
2436.6613	1515.5875
2439.43954	1516.7875
2442.21603	1517.5875
2444.99077	1518.7875
2447.76377	1522.9875
2450.53501	1520.2875
2453.30451	1526.5875
2456.07226	1515.2875
2458.83827	1510.0875
2461.60254	1505.4875
2464.36507	1507.3875
2467.12586	1501.8875
2469.88492	1500.4875
2472.64224	1492.5875
2475.39782	1508.1875
2478.15167	1498.5875
2480.90379	1496.8875
2483.65417	1496.0875
2486.40283	1514.3875
2489.14976	1504.8875
2491.89497	1508.5875
2494.63845	1512.7875
2497.3802	1505.1875
2500.12024	1511.5875
2502.85855	1501.6875
2505.59514	1490.8875
2508.33002	1481.0875
2511.06318	1470.9875
2513.79462	1460.7875
2516.52435	1446.1875
2519.25237	1448.4875
2521.97867	1426.7875
2524.70327	1430.7875
2527.42616	1416.4875
2530.14734	1414.6875
2532.86681	1408.0875
2535.58458	1399.1875
2538.30065	1405.7875
2541.01501	1400.8875
2543.72768	1404.5875
2546.43864	1402.7875
2549.14791	1390.6875
2551.85548	1397.7875
2554.56136	1402.2875
2557.26554	1400.3875
2559.96803	1393.9875
2562.66883	1380.5875
2565.36794	1388.9875
2568.06536	1375.2875
2570.7611	1378.8875
2573.45514	1378.7875
2576.14751	1368.6875
2578.83819	1370.8875
2581.52719	1366.1875
2584.21451	1359.2875
2586.90015	1358.4875
2589.58411	1347.6875
2592.2664	1355.0875
2594.94701	1345.5875
2597.62594	1341.1875
2600.30321	1337.1875
2602.9788	1326.7875
2605.65273	1334.9875
2608.32498	1334.3875
2610.99557	1329.4875
2613.66449	1324.0875
2616.33175	1330.9875
2618.99734	1338.9875
2621.66128	1324.4875
2624.32355	1328.3875
2626.98416	1325.3875
2629.64311	1312.7875
2632.30041	1307.8875
2634.95605	1306.3875
2637.61004	1302.7875
2640.26238	1301.4875
2642.91306	1309.9875
2645.56209	1297.6875
2648.20948	1297.4875
2650.85521	1287.6875
2653.4993	1295.7875
2656.14175	1291.5875
2658.78255	1299.2875
2661.42171	1297.9875
2664.05923	1286.6875
2666.6951	1301.1875
2669.32934	1301.5875
2671.96194	1304.0875
2674.59291	1302.8875
2677.22224	1303.3875
2679.84993	1303.1875
2682.476	1299.2875
2685.10043	1305.8875
2687.72324	1299.0875
2690.34441	1294.7875
2692.96396	1301.4875
2695.58188	1295.3875
2698.19818	1287.4875
2700.81285	1292.2875
2703.4259	1288.5875
2706.03733	1292.5875
2708.64714	1285.7875
2711.25533	1294.0875
2713.86191	1287.8875
2716.46687	1294.7875
2719.07021	1302.0875
2721.67194	1297.8875
2724.27206	1294.0875
2726.87057	1289.7875
2729.46747	1287.6875
2732.06276	1292.8875
2734.65644	1288.8875
2737.24852	1281.7875
2739.83899	1278.6875
2742.42786	1275.6875
2745.01513	1269.2875
2747.60079	1272.9875
2750.18486	1266.4875
2752.76733	1266.4875
2755.3482	1248.0875
2757.92747	1257.0875
2760.50515	1247.6875
2763.08123	1251.3875
2765.65573	1253.1875
2768.22863	1242.9875
2770.79994	1236.3875
2773.36967	1234.7875
2775.9378	1238.1875
2778.50435	1234.6875
2781.06932	1225.1875
2783.6327	1236.0875
2786.1945	1232.4875
2788.75471	1233.6875
2791.31335	1222.1875
2793.87041	1225.4875
2796.42589	1228.8875
2798.97979	1219.6875
2801.53212	1213.1875
2804.08288	1217.5875
2806.63206	1217.5875
2809.17967	1212.6875
2811.72571	1208.7875
2814.27018	1202.4875
2816.81308	1205.1875
2819.35442	1206.9875
2821.89419	1212.4875
2824.43239	1215.2875
2826.96904	1215.1875
2829.50412	1211.6875
2832.03763	1214.7875
2834.56959	1215.0875
2837.1	1213.3875
2839.62884	1217.9875
2842.15613	1213.5875
2844.68186	1239.3875
2847.20604	1249.9875
2849.72867	1245.3875
2852.24974	1253.9875
2854.76927	1256.1875
2857.28724	1249.7875
2859.80367	1259.7875
2862.31855	1261.6875
2864.83189	1267.1875
2867.34368	1269.8875
2869.85393	1274.8875
2872.36264	1266.7875
2874.8698	1265.8875
2877.37543	1263.5875
2879.87952	1271.7875
2882.38207	1271.8875
2884.88308	1268.2875
2887.38256	1262.4875
2889.88051	1270.4875
2892.37692	1263.2875
2894.8718	1271.5875
2897.36515	1279.0875
2899.85698	1272.0875
2902.34727	1291.9875
2904.83604	1292.6875
2907.32328	1300.3875
2909.809	1319.2875
2912.29319	1321.0875
2914.77587	1328.3875
2917.25702	1338.5875
2919.73665	1341.3875
2922.21476	1341.2875
2924.69136	1341.4875
2927.16644	1335.3875
2929.64	1338.6875
2932.11205	1331.8875
2934.58258	1329.9875
2937.05161	1318.0875
2939.51912	1315.1875
2941.98513	1313.6875
2944.44962	1296.5875
2946.91261	1291.7875
2949.37409	1284.4875
2951.83407	1274.0875
2954.29254	1259.5875
2956.74951	1255.3875
2959.20498	1246.5875
2961.65895	1242.2875
2964.11142	1233.1875
2966.56239	1213.9875
2969.01186	1183.1875
2971.45984	1196.2875
2973.90632	1210.9875
2976.35131	1201.3875
2978.7948	1201.5875
2981.23681	1187.1875
2983.67732	1185.8875
2986.11635	1177.6875
2988.55388	1168.8875
2990.98993	1173.6875
2993.4245	1171.4875
2995.85758	1167.9875
2998.28917	1170.0875
3000.71928	1172.4875
3003.14791	1162.6875
3005.57506	1165.8875
3008.00073	1160.9875
3010.42493	1165.0875
3012.84764	1157.1875
3015.26888	1155.8875
3017.68865	1163.7875
3020.10694	1161.4875
3022.52376	1156.8875
3024.9391	1159.9875
3027.35298	1159.6875
3029.76539	1151.7875
3032.17632	1145.6875
3034.5858	1147.0875
3036.9938	1154.2875
3039.40034	1145.2875
3041.80542	1151.8875
3044.20903	1140.7875
3046.61118	1144.3875
3049.01187	1145.4875
3051.4111	1136.9875
3053.80888	1141.6875
3056.20519	1139.9875
3058.60005	1153.5875
3060.99345	1141.7875
3063.3854	1141.1875
3065.7759	1139.4875
3068.16494	1135.4875
3070.55254	1132.1875
3072.93868	1137.5875
3075.32338	1139.7875
3077.70662	1141.0875
3080.08842	1139.5875
3082.46878	1132.9875
3084.84769	1140.5875
3087.22515	1143.4875
3089.60118	1144.2875
3091.97576	1143.5875
3094.3489	1145.8875
3096.72061	1148.8875
3099.09087	1156.8875
3101.4597	1161.2875
3103.82709	1162.9875
3106.19305	1165.4875
3108.55757	1169.5875
3110.92066	1165.9875
3113.28232	1175.6875
3115.64255	1170.8875
3118.00134	1177.7875
3120.35871	1182.8875
3122.71466	1182.9875
3125.06917	1187.6875
