Data from AgNPs_APTES_FTO_UA_50uM_CRN_0uM_R6G_10uM_Scan_RamanShift__58__12-18-43-727.txt Node

Date: Tue Jul 05 12:18:43 BST 2022
User: TCL
Spectrometer: QEP01345
Trigger mode: 4
Integration Time (sec): 7.000000E0
Scans to average: 10
Electric dark correction enabled: true
Nonlinearity correction enabled: false
Boxcar width: 0
XAxis mode: Raman Shifts
Number of Pixels in Spectrum: 1044
>>>>>Begin Spectral Data<<<<<
46.04893	-0.325
50.45542	0.375
54.85868	-0.525
59.25871	-0.325
63.6555	60.875
68.04907	67.075
72.43941	70.775
76.82654	73.275
81.21044	77.275
85.59113	81.175
89.96862	78.775
94.34289	84.675
98.71396	87.375
103.08183	89.275
107.4465	87.275
111.80798	94.575
116.16626	91.375
120.52136	94.575
124.87327	99.375
129.222	104.175
133.56755	105.875
137.90993	108.775
142.24913	115.775
146.58517	128.375
150.91804	146.975
155.24774	171.275
159.57429	210.775
163.89768	265.075
168.21792	343.375
172.53501	460.275
176.84895	642.975
181.15975	903.575
185.46741	1263.275
189.77193	1725.775
194.07331	2327.375
198.37157	2991.375
202.6667	3693.775
206.9587	4383.075
211.24758	5060.775
215.53334	5735.375
219.81599	6434.475
224.09553	7183.375
228.37195	8054.275
232.64527	8984.975
236.91549	10001.275
241.18261	11045.175
245.44663	12117.975
249.70755	13058.175
253.96539	13904.675
258.22014	14572.275
262.4718	15095.775
266.72039	15409.775
270.96589	15518.975
275.20832	15524.875
279.44768	15329.175
283.68397	15080.075
287.91719	14830.775
292.14735	14651.775
296.37445	14537.975
300.59849	14391.075
304.81948	14323.775
309.03742	14280.275
313.25231	14204.175
317.46415	14112.475
321.67296	13983.575
325.87872	13873.075
330.08145	13910.775
334.28114	13951.075
338.47781	14073.775
342.67145	14217.275
346.86207	14420.975
351.04966	14587.375
355.23424	14787.175
359.4158	14973.575
363.59435	15074.875
367.76989	15248.375
371.94243	15355.175
376.11196	15429.975
380.27849	15510.375
384.44203	15596.475
388.60257	15721.175
392.76012	15832.875
396.91468	15906.875
401.06626	16074.975
405.21485	16182.075
409.36047	16225.575
413.50311	16164.675
417.64277	16100.775
421.77947	16109.875
425.9132	16168.475
430.04396	16277.375
434.17176	16361.175
438.2966	16445.275
442.41849	16587.875
446.53742	16794.275
450.6534	17010.775
454.76644	17141.375
458.87653	17224.675
462.98368	17336.275
467.08789	17350.475
471.18916	17374.275
475.2875	17324.175
479.38291	17303.375
483.4754	17271.775
487.56496	17295.075
491.6516	17264.675
495.73531	17245.075
499.81612	17212.675
503.89401	17270.575
507.96899	17314.675
512.04106	17385.275
516.11023	17406.875
520.1765	17303.475
524.23987	17260.775
528.30034	17199.475
532.35792	17173.375
536.41261	17130.775
540.46441	17068.175
544.51333	17027.675
548.55936	17116.075
552.60252	17227.575
556.64279	17417.075
560.6802	17564.275
564.71473	17700.475
568.7464	17858.975
572.7752	18121.875
576.80114	18379.175
580.82422	18578.575
584.84444	18741.575
588.86181	18935.175
592.87633	19123.275
596.888	19253.275
600.89682	19204.675
604.9028	19306.475
608.90594	19843.375
612.90624	20402.775
616.90371	19830.575
620.89834	18652.875
624.89015	18140.475
628.87913	18062.675
632.86528	18090.375
636.84862	18147.475
640.82913	18013.875
644.80683	17828.875
648.78172	17712.375
652.75379	17687.575
656.72306	17804.575
660.68952	18001.175
664.65319	18024.875
668.61405	17985.475
672.57211	18059.375
676.52738	18173.675
680.47986	18170.975
684.42955	18212.475
688.37646	18254.375
692.32058	18277.875
696.26192	18326.975
700.20048	18368.275
704.13626	18421.375
708.06928	18437.175
711.99952	18450.975
715.927	18400.475
719.85171	18350.375
723.77365	18295.075
727.69284	18218.775
731.60928	18156.575
735.52295	18133.775
739.43388	18130.075
743.34206	18217.175
747.24749	18240.275
751.15017	18351.475
755.05012	18451.275
758.94733	18653.275
762.8418	18982.675
766.73354	19508.575
770.62254	19982.275
774.50882	20098.875
778.39237	19882.075
782.27321	19399.675
786.15132	18937.075
790.02671	18642.275
793.89938	18420.575
797.76935	18375.775
801.6366	18324.275
805.50115	18316.375
809.36299	18249.775
813.22213	18212.275
817.07857	18196.175
820.93231	18240.375
824.78336	18215.275
828.63172	18250.775
832.47738	18210.075
836.32036	18196.275
840.16066	18212.075
843.99827	18281.675
847.8332	18297.175
851.66546	18337.475
855.49504	18328.675
859.32195	18334.175
863.1462	18337.075
866.96777	18319.475
870.78668	18363.575
874.60293	18403.975
878.41652	18432.875
882.22745	18453.275
886.03573	18479.975
889.84136	18491.575
893.64433	18470.075
897.44466	18479.075
901.24235	18465.875
905.0374	18449.875
908.8298	18458.375
912.61957	18422.475
916.40671	18467.275
920.19121	18560.775
923.97308	18606.275
927.75233	18607.875
931.52895	18538.175
935.30295	18417.575
939.07433	18285.275
942.84309	18168.575
946.60924	18121.475
950.37278	18039.175
954.13371	18040.375
957.89203	18039.275
961.64774	18006.675
965.40086	17970.275
969.15137	17950.175
972.89929	17918.975
976.64461	17933.375
980.38733	17943.575
984.12747	17912.775
987.86502	17907.075
991.59999	17908.875
995.33237	18006.475
999.06217	18093.875
1002.78939	18200.975
1006.51404	18319.575
1010.23611	18451.775
1013.95561	18525.775
1017.67255	18568.375
1021.38692	18498.275
1025.09872	18359.875
1028.80796	18274.175
1032.51465	18214.775
1036.21877	18231.775
1039.92035	18242.775
1043.61937	18304.275
1047.31584	18327.875
1051.00976	18375.375
1054.70114	18413.275
1058.38998	18493.075
1062.07627	18560.075
1065.76003	18702.775
1069.44126	18749.575
1073.11995	18847.175
1076.79611	19000.475
1080.46974	19063.875
1084.14085	19060.275
1087.80943	19091.575
1091.47549	19164.275
1095.13903	19194.375
1098.80005	19138.175
1102.45857	19007.175
1106.11456	18948.975
1109.76805	18820.375
1113.41903	18785.475
1117.06751	18771.875
1120.71348	18808.475
1124.35696	18865.575
1127.99793	18960.775
1131.63641	19039.775
1135.2724	19021.275
1138.90589	19015.075
1142.5369	18974.975
1146.16542	18967.075
1149.79145	18968.175
1153.415	18973.675
1157.03607	19018.875
1160.65467	19089.875
1164.27079	19321.275
1167.88443	19574.175
1171.49561	19988.575
1175.10432	20441.775
1178.71056	21058.475
1182.31434	21607.675
1185.91565	21935.575
1189.51451	22091.975
1193.11091	22014.975
1196.70485	21769.975
1200.29634	21432.475
1203.88538	21163.875
1207.47197	20937.875
1211.05612	20789.575
1214.63782	20678.775
1218.21708	20497.475
1221.79391	20317.275
1225.36829	20138.275
1228.94024	20091.975
1232.50976	19994.375
1236.07685	19908.875
1239.6415	19821.975
1243.20374	19808.975
1246.76355	19844.075
1250.32093	19920.675
1253.8759	20051.675
1257.42845	20245.775
1260.97859	20472.275
1264.52631	20739.675
1268.07163	20994.675
1271.61453	21258.775
1275.15503	21399.175
1278.69312	21637.675
1282.22882	21765.975
1285.76211	22009.375
1289.29301	22252.275
1292.82151	22615.075
1296.34761	23000.775
1299.87133	23532.975
1303.39266	24038.175
1306.9116	24537.675
1310.42815	25066.875
1313.94233	25366.975
1317.45412	25355.075
1320.96354	25239.375
1324.47058	25071.675
1327.97525	24885.275
1331.47754	24689.575
1334.97747	24623.875
1338.47502	24610.575
1341.97022	24687.575
1345.46305	24865.475
1348.95352	25025.275
1352.44163	24945.775
1355.92738	24870.075
1359.41078	24910.475
1362.89183	24973.275
1366.37053	24682.275
1369.84688	23851.875
1373.32088	22841.675
1376.79254	22112.075
1380.26186	21752.275
1383.72883	21615.475
1387.19347	21510.275
1390.65578	21297.375
1394.11575	21143.575
1397.57339	21063.575
1401.0287	21076.775
1404.48168	21013.175
1407.93234	20952.075
1411.38068	20798.275
1414.82669	20562.075
1418.27039	20221.975
1421.71177	19937.675
1425.15083	19669.375
1428.58758	19511.975
1432.02203	19482.975
1435.45416	19625.475
1438.88399	19723.475
1442.31151	19839.075
1445.73673	20002.075
1449.15965	20048.775
1452.58027	20178.275
1455.9986	20257.375
1459.41463	20324.575
1462.82837	20458.275
1466.23982	20583.275
1469.64898	20720.875
1473.05586	20803.675
1476.46045	20822.875
1479.86276	20846.675
1483.26279	20872.875
1486.66054	20929.375
1490.05602	20990.675
1493.44922	21259.175
1496.84016	21508.175
1500.22882	21865.375
1503.61521	22265.075
1506.99934	22626.275
1510.38121	22825.375
1513.76081	22810.775
1517.13816	22539.175
1520.51324	22128.575
1523.88607	21852.275
1527.25665	21652.875
1530.62498	21552.675
1533.99105	21474.275
1537.35488	21333.875
1540.71647	21151.475
1544.07581	20942.875
1547.4329	20813.675
1550.78776	20676.775
1554.14038	20612.275
1557.49077	20634.775
1560.83892	20688.675
1564.18484	20789.975
1567.52853	20896.575
1570.86999	20963.875
1574.20922	21081.275
1577.54624	21170.275
1580.88103	21153.375
1584.2136	21111.875
1587.54395	21158.575
1590.87208	21372.575
1594.19801	21715.375
1597.52172	22021.175
1600.84321	22042.275
1604.16251	21697.275
1607.47959	21140.775
1610.79447	20507.875
1614.10715	19769.875
1617.41763	19155.175
1620.7259	18757.275
1624.03199	18443.875
1627.33587	18426.975
1630.63757	18551.675
1633.93707	18881.075
1637.23439	19474.275
1640.52951	20355.375
1643.82246	21504.375
1647.11321	22412.375
1650.40179	22769.375
1653.68819	22188.675
1656.97241	20959.675
1660.25446	19609.975
1663.53433	18535.775
1666.81203	17775.675
1670.08756	17250.275
1673.36092	16940.675
1676.63211	16711.075
1679.90115	16574.275
1683.16801	16431.175
1686.43272	16354.475
1689.69527	16317.675
1692.95567	16219.675
1696.2139	16187.475
1699.46999	16151.675
1702.72392	16102.775
1705.97571	16080.875
1709.22535	16094.675
1712.47284	16042.375
1715.71819	16049.575
1718.96139	16044.475
1722.20246	15976.275
1725.44139	15917.675
1728.67818	15866.075
1731.91284	15823.875
1735.14537	15740.175
1738.37576	15658.275
1741.60403	15598.775
1744.83017	15576.875
1748.05418	15554.075
1751.27607	15532.975
1754.49584	15508.075
1757.71349	15465.475
1760.92903	15420.075
1764.14244	15427.375
1767.35375	15420.075
1770.56294	15374.975
1773.77002	15352.375
1776.97499	15346.375
1780.17785	15345.275
1783.37861	15354.475
1786.57727	15291.575
1789.77382	15222.875
1792.96828	15172.875
1796.16064	15172.775
1799.3509	15150.375
1802.53907	15114.375
1805.72514	15060.375
1808.90913	15037.375
1812.09102	15033.575
1815.27083	14984.575
1818.44856	14968.275
1821.6242	14966.575
1824.79776	14933.575
1827.96924	14889.675
1831.13864	14898.375
1834.30597	14872.575
1837.47122	14867.175
1840.6344	14824.875
1843.7955	14801.175
1846.95454	14782.275
1850.11151	14796.975
1853.26642	14754.475
1856.41926	14791.375
1859.57004	14780.375
1862.71876	14782.575
1865.86542	14755.175
1869.01003	14738.875
1872.15258	14748.175
1875.29308	14708.175
1878.43152	14680.975
1881.56792	14627.275
1884.70227	14601.675
1887.83457	14595.475
1890.96482	14557.475
1894.09304	14550.175
1897.21921	14498.075
1900.34335	14479.475
1903.46544	14481.875
1906.58551	14428.875
1909.70353	14391.575
1912.81953	14425.775
1915.93349	14404.675
1919.04543	14386.975
1922.15534	14325.275
1925.26322	14307.575
1928.36908	14260.675
1931.47292	14236.075
1934.57473	14218.175
1937.67453	14186.275
1940.77232	14129.075
1943.86808	14082.975
1946.96184	14051.275
1950.05358	13990.075
1953.14331	13962.075
1956.23103	13922.075
1959.31675	13846.375
1962.40046	13810.475
1965.48217	13754.675
1968.56188	13718.775
1971.63959	13677.075
1974.7153	13591.875
1977.78901	13601.175
1980.86073	13559.775
1983.93046	13525.175
1986.99819	13476.575
1990.06394	13399.475
1993.1277	13409.375
1996.18947	13348.175
1999.24925	13284.875
2002.30706	13233.975
2005.36288	13208.375
2008.41672	13157.675
2011.46859	13145.675
2014.51848	13087.775
2017.56639	13048.775
2020.61233	13002.675
2023.6563	12980.075
2026.6983	12949.475
2029.73833	12862.375
2032.7764	12838.475
2035.8125	12801.775
2038.84664	12768.475
2041.87881	12784.075
2044.90903	12714.975
2047.93729	12695.575
2050.96359	12697.875
2053.98794	12643.875
2057.01034	12622.875
2060.03078	12607.575
2063.04927	12630.975
2066.06582	12614.775
2069.08042	12604.775
2072.09307	12526.675
2075.10378	12537.375
2078.11255	12564.075
2081.11938	12577.075
2084.12426	12549.675
2087.12722	12523.075
2090.12824	12504.875
2093.12732	12490.575
2096.12447	12477.275
2099.11969	12495.975
2102.11299	12506.475
2105.10435	12473.975
2108.09379	12499.075
2111.08131	12504.375
2114.0669	12507.275
2117.05057	12535.875
2120.03233	12559.575
2123.01216	12529.775
2125.99008	12521.875
2128.96609	12519.175
2131.94018	12556.475
2134.91236	12585.075
2137.88263	12579.975
2140.851	12576.475
2143.81746	12586.075
2146.78201	12540.675
2149.74466	12536.175
2152.7054	12521.575
2155.66425	12523.875
2158.6212	12518.775
2161.57625	12501.475
2164.52941	12485.775
2167.48067	12504.675
2170.43004	12520.475
2173.37752	12500.575
2176.32311	12478.175
2179.26681	12463.875
2182.20863	12460.575
2185.14856	12464.475
2188.08661	12459.275
2191.02278	12429.775
2193.95707	12430.175
2196.88948	12435.175
2199.82001	12451.775
2202.74867	12378.675
2205.67545	12378.175
2208.60037	12302.175
2211.52341	12291.475
2214.44458	12257.175
2217.36388	12215.475
2220.28132	12220.875
2223.1969	12194.775
2226.11061	12170.075
2229.02246	12148.375
2231.93245	12123.175
2234.84058	12113.375
2237.74686	12101.875
2240.65128	12089.775
2243.55385	12055.675
2246.45456	12010.175
2249.35343	11976.675
2252.25044	11981.275
2255.14561	11959.275
2258.03893	11928.475
2260.93041	11920.175
2263.82004	11862.575
2266.70783	11848.975
2269.59378	11796.075
2272.4779	11787.275
2275.36017	11744.675
2278.24061	11681.075
2281.11922	11668.375
2283.996	11641.975
2286.87094	11620.875
2289.74405	11589.675
2292.61534	11576.575
2295.4848	11531.775
2298.35243	11546.675
2301.21824	11570.175
2304.08223	11532.675
2306.94439	11518.675
2309.80474	11534.475
2312.66327	11496.975
2315.51999	11469.575
2318.37489	11455.075
2321.22797	11430.575
2324.07925	11406.175
2326.92871	11358.275
2329.77637	11347.775
2332.62222	11346.675
2335.46626	11331.775
2338.3085	11297.875
2341.14893	11279.175
2343.98756	11249.775
2346.8244	11234.275
2349.65943	11227.875
2352.49267	11194.775
2355.32411	11203.975
2358.15376	11189.175
2360.98161	11202.575
2363.80768	11172.875
2366.63195	11196.275
2369.45444	11158.975
2372.27514	11151.975
2375.09405	11138.975
2377.91118	11130.375
2380.72652	11076.975
2383.54009	11063.075
2386.35187	11032.375
2389.16188	10980.375
2391.97011	10965.175
2394.77657	10932.175
2397.58125	10909.775
2400.38416	10886.475
2403.18529	10873.675
2405.98466	10833.175
2408.78226	10827.875
2411.57809	10808.075
2414.37216	10796.075
2417.16446	10774.875
2419.955	10773.075
2422.74378	10791.175
2425.5308	10751.675
2428.31606	10751.375
2431.09956	10758.075
2433.88131	10685.975
2436.6613	10707.375
2439.43954	10674.475
2442.21603	10664.275
2444.99077	10656.675
2447.76377	10650.575
2450.53501	10619.075
2453.30451	10612.575
2456.07226	10566.075
2458.83827	10548.975
2461.60254	10584.175
2464.36507	10513.675
2467.12586	10538.775
2469.88492	10476.475
2472.64224	10475.975
2475.39782	10503.675
2478.15167	10499.875
2480.90379	10475.575
2483.65417	10493.575
2486.40283	10465.875
2489.14976	10457.275
2491.89497	10438.075
2494.63845	10420.075
2497.3802	10401.175
2500.12024	10408.075
2502.85855	10354.975
2505.59514	10370.675
2508.33002	10340.475
2511.06318	10344.075
2513.79462	10302.675
2516.52435	10291.175
2519.25237	10281.175
2521.97867	10283.775
2524.70327	10264.075
2527.42616	10224.875
2530.14734	10198.275
2532.86681	10185.275
2535.58458	10172.675
2538.30065	10156.775
2541.01501	10162.275
2543.72768	10108.375
2546.43864	10059.675
2549.14791	10066.675
2551.85548	10037.475
2554.56136	10026.475
2557.26554	10027.475
2559.96803	10022.675
2562.66883	9965.875
2565.36794	9937.575
2568.06536	9918.275
2570.7611	9885.675
2573.45514	9880.075
2576.14751	9891.575
2578.83819	9859.375
2581.52719	9816.475
2584.21451	9792.975
2586.90015	9805.575
2589.58411	9774.475
2592.2664	9749.575
2594.94701	9728.275
2597.62594	9707.675
2600.30321	9671.575
2602.9788	9615.275
2605.65273	9626.875
2608.32498	9628.375
2610.99557	9610.775
2613.66449	9606.275
2616.33175	9609.675
2618.99734	9601.675
2621.66128	9556.775
2624.32355	9558.175
2626.98416	9549.975
2629.64311	9498.575
2632.30041	9503.475
2634.95605	9477.075
2637.61004	9481.175
2640.26238	9469.375
2642.91306	9449.575
2645.56209	9422.975
2648.20948	9420.775
2650.85521	9419.575
2653.4993	9394.175
2656.14175	9402.575
2658.78255	9382.775
2661.42171	9386.275
2664.05923	9387.875
2666.6951	9385.375
2669.32934	9371.575
2671.96194	9373.675
2674.59291	9351.575
2677.22224	9336.975
2679.84993	9352.375
2682.476	9342.075
2685.10043	9333.875
2687.72324	9339.075
2690.34441	9322.375
2692.96396	9318.775
2695.58188	9324.375
2698.19818	9289.075
2700.81285	9289.675
2703.4259	9284.175
2706.03733	9307.275
2708.64714	9276.475
2711.25533	9261.575
2713.86191	9247.475
2716.46687	9269.275
2719.07021	9260.675
2721.67194	9288.075
2724.27206	9264.575
2726.87057	9287.475
2729.46747	9270.375
2732.06276	9251.775
2734.65644	9268.875
2737.24852	9239.275
2739.83899	9215.575
2742.42786	9234.075
2745.01513	9195.575
2747.60079	9184.675
2750.18486	9182.975
2752.76733	9176.675
2755.3482	9123.575
2757.92747	9132.775
2760.50515	9128.275
2763.08123	9106.575
2765.65573	9101.875
2768.22863	9069.475
2770.79994	9026.775
2773.36967	9028.975
2775.9378	9020.275
2778.50435	8997.275
2781.06932	8985.175
2783.6327	8969.975
2786.1945	8980.375
2788.75471	8966.275
2791.31335	8944.575
2793.87041	8908.175
2796.42589	8888.075
2798.97979	8880.475
2801.53212	8853.275
2804.08288	8821.875
2806.63206	8788.075
2809.17967	8764.775
2811.72571	8745.875
2814.27018	8740.775
2816.81308	8687.875
2819.35442	8667.575
2821.89419	8622.675
2824.43239	8623.975
2826.96904	8612.575
2829.50412	8599.475
2832.03763	8596.875
2834.56959	8601.075
2837.1	8588.475
2839.62884	8541.975
2842.15613	8541.175
2844.68186	8551.875
2847.20604	8505.275
2849.72867	8518.775
2852.24974	8500.675
2854.76927	8500.175
2857.28724	8470.875
2859.80367	8455.775
2862.31855	8457.575
2864.83189	8437.975
2867.34368	8441.775
2869.85393	8409.375
2872.36264	8388.375
2874.8698	8373.375
2877.37543	8392.075
2879.87952	8389.175
2882.38207	8384.975
2884.88308	8366.675
2887.38256	8344.575
2889.88051	8334.075
2892.37692	8347.175
2894.8718	8346.975
2897.36515	8319.475
2899.85698	8296.575
2902.34727	8316.575
2904.83604	8311.975
2907.32328	8329.075
2909.809	8336.975
2912.29319	8322.175
2914.77587	8340.775
2917.25702	8314.475
2919.73665	8300.575
2922.21476	8304.575
2924.69136	8288.075
2927.16644	8285.175
2929.64	8267.775
2932.11205	8257.975
2934.58258	8241.175
2937.05161	8237.475
2939.51912	8235.375
2941.98513	8226.475
2944.44962	8206.575
2946.91261	8186.575
2949.37409	8205.575
2951.83407	8200.975
2954.29254	8182.575
2956.74951	8153.375
2959.20498	8144.775
2961.65895	8159.275
2964.11142	8159.475
2966.56239	8149.475
2969.01186	8112.175
2971.45984	8140.875
2973.90632	8148.375
2976.35131	8131.475
2978.7948	8101.375
2981.23681	8091.575
2983.67732	8077.475
2986.11635	8028.675
2988.55388	8031.575
2990.98993	8056.775
2993.4245	8037.575
2995.85758	8004.775
2998.28917	7972.275
3000.71928	7973.275
3003.14791	7945.075
3005.57506	7933.975
3008.00073	7911.975
3010.42493	7886.175
3012.84764	7878.475
3015.26888	7898.975
3017.68865	7836.175
3020.10694	7830.175
3022.52376	7831.375
3024.9391	7811.775
3027.35298	7799.875
3029.76539	7796.275
3032.17632	7802.275
3034.5858	7791.175
3036.9938	7775.175
3039.40034	7758.075
3041.80542	7775.675
3044.20903	7725.475
3046.61118	7749.575
3049.01187	7719.375
3051.4111	7693.275
3053.80888	7691.375
3056.20519	7709.775
3058.60005	7672.675
3060.99345	7676.175
3063.3854	7653.275
3065.7759	7604.975
3068.16494	7578.475
3070.55254	7569.375
3072.93868	7537.075
3075.32338	7517.775
3077.70662	7541.875
3080.08842	7489.475
3082.46878	7488.275
3084.84769	7480.375
3087.22515	7478.775
3089.60118	7483.175
3091.97576	7489.275
3094.3489	7498.375
3096.72061	7503.775
3099.09087	7485.675
3101.4597	7464.775
3103.82709	7485.375
3106.19305	7474.375
3108.55757	7480.875
3110.92066	7460.275
3113.28232	7471.975
3115.64255	7429.375
3118.00134	7415.375
3120.35871	7384.575
3122.71466	7383.975
3125.06917	7384.675
3127.42226	7377.775
3129.77393	7401.475
3132.12417	7354.775
3134.47299	7367.575
3136.82039	7364.275
3139.16636	7365.675
3141.51092	7369.075
3143.85406	7381.175
3146.19579	7346.075
3148.53609	7371.475
3150.87499	7367.175
3153.21246	7371.875
3155.54853	7370.075
3157.88318	7349.775
