Data from AgNPs_APTES_FTO_UA_50uM_CRN_0uM_R6G_10uM_Scan_RamanShift__73__12-36-13-748.txt Node

Date: Tue Jul 05 12:36:13 BST 2022
User: TCL
Spectrometer: QEP01345
Trigger mode: 4
Integration Time (sec): 7.000000E0
Scans to average: 10
Electric dark correction enabled: true
Nonlinearity correction enabled: false
Boxcar width: 0
XAxis mode: Raman Shifts
Number of Pixels in Spectrum: 1044
>>>>>Begin Spectral Data<<<<<
46.04893	0.4625
50.45542	-0.8375
54.85868	-1.0375
59.25871	0.3625
63.6555	39.4625
68.04907	40.9625
72.43941	42.1625
76.82654	46.1625
81.21044	51.3625
85.59113	53.7625
89.96862	52.6625
94.34289	53.6625
98.71396	55.6625
103.08183	60.2625
107.4465	57.5625
111.80798	62.9625
116.16626	58.2625
120.52136	58.0625
124.87327	63.1625
129.222	65.2625
133.56755	67.4625
137.90993	68.2625
142.24913	72.0625
146.58517	81.9625
150.91804	84.9625
155.24774	96.5625
159.57429	116.9625
163.89768	144.2625
168.21792	186.0625
172.53501	248.9625
176.84895	338.5625
181.15975	474.5625
185.46741	677.4625
189.77193	930.4625
194.07331	1237.2625
198.37157	1592.7625
202.6667	1963.7625
206.9587	2332.1625
211.24758	2703.9625
215.53334	3044.4625
219.81599	3415.2625
224.09553	3785.3625
228.37195	4239.8625
232.64527	4747.2625
236.91549	5259.7625
241.18261	5805.2625
245.44663	6378.1625
249.70755	6914.7625
253.96539	7387.7625
258.22014	7776.3625
262.4718	8111.6625
266.72039	8315.1625
270.96589	8403.8625
275.20832	8423.4625
279.44768	8342.2625
283.68397	8232.9625
287.91719	8106.5625
292.14735	7980.5625
296.37445	7891.3625
300.59849	7780.2625
304.81948	7724.0625
309.03742	7712.8625
313.25231	7679.0625
317.46415	7662.2625
321.67296	7659.3625
325.87872	7678.3625
330.08145	7704.8625
334.28114	7778.7625
338.47781	7859.7625
342.67145	7965.5625
346.86207	8041.6625
351.04966	8159.5625
355.23424	8289.7625
359.4158	8394.7625
363.59435	8510.2625
367.76989	8621.3625
371.94243	8757.2625
376.11196	8811.5625
380.27849	8885.1625
384.44203	8998.8625
388.60257	9093.9625
392.76012	9167.6625
396.91468	9219.1625
401.06626	9304.9625
405.21485	9413.9625
409.36047	9434.7625
413.50311	9471.6625
417.64277	9472.7625
421.77947	9514.3625
425.9132	9567.2625
430.04396	9616.9625
434.17176	9702.6625
438.2966	9779.6625
442.41849	9861.9625
446.53742	9941.2625
450.6534	10042.3625
454.76644	10126.6625
458.87653	10216.7625
462.98368	10262.1625
467.08789	10316.6625
471.18916	10370.4625
475.2875	10384.5625
479.38291	10374.7625
483.4754	10388.3625
487.56496	10375.5625
491.6516	10388.5625
495.73531	10451.7625
499.81612	10433.9625
503.89401	10495.7625
507.96899	10551.5625
512.04106	10582.4625
516.11023	10640.8625
520.1765	10666.0625
524.23987	10703.8625
528.30034	10727.1625
532.35792	10759.1625
536.41261	10816.5625
540.46441	10798.8625
544.51333	10812.0625
548.55936	10858.0625
552.60252	10912.8625
556.64279	10983.0625
560.6802	11077.7625
564.71473	11111.1625
568.7464	11114.0625
572.7752	11121.7625
576.80114	11105.6625
580.82422	11144.2625
584.84444	11175.3625
588.86181	11247.9625
592.87633	11295.7625
596.888	11362.4625
600.89682	11415.6625
604.9028	11556.2625
608.90594	11832.3625
612.90624	12126.6625
616.90371	11965.7625
620.89834	11661.9625
624.89015	11526.4625
628.87913	11528.8625
632.86528	11576.8625
636.84862	11624.1625
640.82913	11641.8625
644.80683	11606.9625
648.78172	11611.7625
652.75379	11614.2625
656.72306	11688.3625
660.68952	11781.5625
664.65319	11845.4625
668.61405	11855.2625
672.57211	11928.8625
676.52738	12006.3625
680.47986	12032.0625
684.42955	12082.6625
688.37646	12162.1625
692.32058	12217.8625
696.26192	12272.0625
700.20048	12301.7625
704.13626	12338.8625
708.06928	12381.6625
711.99952	12389.0625
715.927	12398.9625
719.85171	12401.5625
723.77365	12373.8625
727.69284	12337.8625
731.60928	12312.1625
735.52295	12326.5625
739.43388	12330.9625
743.34206	12323.4625
747.24749	12380.2625
751.15017	12406.5625
755.05012	12432.8625
758.94733	12475.1625
762.8418	12548.9625
766.73354	12690.8625
770.62254	12862.0625
774.50882	12985.1625
778.39237	12995.2625
782.27321	12898.1625
786.15132	12788.4625
790.02671	12693.1625
793.89938	12633.6625
797.76935	12627.1625
801.6366	12617.6625
805.50115	12607.8625
809.36299	12625.2625
813.22213	12606.9625
817.07857	12629.4625
820.93231	12659.3625
824.78336	12693.5625
828.63172	12709.0625
832.47738	12725.6625
836.32036	12724.6625
840.16066	12736.9625
843.99827	12804.7625
847.8332	12844.6625
851.66546	12833.8625
855.49504	12874.9625
859.32195	12898.0625
863.1462	12908.8625
866.96777	12921.1625
870.78668	12968.3625
874.60293	13013.0625
878.41652	13036.0625
882.22745	13061.0625
886.03573	13078.7625
889.84136	13104.0625
893.64433	13099.3625
897.44466	13131.9625
901.24235	13147.7625
905.0374	13189.1625
908.8298	13205.2625
912.61957	13241.4625
916.40671	13234.6625
920.19121	13223.3625
923.97308	13254.2625
927.75233	13215.2625
931.52895	13200.5625
935.30295	13179.2625
939.07433	13156.1625
942.84309	13095.2625
946.60924	13119.2625
950.37278	13085.0625
954.13371	13097.9625
957.89203	13094.5625
961.64774	13097.4625
965.40086	13041.7625
969.15137	13038.2625
972.89929	13020.8625
976.64461	13034.2625
980.38733	13053.3625
984.12747	13018.8625
987.86502	13036.6625
991.59999	13057.0625
995.33237	13098.3625
999.06217	13122.6625
1002.78939	13197.5625
1006.51404	13237.7625
1010.23611	13303.7625
1013.95561	13336.8625
1017.67255	13365.3625
1021.38692	13371.4625
1025.09872	13328.4625
1028.80796	13326.4625
1032.51465	13284.6625
1036.21877	13272.8625
1039.92035	13318.9625
1043.61937	13339.8625
1047.31584	13354.2625
1051.00976	13385.7625
1054.70114	13391.8625
1058.38998	13433.4625
1062.07627	13460.0625
1065.76003	13498.3625
1069.44126	13497.6625
1073.11995	13524.4625
1076.79611	13656.2625
1080.46974	13681.1625
1084.14085	13671.3625
1087.80943	13648.9625
1091.47549	13687.1625
1095.13903	13667.1625
1098.80005	13688.5625
1102.45857	13690.1625
1106.11456	13694.4625
1109.76805	13639.8625
1113.41903	13581.8625
1117.06751	13570.5625
1120.71348	13572.9625
1124.35696	13539.5625
1127.99793	13570.9625
1131.63641	13613.1625
1135.2724	13581.7625
1138.90589	13572.3625
1142.5369	13556.5625
1146.16542	13536.3625
1149.79145	13529.2625
1153.415	13439.0625
1157.03607	13447.4625
1160.65467	13417.5625
1164.27079	13440.3625
1167.88443	13534.5625
1171.49561	13574.1625
1175.10432	13698.0625
1178.71056	13838.9625
1182.31434	13970.7625
1185.91565	14119.0625
1189.51451	14199.6625
1193.11091	14243.9625
1196.70485	14296.0625
1200.29634	14217.4625
1203.88538	14173.7625
1207.47197	14055.6625
1211.05612	13991.2625
1214.63782	13936.0625
1218.21708	13853.7625
1221.79391	13809.5625
1225.36829	13743.1625
1228.94024	13738.5625
1232.50976	13707.1625
1236.07685	13694.1625
1239.6415	13709.2625
1243.20374	13707.9625
1246.76355	13792.4625
1250.32093	13782.1625
1253.8759	13842.3625
1257.42845	13938.4625
1260.97859	14002.8625
1264.52631	14021.3625
1268.07163	14083.7625
1271.61453	14149.6625
1275.15503	14124.7625
1278.69312	14138.7625
1282.22882	14128.6625
1285.76211	14128.8625
1289.29301	14128.9625
1292.82151	14146.4625
1296.34761	14189.7625
1299.87133	14291.1625
1303.39266	14371.0625
1306.9116	14476.0625
1310.42815	14664.1625
1313.94233	14759.6625
1317.45412	14803.2625
1320.96354	14792.2625
1324.47058	14725.8625
1327.97525	14616.7625
1331.47754	14467.4625
1334.97747	14413.7625
1338.47502	14465.9625
1341.97022	14589.0625
1345.46305	14787.4625
1348.95352	14949.6625
1352.44163	15017.8625
1355.92738	14992.4625
1359.41078	14962.0625
1362.89183	14895.7625
1366.37053	14746.1625
1369.84688	14472.2625
1373.32088	14195.2625
1376.79254	13980.2625
1380.26186	13872.6625
1383.72883	13728.2625
1387.19347	13604.4625
1390.65578	13505.3625
1394.11575	13420.5625
1397.57339	13350.0625
1401.0287	13311.5625
1404.48168	13288.9625
1407.93234	13282.0625
1411.38068	13263.0625
1414.82669	13270.5625
1418.27039	13218.1625
1421.71177	13165.1625
1425.15083	13144.6625
1428.58758	13105.1625
1432.02203	13061.9625
1435.45416	13046.9625
1438.88399	13031.4625
1442.31151	13034.9625
1445.73673	13034.8625
1449.15965	13007.3625
1452.58027	13004.5625
1455.9986	13000.0625
1459.41463	13024.5625
1462.82837	13089.8625
1466.23982	13148.1625
1469.64898	13247.7625
1473.05586	13278.8625
1476.46045	13292.7625
1479.86276	13320.2625
1483.26279	13328.8625
1486.66054	13356.7625
1490.05602	13366.8625
1493.44922	13467.0625
1496.84016	13534.6625
1500.22882	13690.0625
1503.61521	13861.7625
1506.99934	13988.3625
1510.38121	14016.3625
1513.76081	13987.8625
1517.13816	13904.1625
1520.51324	13800.0625
1523.88607	13702.3625
1527.25665	13624.3625
1530.62498	13555.9625
1533.99105	13534.9625
1537.35488	13545.8625
1540.71647	13554.5625
1544.07581	13565.6625
1547.4329	13594.1625
1550.78776	13555.4625
1554.14038	13543.6625
1557.49077	13553.4625
1560.83892	13558.1625
1564.18484	13588.0625
1567.52853	13588.7625
1570.86999	13606.0625
1574.20922	13635.4625
1577.54624	13599.2625
1580.88103	13559.2625
1584.2136	13522.0625
1587.54395	13490.2625
1590.87208	13499.0625
1594.19801	13586.4625
1597.52172	13689.2625
1600.84321	13738.4625
1604.16251	13749.0625
1607.47959	13715.7625
1610.79447	13593.1625
1614.10715	13406.5625
1617.41763	13190.4625
1620.7259	13055.1625
1624.03199	12955.3625
1627.33587	12949.2625
1630.63757	12915.3625
1633.93707	12932.1625
1637.23439	12989.6625
1640.52951	13155.5625
1643.82246	13328.4625
1647.11321	13483.0625
1650.40179	13516.7625
1653.68819	13435.8625
1656.97241	13182.9625
1660.25446	12937.9625
1663.53433	12792.9625
1666.81203	12637.1625
1670.08756	12545.1625
1673.36092	12465.7625
1676.63211	12446.1625
1679.90115	12402.6625
1683.16801	12351.0625
1686.43272	12310.3625
1689.69527	12341.4625
1692.95567	12262.8625
1696.2139	12290.8625
1699.46999	12267.5625
1702.72392	12239.8625
1705.97571	12263.7625
1709.22535	12284.1625
1712.47284	12279.5625
1715.71819	12298.8625
1718.96139	12276.3625
1722.20246	12248.3625
1725.44139	12237.5625
1728.67818	12218.9625
1731.91284	12203.4625
1735.14537	12150.9625
1738.37576	12072.8625
1741.60403	12073.0625
1744.83017	12029.3625
1748.05418	12033.5625
1751.27607	12018.8625
1754.49584	11999.6625
1757.71349	11935.6625
1760.92903	11901.7625
1764.14244	11925.1625
1767.35375	11897.5625
1770.56294	11884.6625
1773.77002	11902.8625
1776.97499	11916.2625
1780.17785	11897.3625
1783.37861	11909.0625
1786.57727	11883.6625
1789.77382	11867.6625
1792.96828	11829.7625
1796.16064	11823.9625
1799.3509	11804.6625
1802.53907	11767.9625
1805.72514	11732.6625
1808.90913	11722.2625
1812.09102	11747.9625
1815.27083	11700.1625
1818.44856	11693.1625
1821.6242	11688.8625
1824.79776	11661.2625
1827.96924	11634.1625
1831.13864	11622.9625
1834.30597	11627.5625
1837.47122	11618.5625
1840.6344	11566.8625
1843.7955	11555.6625
1846.95454	11551.1625
1850.11151	11555.6625
1853.26642	11552.4625
1856.41926	11537.5625
1859.57004	11564.3625
1862.71876	11543.6625
1865.86542	11530.1625
1869.01003	11535.5625
1872.15258	11499.1625
1875.29308	11512.0625
1878.43152	11486.1625
1881.56792	11455.3625
1884.70227	11459.3625
1887.83457	11424.3625
1890.96482	11415.7625
1894.09304	11375.9625
1897.21921	11354.4625
1900.34335	11346.6625
1903.46544	11333.2625
1906.58551	11328.7625
1909.70353	11322.2625
1912.81953	11311.8625
1915.93349	11296.7625
1919.04543	11290.2625
1922.15534	11258.0625
1925.26322	11222.9625
1928.36908	11208.2625
1931.47292	11173.7625
1934.57473	11167.4625
1937.67453	11160.4625
1940.77232	11099.9625
1943.86808	11102.5625
1946.96184	11090.9625
1950.05358	11027.7625
1953.14331	11001.0625
1956.23103	10966.4625
1959.31675	10943.1625
1962.40046	10890.4625
1965.48217	10867.6625
1968.56188	10826.9625
1971.63959	10796.7625
1974.7153	10763.6625
1977.78901	10718.0625
1980.86073	10725.6625
1983.93046	10670.2625
1986.99819	10598.2625
1990.06394	10599.1625
1993.1277	10577.1625
1996.18947	10557.7625
1999.24925	10514.6625
2002.30706	10494.1625
2005.36288	10447.0625
2008.41672	10430.6625
2011.46859	10407.9625
2014.51848	10368.5625
2017.56639	10342.2625
2020.61233	10278.4625
2023.6563	10297.4625
2026.6983	10259.2625
2029.73833	10194.5625
2032.7764	10172.0625
2035.8125	10146.5625
2038.84664	10114.1625
2041.87881	10113.8625
2044.90903	10087.8625
2047.93729	10089.6625
2050.96359	10072.7625
2053.98794	10031.5625
2057.01034	10026.1625
2060.03078	10009.1625
2063.04927	10014.1625
2066.06582	10004.8625
2069.08042	9984.2625
2072.09307	9933.1625
2075.10378	9951.4625
2078.11255	9969.8625
2081.11938	9988.9625
2084.12426	9987.3625
2087.12722	9964.4625
2090.12824	9933.1625
2093.12732	9911.6625
2096.12447	9913.2625
2099.11969	9931.1625
2102.11299	9926.3625
2105.10435	9919.2625
2108.09379	9945.5625
2111.08131	9940.9625
2114.0669	9958.1625
2117.05057	9961.4625
2120.03233	9961.3625
2123.01216	9983.3625
2125.99008	9993.4625
2128.96609	9991.0625
2131.94018	9996.2625
2134.91236	10010.3625
2137.88263	10016.4625
2140.851	10011.7625
2143.81746	10013.4625
2146.78201	10012.4625
2149.74466	9998.0625
2152.7054	9969.7625
2155.66425	9977.4625
2158.6212	9986.9625
2161.57625	9963.5625
2164.52941	9952.5625
2167.48067	9947.6625
2170.43004	9972.2625
2173.37752	9971.7625
2176.32311	9958.8625
2179.26681	9966.8625
2182.20863	9950.4625
2185.14856	9951.1625
2188.08661	9941.2625
2191.02278	9956.2625
2193.95707	9915.1625
2196.88948	9924.5625
2199.82001	9960.3625
2202.74867	9890.0625
2205.67545	9865.7625
2208.60037	9846.9625
2211.52341	9816.4625
2214.44458	9805.7625
2217.36388	9794.6625
2220.28132	9759.9625
2223.1969	9752.7625
2226.11061	9738.5625
2229.02246	9705.8625
2231.93245	9681.0625
2234.84058	9672.5625
2237.74686	9678.4625
2240.65128	9673.0625
2243.55385	9649.7625
2246.45456	9605.4625
2249.35343	9586.6625
2252.25044	9569.8625
2255.14561	9563.8625
2258.03893	9553.6625
2260.93041	9533.8625
2263.82004	9485.7625
2266.70783	9483.2625
2269.59378	9456.8625
2272.4779	9412.0625
2275.36017	9406.5625
2278.24061	9371.8625
2281.11922	9344.0625
2283.996	9319.2625
2286.87094	9316.3625
2289.74405	9298.1625
2292.61534	9295.7625
2295.4848	9277.1625
2298.35243	9262.4625
2301.21824	9287.2625
2304.08223	9265.0625
2306.94439	9254.5625
2309.80474	9257.7625
2312.66327	9214.8625
2315.51999	9228.7625
2318.37489	9198.5625
2321.22797	9187.9625
2324.07925	9145.1625
2326.92871	9148.2625
2329.77637	9116.8625
2332.62222	9110.0625
2335.46626	9079.7625
2338.3085	9058.3625
2341.14893	9039.3625
2343.98756	9029.8625
2346.8244	9013.2625
2349.65943	9006.6625
2352.49267	8998.2625
2355.32411	8966.8625
2358.15376	8988.2625
2360.98161	8982.9625
2363.80768	8983.2625
2366.63195	8985.7625
2369.45444	8961.3625
2372.27514	8961.7625
2375.09405	8928.5625
2377.91118	8912.1625
2380.72652	8883.7625
2383.54009	8887.5625
2386.35187	8851.1625
2389.16188	8825.0625
2391.97011	8798.6625
2394.77657	8754.5625
2397.58125	8762.4625
2400.38416	8733.6625
2403.18529	8713.4625
2405.98466	8705.1625
2408.78226	8685.0625
2411.57809	8679.6625
2414.37216	8664.5625
2417.16446	8661.5625
2419.955	8642.4625
2422.74378	8641.2625
2425.5308	8650.7625
2428.31606	8623.6625
2431.09956	8609.2625
2433.88131	8574.0625
2436.6613	8573.0625
2439.43954	8575.4625
2442.21603	8562.7625
2444.99077	8531.3625
2447.76377	8528.5625
2450.53501	8509.6625
2453.30451	8513.1625
2456.07226	8485.9625
2458.83827	8486.2625
2461.60254	8468.3625
2464.36507	8463.9625
2467.12586	8435.9625
2469.88492	8423.1625
2472.64224	8410.0625
2475.39782	8397.6625
2478.15167	8414.1625
2480.90379	8401.2625
2483.65417	8401.8625
2486.40283	8387.1625
2489.14976	8377.6625
2491.89497	8341.0625
2494.63845	8338.4625
2497.3802	8326.4625
2500.12024	8299.5625
2502.85855	8330.1625
2505.59514	8318.5625
2508.33002	8292.1625
2511.06318	8265.7625
2513.79462	8265.0625
2516.52435	8235.6625
2519.25237	8240.1625
2521.97867	8230.3625
2524.70327	8191.6625
2527.42616	8207.7625
2530.14734	8171.8625
2532.86681	8160.8625
2535.58458	8151.6625
2538.30065	8143.7625
2541.01501	8108.8625
2543.72768	8097.0625
2546.43864	8063.6625
2549.14791	8049.3625
2551.85548	8052.5625
2554.56136	8030.8625
2557.26554	8029.4625
2559.96803	8004.2625
2562.66883	7974.2625
2565.36794	7947.4625
2568.06536	7926.2625
2570.7611	7935.0625
2573.45514	7905.5625
2576.14751	7883.4625
2578.83819	7860.1625
2581.52719	7843.6625
2584.21451	7844.5625
2586.90015	7822.2625
2589.58411	7785.7625
2592.2664	7795.6625
2594.94701	7769.5625
2597.62594	7751.1625
2600.30321	7708.8625
2602.9788	7707.6625
2605.65273	7672.5625
2608.32498	7691.8625
2610.99557	7671.2625
2613.66449	7677.4625
2616.33175	7657.6625
2618.99734	7640.3625
2621.66128	7617.6625
2624.32355	7612.4625
2626.98416	7604.5625
2629.64311	7566.0625
2632.30041	7566.9625
2634.95605	7553.6625
2637.61004	7548.1625
2640.26238	7519.9625
2642.91306	7527.6625
2645.56209	7500.3625
2648.20948	7484.0625
2650.85521	7485.8625
2653.4993	7491.3625
2656.14175	7476.6625
2658.78255	7458.6625
2661.42171	7452.5625
2664.05923	7459.1625
2666.6951	7460.5625
2669.32934	7487.4625
2671.96194	7455.3625
2674.59291	7425.4625
2677.22224	7427.1625
2679.84993	7425.2625
2682.476	7415.7625
2685.10043	7427.4625
2687.72324	7412.6625
2690.34441	7412.9625
2692.96396	7390.8625
2695.58188	7394.2625
2698.19818	7375.9625
2700.81285	7368.9625
2703.4259	7358.5625
2706.03733	7344.7625
2708.64714	7339.0625
2711.25533	7326.1625
2713.86191	7351.4625
2716.46687	7348.1625
2719.07021	7360.3625
2721.67194	7360.9625
2724.27206	7347.7625
2726.87057	7337.4625
2729.46747	7329.2625
2732.06276	7334.7625
2734.65644	7319.6625
2737.24852	7309.5625
2739.83899	7304.7625
2742.42786	7305.0625
2745.01513	7293.0625
2747.60079	7277.1625
2750.18486	7250.7625
2752.76733	7266.4625
2755.3482	7239.8625
2757.92747	7246.5625
2760.50515	7216.0625
2763.08123	7227.3625
2765.65573	7203.6625
2768.22863	7166.2625
2770.79994	7148.9625
2773.36967	7131.0625
2775.9378	7137.0625
2778.50435	7116.6625
2781.06932	7107.0625
2783.6327	7116.7625
2786.1945	7096.6625
2788.75471	7091.3625
2791.31335	7030.1625
2793.87041	7047.6625
2796.42589	7030.4625
2798.97979	7006.4625
2801.53212	6974.4625
2804.08288	6937.4625
2806.63206	6929.3625
2809.17967	6915.9625
2811.72571	6911.6625
2814.27018	6885.4625
2816.81308	6873.9625
2819.35442	6840.4625
2821.89419	6813.3625
2824.43239	6813.9625
2826.96904	6797.1625
2829.50412	6797.0625
2832.03763	6762.9625
2834.56959	6786.9625
2837.1	6751.8625
2839.62884	6736.1625
2842.15613	6720.2625
2844.68186	6748.0625
2847.20604	6706.8625
2849.72867	6696.5625
2852.24974	6701.7625
2854.76927	6666.5625
2857.28724	6652.6625
2859.80367	6658.4625
2862.31855	6653.3625
2864.83189	6642.4625
2867.34368	6640.2625
2869.85393	6633.3625
2872.36264	6592.5625
2874.8698	6616.1625
2877.37543	6620.0625
2879.87952	6618.8625
2882.38207	6607.7625
2884.88308	6554.6625
2887.38256	6580.5625
2889.88051	6572.1625
2892.37692	6560.5625
2894.8718	6572.4625
2897.36515	6540.8625
2899.85698	6546.9625
2902.34727	6524.4625
2904.83604	6539.2625
2907.32328	6555.1625
2909.809	6544.5625
2912.29319	6542.4625
2914.77587	6539.1625
2917.25702	6538.3625
2919.73665	6519.0625
2922.21476	6522.5625
2924.69136	6515.2625
2927.16644	6509.9625
2929.64	6494.1625
2932.11205	6475.3625
2934.58258	6479.7625
2937.05161	6474.8625
2939.51912	6483.1625
2941.98513	6477.1625
2944.44962	6464.8625
2946.91261	6455.2625
2949.37409	6453.9625
2951.83407	6443.8625
2954.29254	6450.6625
2956.74951	6442.0625
2959.20498	6419.6625
2961.65895	6418.7625
2964.11142	6429.0625
2966.56239	6430.0625
2969.01186	6406.9625
2971.45984	6420.5625
2973.90632	6415.3625
2976.35131	6414.9625
2978.7948	6401.0625
2981.23681	6387.5625
2983.67732	6379.5625
2986.11635	6365.7625
2988.55388	6340.2625
2990.98993	6352.2625
2993.4245	6354.3625
2995.85758	6330.5625
2998.28917	6323.7625
3000.71928	6301.3625
3003.14791	6285.1625
3005.57506	6268.9625
3008.00073	6258.8625
3010.42493	6252.9625
3012.84764	6260.8625
3015.26888	6247.4625
3017.68865	6220.1625
3020.10694	6217.9625
3022.52376	6208.8625
3024.9391	6207.0625
3027.35298	6207.1625
3029.76539	6200.4625
3032.17632	6182.3625
3034.5858	6178.8625
3036.9938	6152.8625
3039.40034	6139.0625
3041.80542	6136.1625
3044.20903	6126.5625
3046.61118	6132.9625
3049.01187	6122.4625
3051.4111	6098.7625
3053.80888	6113.0625
3056.20519	6107.0625
3058.60005	6092.7625
3060.99345	6079.6625
3063.3854	6059.4625
3065.7759	6040.9625
3068.16494	6008.3625
3070.55254	6017.7625
3072.93868	6002.5625
