Data from AgNPs_APTES_FTO_UA_50uM_CRN_0uM_R6G_10uM_Scan_RamanShift__18__11-32-03-672.txt Node

Date: Tue Jul 05 11:32:03 BST 2022
User: TCL
Spectrometer: QEP01345
Trigger mode: 4
Integration Time (sec): 7.000000E0
Scans to average: 10
Electric dark correction enabled: true
Nonlinearity correction enabled: false
Boxcar width: 0
XAxis mode: Raman Shifts
Number of Pixels in Spectrum: 1044
>>>>>Begin Spectral Data<<<<<
46.04893	-0.125
50.45542	0.475
54.85868	-0.925
59.25871	0.675
63.6555	37.675
68.04907	44.575
72.43941	45.875
76.82654	49.575
81.21044	54.275
85.59113	58.075
89.96862	59.775
94.34289	59.475
98.71396	61.875
103.08183	65.675
107.4465	61.975
111.80798	62.075
116.16626	60.775
120.52136	61.975
124.87327	65.075
129.222	67.675
133.56755	69.175
137.90993	67.475
142.24913	72.675
146.58517	76.775
150.91804	85.275
155.24774	95.775
159.57429	109.575
163.89768	136.275
168.21792	171.975
172.53501	223.675
176.84895	299.775
181.15975	407.675
185.46741	562.475
189.77193	769.275
194.07331	1020.075
198.37157	1311.875
202.6667	1617.875
206.9587	1907.875
211.24758	2222.675
215.53334	2542.175
219.81599	2862.275
224.09553	3234.175
228.37195	3643.475
232.64527	4088.775
236.91549	4537.675
241.18261	4935.775
245.44663	5341.175
249.70755	5624.875
253.96539	5863.475
258.22014	6066.775
262.4718	6229.575
266.72039	6348.875
270.96589	6415.575
275.20832	6381.975
279.44768	6277.375
283.68397	6145.875
287.91719	6007.775
292.14735	5957.675
296.37445	5996.475
300.59849	6081.675
304.81948	6206.075
309.03742	6300.375
313.25231	6306.475
317.46415	6157.375
321.67296	5880.775
325.87872	5642.275
330.08145	5505.075
334.28114	5461.975
338.47781	5516.375
342.67145	5597.975
346.86207	5732.475
351.04966	5916.075
355.23424	6154.375
359.4158	6335.275
363.59435	6444.175
367.76989	6492.775
371.94243	6553.175
376.11196	6569.175
380.27849	6581.475
384.44203	6581.275
388.60257	6566.075
392.76012	6551.275
396.91468	6592.875
401.06626	6688.275
405.21485	6732.475
409.36047	6622.275
413.50311	6384.375
417.64277	6149.375
421.77947	6015.775
425.9132	5999.775
430.04396	5976.975
434.17176	6011.175
438.2966	6045.875
442.41849	6156.175
446.53742	6283.475
450.6534	6409.175
454.76644	6444.575
458.87653	6435.675
462.98368	6351.275
467.08789	6296.775
471.18916	6229.075
475.2875	6153.775
479.38291	6101.575
483.4754	6072.075
487.56496	6085.175
491.6516	6124.175
495.73531	6162.275
499.81612	6182.375
503.89401	6248.375
507.96899	6274.675
512.04106	6327.775
516.11023	6406.275
520.1765	6451.175
524.23987	6452.775
528.30034	6420.975
532.35792	6362.675
536.41261	6285.375
540.46441	6172.275
544.51333	6080.975
548.55936	6093.575
552.60252	6159.475
556.64279	6253.275
560.6802	6299.975
564.71473	6331.775
568.7464	6407.775
572.7752	6519.775
576.80114	6418.475
580.82422	6346.075
584.84444	6362.675
588.86181	6493.575
592.87633	6610.575
596.888	6761.375
600.89682	6858.275
604.9028	7300.975
608.90594	8631.075
612.90624	10410.075
616.90371	10122.075
620.89834	7918.675
624.89015	6819.775
628.87913	6680.875
632.86528	6792.175
636.84862	6961.475
640.82913	6874.475
644.80683	6618.275
648.78172	6368.775
652.75379	6244.375
656.72306	6327.175
660.68952	6466.275
664.65319	6393.475
668.61405	6166.575
672.57211	6083.875
676.52738	6133.575
680.47986	6232.175
684.42955	6305.875
688.37646	6337.175
692.32058	6289.975
696.26192	6189.175
700.20048	6137.575
704.13626	6130.675
708.06928	6103.775
711.99952	6058.475
715.927	6050.575
719.85171	6065.875
723.77365	6093.075
727.69284	6071.575
731.60928	6033.375
735.52295	6011.675
739.43388	6002.275
743.34206	5992.275
747.24749	6003.175
751.15017	6005.375
755.05012	6045.675
758.94733	6217.075
762.8418	6679.675
766.73354	7477.775
770.62254	8423.875
774.50882	8926.975
778.39237	8552.475
782.27321	7634.875
786.15132	6788.075
790.02671	6287.875
793.89938	6085.675
797.76935	6002.675
801.6366	5992.175
805.50115	6017.075
809.36299	6070.775
813.22213	6078.275
817.07857	6037.875
820.93231	5950.875
824.78336	5882.375
828.63172	5848.975
832.47738	5838.875
836.32036	5805.275
840.16066	5779.575
843.99827	5795.875
847.8332	5795.275
851.66546	5803.575
855.49504	5782.575
859.32195	5775.675
863.1462	5786.775
866.96777	5745.075
870.78668	5797.375
874.60293	5839.975
878.41652	5892.275
882.22745	5973.275
886.03573	6016.075
889.84136	6016.675
893.64433	6009.875
897.44466	5973.975
901.24235	5932.375
905.0374	5896.675
908.8298	5883.875
912.61957	5878.975
916.40671	5953.575
920.19121	6028.175
923.97308	6132.775
927.75233	6216.975
931.52895	6278.375
935.30295	6217.375
939.07433	6031.475
942.84309	5864.275
946.60924	5683.475
950.37278	5590.975
954.13371	5516.175
957.89203	5449.775
961.64774	5376.575
965.40086	5319.975
969.15137	5260.975
972.89929	5235.975
976.64461	5201.975
980.38733	5166.775
984.12747	5140.075
987.86502	5123.175
991.59999	5132.975
995.33237	5156.475
999.06217	5216.175
1002.78939	5289.775
1006.51404	5359.175
1010.23611	5456.575
1013.95561	5529.575
1017.67255	5540.975
1021.38692	5500.075
1025.09872	5422.775
1028.80796	5312.275
1032.51465	5237.175
1036.21877	5211.575
1039.92035	5222.175
1043.61937	5212.575
1047.31584	5246.175
1051.00976	5259.175
1054.70114	5262.575
1058.38998	5261.775
1062.07627	5296.575
1065.76003	5333.675
1069.44126	5326.175
1073.11995	5328.875
1076.79611	5376.775
1080.46974	5413.975
1084.14085	5461.375
1087.80943	5556.475
1091.47549	5605.575
1095.13903	5532.875
1098.80005	5377.675
1102.45857	5237.775
1106.11456	5181.175
1109.76805	5219.375
1113.41903	5311.475
1117.06751	5484.975
1120.71348	5714.575
1124.35696	5953.975
1127.99793	6245.875
1131.63641	6379.775
1135.2724	6289.275
1138.90589	6042.675
1142.5369	5823.475
1146.16542	5614.675
1149.79145	5422.375
1153.415	5305.475
1157.03607	5248.775
1160.65467	5266.975
1164.27079	5377.375
1167.88443	5593.475
1171.49561	5962.875
1175.10432	6574.375
1178.71056	7417.975
1182.31434	8104.375
1185.91565	8279.475
1189.51451	8000.975
1193.11091	7515.775
1196.70485	7046.775
1200.29634	6700.075
1203.88538	6402.575
1207.47197	6069.875
1211.05612	5745.775
1214.63782	5545.675
1218.21708	5442.775
1221.79391	5406.575
1225.36829	5420.375
1228.94024	5423.875
1232.50976	5375.875
1236.07685	5311.575
1239.6415	5273.375
1243.20374	5253.175
1246.76355	5285.175
1250.32093	5306.475
1253.8759	5383.675
1257.42845	5505.875
1260.97859	5678.975
1264.52631	5834.675
1268.07163	6026.975
1271.61453	6179.975
1275.15503	6299.775
1278.69312	6346.175
1282.22882	6380.375
1285.76211	6478.775
1289.29301	6683.475
1292.82151	6921.475
1296.34761	7181.575
1299.87133	7566.075
1303.39266	8112.275
1306.9116	8918.575
1310.42815	9861.975
1313.94233	10435.475
1317.45412	10290.575
1320.96354	9592.075
1324.47058	8819.775
1327.97525	8076.775
1331.47754	7564.675
1334.97747	7305.475
1338.47502	7238.375
1341.97022	7329.075
1345.46305	7604.675
1348.95352	8180.475
1352.44163	8991.175
1355.92738	10079.775
1359.41078	11610.275
1362.89183	13178.475
1366.37053	13354.075
1369.84688	11694.975
1373.32088	9598.975
1376.79254	8207.475
1380.26186	7506.975
1383.72883	7165.375
1387.19347	6913.575
1390.65578	6689.075
1394.11575	6482.475
1397.57339	6341.775
1401.0287	6261.775
1404.48168	6187.775
1407.93234	6079.575
1411.38068	5953.275
1414.82669	5855.675
1418.27039	5766.875
1421.71177	5685.375
1425.15083	5578.675
1428.58758	5494.375
1432.02203	5460.675
1435.45416	5492.075
1438.88399	5552.375
1442.31151	5550.875
1445.73673	5563.675
1449.15965	5550.575
1452.58027	5540.675
1455.9986	5486.275
1459.41463	5469.475
1462.82837	5488.075
1466.23982	5577.075
1469.64898	5695.375
1473.05586	5746.275
1476.46045	5806.775
1479.86276	5871.875
1483.26279	5938.975
1486.66054	6058.075
1490.05602	6227.775
1493.44922	6481.775
1496.84016	6919.375
1500.22882	7597.275
1503.61521	8611.775
1506.99934	9795.375
1510.38121	10926.575
1513.76081	11446.375
1517.13816	10892.275
1520.51324	9537.175
1523.88607	8165.475
1527.25665	7199.875
1530.62498	6691.275
1533.99105	6366.575
1537.35488	6162.375
1540.71647	6011.875
1544.07581	5928.675
1547.4329	5889.175
1550.78776	5873.875
1554.14038	5914.575
1557.49077	6002.675
1560.83892	6093.575
1564.18484	6264.875
1567.52853	6454.875
1570.86999	6675.575
1574.20922	6828.275
1577.54624	6801.675
1580.88103	6532.275
1584.2136	6075.875
1587.54395	5719.875
1590.87208	5644.475
1594.19801	5792.575
1597.52172	6119.175
1600.84321	6323.975
1604.16251	6213.775
1607.47959	5934.775
1610.79447	5602.575
1614.10715	5309.175
1617.41763	5069.875
1620.7259	4889.375
1624.03199	4819.475
1627.33587	4819.675
1630.63757	4904.675
1633.93707	5065.975
1637.23439	5360.075
1640.52951	5850.575
1643.82246	6652.375
1647.11321	7559.875
1650.40179	8295.275
1653.68819	8264.975
1656.97241	7351.275
1660.25446	6179.175
1663.53433	5324.475
1666.81203	4777.775
1670.08756	4462.175
1673.36092	4257.675
1676.63211	4143.475
1679.90115	4070.675
1683.16801	3996.375
1686.43272	3948.975
1689.69527	3906.275
1692.95567	3892.075
1696.2139	3866.175
1699.46999	3827.475
1702.72392	3783.775
1705.97571	3740.475
1709.22535	3693.075
1712.47284	3632.975
1715.71819	3591.075
1718.96139	3538.075
1722.20246	3486.375
1725.44139	3432.675
1728.67818	3392.275
1731.91284	3345.275
1735.14537	3294.975
1738.37576	3257.575
1741.60403	3237.075
1744.83017	3211.875
1748.05418	3195.175
1751.27607	3171.975
1754.49584	3152.375
1757.71349	3136.975
1760.92903	3103.875
1764.14244	3079.775
1767.35375	3099.475
1770.56294	3072.275
1773.77002	3057.975
1776.97499	3042.975
1780.17785	3043.575
1783.37861	3041.475
1786.57727	3021.775
1789.77382	2990.675
1792.96828	3001.075
1796.16064	2985.875
1799.3509	2977.875
1802.53907	2959.175
1805.72514	2944.375
1808.90913	2926.175
1812.09102	2926.175
1815.27083	2900.275
1818.44856	2894.575
1821.6242	2902.275
1824.79776	2889.475
1827.96924	2873.575
1831.13864	2867.175
1834.30597	2847.875
1837.47122	2848.875
1840.6344	2851.175
1843.7955	2842.375
1846.95454	2819.675
1850.11151	2819.775
1853.26642	2812.375
1856.41926	2811.275
1859.57004	2806.475
1862.71876	2800.675
1865.86542	2796.575
1869.01003	2787.175
1872.15258	2782.975
1875.29308	2771.975
1878.43152	2766.375
1881.56792	2758.475
1884.70227	2750.875
1887.83457	2742.375
1890.96482	2734.675
1894.09304	2729.175
1897.21921	2724.675
1900.34335	2713.775
1903.46544	2723.975
1906.58551	2710.775
1909.70353	2714.675
1912.81953	2694.675
1915.93349	2687.775
1919.04543	2670.075
1922.15534	2684.675
1925.26322	2661.675
1928.36908	2646.475
1931.47292	2647.175
1934.57473	2626.875
1937.67453	2615.475
1940.77232	2601.275
1943.86808	2585.375
1946.96184	2566.775
1950.05358	2562.875
1953.14331	2558.975
1956.23103	2557.275
1959.31675	2540.775
1962.40046	2516.975
1965.48217	2509.175
1968.56188	2504.275
1971.63959	2494.375
1974.7153	2489.375
1977.78901	2484.375
1980.86073	2472.575
1983.93046	2464.175
1986.99819	2446.575
1990.06394	2440.775
1993.1277	2431.375
1996.18947	2427.475
1999.24925	2402.575
2002.30706	2399.875
2005.36288	2393.675
2008.41672	2372.975
2011.46859	2369.175
2014.51848	2364.475
2017.56639	2350.675
2020.61233	2339.775
2023.6563	2332.875
2026.6983	2324.875
2029.73833	2301.675
2032.7764	2291.775
2035.8125	2289.475
2038.84664	2284.475
2041.87881	2285.575
2044.90903	2274.975
2047.93729	2277.875
2050.96359	2267.575
2053.98794	2263.075
2057.01034	2259.775
2060.03078	2245.975
2063.04927	2250.575
2066.06582	2256.975
2069.08042	2243.675
2072.09307	2223.675
2075.10378	2221.175
2078.11255	2227.775
2081.11938	2226.375
2084.12426	2222.975
2087.12722	2226.475
2090.12824	2216.175
2093.12732	2217.075
2096.12447	2211.975
2099.11969	2206.875
2102.11299	2203.075
2105.10435	2195.075
2108.09379	2198.375
2111.08131	2204.975
2114.0669	2195.575
2117.05057	2198.875
2120.03233	2197.775
2123.01216	2204.175
2125.99008	2198.275
2128.96609	2207.375
2131.94018	2192.875
2134.91236	2196.675
2137.88263	2194.775
2140.851	2179.275
2143.81746	2189.875
2146.78201	2173.975
2149.74466	2178.675
2152.7054	2163.675
2155.66425	2163.675
2158.6212	2162.075
2161.57625	2145.875
2164.52941	2140.575
2167.48067	2140.575
2170.43004	2143.175
2173.37752	2145.875
2176.32311	2133.075
2179.26681	2139.775
2182.20863	2126.175
2185.14856	2123.175
2188.08661	2122.875
2191.02278	2122.475
2193.95707	2119.575
2196.88948	2108.375
2199.82001	2113.275
2202.74867	2104.975
2205.67545	2095.075
2208.60037	2083.175
2211.52341	2082.575
2214.44458	2072.675
2217.36388	2074.475
2220.28132	2065.575
2223.1969	2061.075
2226.11061	2050.675
2229.02246	2035.975
2231.93245	2030.175
2234.84058	2025.175
2237.74686	2032.375
2240.65128	2029.375
2243.55385	2016.575
2246.45456	2021.275
2249.35343	2000.475
2252.25044	2003.675
2255.14561	2009.675
2258.03893	2000.875
2260.93041	1993.075
2263.82004	1992.275
2266.70783	1982.875
2269.59378	1974.375
2272.4779	1963.675
2275.36017	1953.675
2278.24061	1955.375
2281.11922	1955.675
2283.996	1948.775
2286.87094	1931.775
2289.74405	1931.675
2292.61534	1926.675
2295.4848	1911.975
2298.35243	1907.875
2301.21824	1912.175
2304.08223	1909.975
2306.94439	1892.975
2309.80474	1898.575
2312.66327	1902.375
2315.51999	1886.575
2318.37489	1890.475
2321.22797	1880.375
2324.07925	1878.475
2326.92871	1878.975
2329.77637	1865.475
2332.62222	1874.275
2335.46626	1855.875
2338.3085	1856.475
2341.14893	1852.375
2343.98756	1844.475
2346.8244	1844.675
2349.65943	1836.775
2352.49267	1841.575
2355.32411	1845.775
2358.15376	1851.075
2360.98161	1858.275
2363.80768	1854.375
2366.63195	1852.875
2369.45444	1851.975
2372.27514	1853.775
2375.09405	1842.875
2377.91118	1843.875
2380.72652	1835.275
2383.54009	1830.275
2386.35187	1810.475
2389.16188	1801.975
2391.97011	1786.375
2394.77657	1785.875
2397.58125	1778.675
2400.38416	1776.375
2403.18529	1754.175
2405.98466	1760.975
2408.78226	1754.075
2411.57809	1738.175
2414.37216	1742.175
2417.16446	1740.275
2419.955	1742.175
2422.74378	1736.975
2425.5308	1730.475
2428.31606	1732.975
2431.09956	1730.575
2433.88131	1726.575
2436.6613	1723.675
2439.43954	1720.675
2442.21603	1721.675
2444.99077	1723.675
2447.76377	1729.775
2450.53501	1711.875
2453.30451	1705.075
2456.07226	1707.675
2458.83827	1697.475
2461.60254	1697.575
2464.36507	1703.975
2467.12586	1699.475
2469.88492	1687.175
2472.64224	1685.575
2475.39782	1696.175
2478.15167	1687.475
2480.90379	1695.975
2483.65417	1690.575
2486.40283	1693.875
2489.14976	1687.475
2491.89497	1700.275
2494.63845	1679.675
2497.3802	1683.775
2500.12024	1679.975
2502.85855	1682.175
2505.59514	1662.775
2508.33002	1663.075
2511.06318	1644.875
2513.79462	1649.875
2516.52435	1637.775
2519.25237	1632.375
2521.97867	1625.675
2524.70327	1607.975
2527.42616	1608.575
2530.14734	1604.275
2532.86681	1588.675
2535.58458	1590.875
2538.30065	1596.175
2541.01501	1589.475
2543.72768	1592.675
2546.43864	1583.175
2549.14791	1572.975
2551.85548	1577.575
2554.56136	1575.575
2557.26554	1581.475
2559.96803	1564.875
2562.66883	1561.375
2565.36794	1555.875
2568.06536	1559.575
2570.7611	1546.275
2573.45514	1552.575
2576.14751	1548.675
2578.83819	1533.875
2581.52719	1536.075
2584.21451	1537.975
2586.90015	1527.775
2589.58411	1522.375
2592.2664	1521.475
2594.94701	1512.675
2597.62594	1506.675
2600.30321	1499.775
2602.9788	1515.475
2605.65273	1506.075
2608.32498	1498.675
2610.99557	1498.175
2613.66449	1498.475
2616.33175	1492.275
2618.99734	1492.675
2621.66128	1489.575
2624.32355	1484.075
2626.98416	1482.275
2629.64311	1476.875
2632.30041	1468.275
2634.95605	1462.675
2637.61004	1457.975
2640.26238	1468.475
2642.91306	1456.775
2645.56209	1462.575
2648.20948	1455.375
2650.85521	1458.475
2653.4993	1456.275
2656.14175	1452.675
2658.78255	1450.175
2661.42171	1455.575
2664.05923	1454.475
2666.6951	1453.275
2669.32934	1460.075
2671.96194	1445.775
2674.59291	1462.375
2677.22224	1451.875
2679.84993	1457.375
2682.476	1444.375
2685.10043	1448.475
2687.72324	1450.175
2690.34441	1451.375
2692.96396	1441.375
2695.58188	1439.675
2698.19818	1436.375
2700.81285	1438.875
2703.4259	1434.475
2706.03733	1430.775
2708.64714	1428.475
2711.25533	1438.475
2713.86191	1435.875
2716.46687	1445.675
2719.07021	1439.475
2721.67194	1440.275
2724.27206	1435.875
2726.87057	1454.275
2729.46747	1442.375
2732.06276	1448.675
2734.65644	1436.275
2737.24852	1432.875
2739.83899	1425.075
2742.42786	1433.375
2745.01513	1423.875
2747.60079	1419.975
2750.18486	1414.075
2752.76733	1423.875
2755.3482	1417.575
2757.92747	1406.375
2760.50515	1412.075
2763.08123	1403.775
2765.65573	1397.075
2768.22863	1397.275
2770.79994	1395.475
2773.36967	1388.475
2775.9378	1391.175
2778.50435	1377.175
2781.06932	1384.575
2783.6327	1379.675
2786.1945	1390.575
2788.75471	1384.675
2791.31335	1380.575
2793.87041	1374.875
2796.42589	1379.375
2798.97979	1374.275
2801.53212	1358.875
2804.08288	1364.375
2806.63206	1366.675
2809.17967	1359.875
2811.72571	1353.675
2814.27018	1350.675
2816.81308	1351.575
2819.35442	1350.675
2821.89419	1350.075
2824.43239	1352.075
2826.96904	1357.175
2829.50412	1349.875
2832.03763	1344.275
2834.56959	1351.075
2837.1	1352.475
2839.62884	1353.375
2842.15613	1363.575
2844.68186	1383.975
2847.20604	1385.175
2849.72867	1392.075
2852.24974	1400.775
2854.76927	1394.775
2857.28724	1404.375
2859.80367	1401.475
2862.31855	1396.975
2864.83189	1406.375
2867.34368	1394.875
2869.85393	1406.175
2872.36264	1410.775
2874.8698	1414.775
2877.37543	1407.475
2879.87952	1409.975
2882.38207	1409.775
2884.88308	1409.975
2887.38256	1409.875
2889.88051	1409.075
2892.37692	1407.275
2894.8718	1405.875
2897.36515	1411.875
2899.85698	1409.175
2902.34727	1415.775
2904.83604	1429.975
2907.32328	1432.175
2909.809	1443.175
2912.29319	1438.375
2914.77587	1442.475
2917.25702	1451.775
2919.73665	1447.675
2922.21476	1453.875
2924.69136	1457.275
2927.16644	1454.975
2929.64	1452.275
2932.11205	1454.375
2934.58258	1441.275
2937.05161	1448.075
2939.51912	1432.975
2941.98513	1426.375
2944.44962	1406.475
2946.91261	1399.675
2949.37409	1388.975
2951.83407	1384.275
2954.29254	1370.675
2956.74951	1363.775
2959.20498	1356.775
2961.65895	1359.875
2964.11142	1348.775
2966.56239	1330.875
2969.01186	1295.975
2971.45984	1312.775
2973.90632	1325.475
2976.35131	1313.575
2978.7948	1307.975
2981.23681	1301.575
2983.67732	1299.175
2986.11635	1297.475
2988.55388	1285.575
2990.98993	1285.675
2993.4245	1292.875
2995.85758	1270.975
2998.28917	1275.175
3000.71928	1278.775
3003.14791	1271.275
3005.57506	1275.975
3008.00073	1270.475
3010.42493	1269.575
3012.84764	1266.275
3015.26888	1264.175
3017.68865	1266.375
3020.10694	1267.675
3022.52376	1262.975
3024.9391	1257.875
3027.35298	1255.175
3029.76539	1264.275
3032.17632	1263.675
3034.5858	1259.775
3036.9938	1257.075
3039.40034	1264.375
3041.80542	1265.275
3044.20903	1259.275
3046.61118	1258.475
3049.01187	1250.775
3051.4111	1260.475
3053.80888	1261.675
3056.20519	1262.875
3058.60005	1257.675
3060.99345	1260.875
3063.3854	1259.175
3065.7759	1259.575
3068.16494	1260.175
3070.55254	1253.275
3072.93868	1253.475
3075.32338	1254.975
3077.70662	1255.175
3080.08842	1260.475
3082.46878	1257.975
3084.84769	1256.575
3087.22515	1263.775
3089.60118	1268.575
3091.97576	1275.775
3094.3489	1273.275
3096.72061	1272.975
3099.09087	1268.675
3101.4597	1286.175
3103.82709	1283.675
3106.19305	1288.475
3108.55757	1294.775
3110.92066	1290.375
3113.28232	1306.175
3115.64255	1293.675
3118.00134	1300.875
3120.35871	1302.575
3122.71466	1302.375
3125.06917	1312.875
3127.42226	1317.075
3129.77393	1328.575
3132.12417	1329.575
3134.47299	1334.375
3136.82039	1343.675
3139.16636	1344.375
3141.51092	1343.575
3143.85406	1348.675
3146.19579	1357.375
3148.53609	1369.175
3150.87499	1375.175
3153.21246	1385.775
3155.54853	1385.875
3157.88318	1391.675
3160.21642	1403.975
3162.54826	1417.375
3164.87868	1414.475
3167.2077	1424.875
3169.5353	1435.175
3171.86151	1437.375
3174.18631	1444.675
3176.5097	1435.875
3178.83169	1440.475
3181.15228	1448.875
3183.47147	1441.875
3185.78926	1457.375
3188.10565	1451.175
3190.42065	1467.375
3192.73424	1463.375
3195.04645	1469.175
3197.35725	1469.475
3199.66667	1476.975
3201.97469	1484.675
3204.28132	1493.875
3206.58656	1508.275
3208.8904	1491.875
3211.19287	1505.675
3213.49394	1512.975
3215.79363	1520.875
3218.09193	1516.175
3220.38884	1528.275
3222.68438	1515.375
3224.97853	1522.075
3227.2713	1526.475
3229.56269	1539.675
3231.8527	1532.575
3234.14133	1532.075
3236.42858	1539.975
