Data from AgNPs_APTES_FTO_UA_50uM_CRN_0uM_R6G_10uM_Scan_RamanShift__25__11-40-13-682.txt Node

Date: Tue Jul 05 11:40:13 BST 2022
User: TCL
Spectrometer: QEP01345
Trigger mode: 4
Integration Time (sec): 7.000000E0
Scans to average: 10
Electric dark correction enabled: true
Nonlinearity correction enabled: false
Boxcar width: 0
XAxis mode: Raman Shifts
Number of Pixels in Spectrum: 1044
>>>>>Begin Spectral Data<<<<<
46.04893	-0.275
50.45542	-0.375
54.85868	-0.875
59.25871	1.025
63.6555	36.625
68.04907	38.725
72.43941	38.725
76.82654	45.325
81.21044	49.125
85.59113	50.125
89.96862	49.625
94.34289	51.825
98.71396	56.025
103.08183	55.225
107.4465	56.325
111.80798	58.025
116.16626	55.725
120.52136	57.625
124.87327	58.625
129.222	61.225
133.56755	62.225
137.90993	59.625
142.24913	66.725
146.58517	72.425
150.91804	79.425
155.24774	89.825
159.57429	99.825
163.89768	129.325
168.21792	164.425
172.53501	214.425
176.84895	292.925
181.15975	400.225
185.46741	559.825
189.77193	760.925
194.07331	1001.125
198.37157	1287.125
202.6667	1590.825
206.9587	1884.025
211.24758	2184.725
215.53334	2478.625
219.81599	2787.525
224.09553	3125.525
228.37195	3516.225
232.64527	3919.925
236.91549	4346.625
241.18261	4751.525
245.44663	5104.525
249.70755	5400.225
253.96539	5657.625
258.22014	5869.925
262.4718	6033.725
266.72039	6176.125
270.96589	6243.425
275.20832	6225.425
279.44768	6132.125
283.68397	6008.025
287.91719	5914.125
292.14735	5854.225
296.37445	5871.725
300.59849	5974.225
304.81948	6053.125
309.03742	6146.025
313.25231	6109.225
317.46415	5966.925
321.67296	5734.225
325.87872	5522.325
330.08145	5420.225
334.28114	5379.925
338.47781	5455.825
342.67145	5525.025
346.86207	5649.625
351.04966	5818.825
355.23424	6025.325
359.4158	6213.025
363.59435	6336.025
367.76989	6431.725
371.94243	6499.325
376.11196	6523.825
380.27849	6573.425
384.44203	6580.325
388.60257	6572.325
392.76012	6565.125
396.91468	6584.525
401.06626	6657.225
405.21485	6710.825
409.36047	6614.525
413.50311	6404.725
417.64277	6206.025
421.77947	6090.825
425.9132	6034.425
430.04396	6060.425
434.17176	6068.125
438.2966	6123.125
442.41849	6232.425
446.53742	6322.425
450.6534	6425.225
454.76644	6488.725
458.87653	6458.525
462.98368	6401.625
467.08789	6349.225
471.18916	6303.525
475.2875	6268.225
479.38291	6260.125
483.4754	6233.625
487.56496	6320.125
491.6516	6363.925
495.73531	6430.225
499.81612	6439.425
503.89401	6441.925
507.96899	6439.625
512.04106	6481.925
516.11023	6549.625
520.1765	6623.125
524.23987	6641.425
528.30034	6629.925
532.35792	6579.025
536.41261	6493.225
540.46441	6398.225
544.51333	6294.425
548.55936	6295.225
552.60252	6324.225
556.64279	6393.525
560.6802	6404.825
564.71473	6421.825
568.7464	6497.725
572.7752	6601.725
576.80114	6517.725
580.82422	6427.925
584.84444	6464.525
588.86181	6556.825
592.87633	6686.625
596.888	6775.425
600.89682	6863.125
604.9028	7262.225
608.90594	8404.625
612.90624	9883.925
616.90371	9703.725
620.89834	7908.725
624.89015	7143.625
628.87913	7169.025
632.86528	7433.625
636.84862	7608.125
640.82913	7543.025
644.80683	7209.525
648.78172	6875.025
652.75379	6671.525
656.72306	6663.225
660.68952	6714.725
664.65319	6616.925
668.61405	6408.725
672.57211	6324.525
676.52738	6355.825
680.47986	6389.825
684.42955	6431.325
688.37646	6408.525
692.32058	6399.625
696.26192	6331.725
700.20048	6307.625
704.13626	6308.825
708.06928	6283.925
711.99952	6247.825
715.927	6243.125
719.85171	6284.725
723.77365	6324.325
727.69284	6313.525
731.60928	6280.825
735.52295	6247.425
739.43388	6210.825
743.34206	6201.925
747.24749	6212.325
751.15017	6220.125
755.05012	6224.725
758.94733	6364.725
762.8418	6734.725
766.73354	7404.625
770.62254	8202.225
774.50882	8664.225
778.39237	8360.025
782.27321	7558.225
786.15132	6831.225
790.02671	6420.025
793.89938	6221.525
797.76935	6181.825
801.6366	6223.825
805.50115	6279.425
809.36299	6403.125
813.22213	6423.825
817.07857	6368.525
820.93231	6266.925
824.78336	6129.325
828.63172	6045.625
832.47738	5991.425
836.32036	5965.825
840.16066	5949.425
843.99827	5957.025
847.8332	5949.625
851.66546	5946.825
855.49504	5906.925
859.32195	5894.325
863.1462	5913.925
866.96777	5930.625
870.78668	5975.325
874.60293	6063.225
878.41652	6149.825
882.22745	6241.625
886.03573	6337.525
889.84136	6339.625
893.64433	6290.525
897.44466	6167.425
901.24235	6064.425
905.0374	5961.625
908.8298	5909.625
912.61957	5878.825
916.40671	5882.225
920.19121	5911.825
923.97308	5947.025
927.75233	6007.325
931.52895	6022.425
935.30295	5975.925
939.07433	5857.325
942.84309	5735.725
946.60924	5637.025
950.37278	5564.225
954.13371	5517.425
957.89203	5473.825
961.64774	5439.325
965.40086	5404.325
969.15137	5364.925
972.89929	5317.925
976.64461	5296.925
980.38733	5273.225
984.12747	5245.925
987.86502	5222.425
991.59999	5242.625
995.33237	5282.925
999.06217	5332.825
1002.78939	5407.225
1006.51404	5505.925
1010.23611	5610.225
1013.95561	5656.325
1017.67255	5695.925
1021.38692	5649.225
1025.09872	5561.425
1028.80796	5455.225
1032.51465	5362.525
1036.21877	5326.025
1039.92035	5311.425
1043.61937	5304.225
1047.31584	5310.925
1051.00976	5329.725
1054.70114	5333.125
1058.38998	5362.725
1062.07627	5380.925
1065.76003	5425.125
1069.44126	5427.625
1073.11995	5449.225
1076.79611	5485.425
1080.46974	5493.025
1084.14085	5525.825
1087.80943	5569.625
1091.47549	5597.325
1095.13903	5522.825
1098.80005	5404.725
1102.45857	5317.225
1106.11456	5265.025
1109.76805	5289.825
1113.41903	5392.625
1117.06751	5560.525
1120.71348	5822.725
1124.35696	6130.125
1127.99793	6493.825
1131.63641	6713.325
1135.2724	6672.325
1138.90589	6495.225
1142.5369	6248.025
1146.16542	5967.025
1149.79145	5702.425
1153.415	5472.325
1157.03607	5356.025
1160.65467	5303.425
1164.27079	5363.925
1167.88443	5515.425
1171.49561	5793.225
1175.10432	6274.125
1178.71056	6972.025
1182.31434	7552.925
1185.91565	7731.125
1189.51451	7514.825
1193.11091	7204.625
1196.70485	6879.925
1200.29634	6661.925
1203.88538	6493.125
1207.47197	6208.725
1211.05612	5927.225
1214.63782	5693.425
1218.21708	5574.025
1221.79391	5464.625
1225.36829	5424.825
1228.94024	5409.125
1232.50976	5326.025
1236.07685	5280.725
1239.6415	5251.725
1243.20374	5235.425
1246.76355	5262.025
1250.32093	5302.725
1253.8759	5348.425
1257.42845	5456.725
1260.97859	5576.225
1264.52631	5702.225
1268.07163	5819.625
1271.61453	5964.325
1275.15503	5997.325
1278.69312	6012.025
1282.22882	6029.525
1285.76211	6092.425
1289.29301	6235.325
1292.82151	6422.725
1296.34761	6645.725
1299.87133	6931.925
1303.39266	7386.025
1306.9116	8041.625
1310.42815	8801.725
1313.94233	9236.525
1317.45412	9130.625
1320.96354	8568.725
1324.47058	7911.925
1327.97525	7335.825
1331.47754	6948.425
1334.97747	6761.325
1338.47502	6702.825
1341.97022	6842.225
1345.46305	7064.225
1348.95352	7539.925
1352.44163	8265.225
1355.92738	9192.725
1359.41078	10464.225
1362.89183	11721.525
1366.37053	11816.725
1369.84688	10404.625
1373.32088	8768.625
1376.79254	7618.425
1380.26186	7056.825
1383.72883	6764.825
1387.19347	6505.425
1390.65578	6286.725
1394.11575	6116.225
1397.57339	5968.225
1401.0287	5887.225
1404.48168	5789.725
1407.93234	5681.425
1411.38068	5558.225
1414.82669	5487.725
1418.27039	5369.925
1421.71177	5320.725
1425.15083	5228.725
1428.58758	5133.825
1432.02203	5115.025
1435.45416	5147.125
1438.88399	5175.525
1442.31151	5169.925
1445.73673	5184.225
1449.15965	5169.725
1452.58027	5164.025
1455.9986	5125.425
1459.41463	5101.225
1462.82837	5119.025
1466.23982	5175.125
1469.64898	5252.125
1473.05586	5308.525
1476.46045	5332.525
1479.86276	5397.725
1483.26279	5460.025
1486.66054	5566.125
1490.05602	5712.925
1493.44922	5947.725
1496.84016	6306.025
1500.22882	6883.925
1503.61521	7709.125
1506.99934	8707.925
1510.38121	9596.725
1513.76081	10038.025
1517.13816	9572.025
1520.51324	8460.525
1523.88607	7356.325
1527.25665	6604.925
1530.62498	6173.525
1533.99105	5942.525
1537.35488	5806.425
1540.71647	5695.925
1544.07581	5639.925
1547.4329	5635.525
1550.78776	5653.325
1554.14038	5692.625
1557.49077	5746.225
1560.83892	5840.125
1564.18484	5965.325
1567.52853	6133.425
1570.86999	6287.825
1574.20922	6412.925
1577.54624	6402.425
1580.88103	6174.025
1584.2136	5779.825
1587.54395	5486.125
1590.87208	5418.125
1594.19801	5530.225
1597.52172	5801.725
1600.84321	5957.325
1604.16251	5897.325
1607.47959	5691.925
1610.79447	5471.025
1614.10715	5238.725
1617.41763	5078.825
1620.7259	4954.725
1624.03199	4900.325
1627.33587	4929.625
1630.63757	4959.325
1633.93707	5071.925
1637.23439	5300.825
1640.52951	5658.725
1643.82246	6273.725
1647.11321	7010.325
1650.40179	7622.425
1653.68819	7601.725
1656.97241	6907.625
1660.25446	5984.525
1663.53433	5285.925
1666.81203	4838.325
1670.08756	4558.025
1673.36092	4412.725
1676.63211	4280.425
1679.90115	4185.925
1683.16801	4106.225
1686.43272	4050.825
1689.69527	4008.325
1692.95567	3970.825
1696.2139	3928.825
1699.46999	3877.125
1702.72392	3802.625
1705.97571	3744.425
1709.22535	3679.525
1712.47284	3612.925
1715.71819	3548.725
1718.96139	3520.325
1722.20246	3454.725
1725.44139	3419.725
1728.67818	3358.225
1731.91284	3329.425
1735.14537	3300.825
1738.37576	3256.725
1741.60403	3228.925
1744.83017	3209.125
1748.05418	3201.025
1751.27607	3168.525
1754.49584	3165.325
1757.71349	3148.225
1760.92903	3138.125
1764.14244	3106.825
1767.35375	3103.325
1770.56294	3082.025
1773.77002	3059.925
1776.97499	3082.125
1780.17785	3066.925
1783.37861	3047.425
1786.57727	3041.425
1789.77382	3020.925
1792.96828	2995.925
1796.16064	2997.125
1799.3509	2991.625
1802.53907	2986.825
1805.72514	2975.125
1808.90913	2954.625
1812.09102	2933.825
1815.27083	2915.925
1818.44856	2921.125
1821.6242	2895.525
1824.79776	2904.025
1827.96924	2891.625
1831.13864	2865.325
1834.30597	2860.425
1837.47122	2873.725
1840.6344	2862.125
1843.7955	2845.825
1846.95454	2837.225
1850.11151	2838.425
1853.26642	2827.125
1856.41926	2812.825
1859.57004	2815.125
1862.71876	2808.425
1865.86542	2802.625
1869.01003	2807.225
1872.15258	2798.825
1875.29308	2790.225
1878.43152	2782.725
1881.56792	2777.425
1884.70227	2774.425
1887.83457	2752.525
1890.96482	2764.725
1894.09304	2738.325
1897.21921	2735.925
1900.34335	2728.125
1903.46544	2736.525
1906.58551	2722.925
1909.70353	2728.525
1912.81953	2704.225
1915.93349	2696.225
1919.04543	2698.825
1922.15534	2676.325
1925.26322	2662.325
1928.36908	2656.625
1931.47292	2648.125
1934.57473	2638.925
1937.67453	2626.325
1940.77232	2612.925
1943.86808	2611.825
1946.96184	2579.225
1950.05358	2581.825
1953.14331	2574.925
1956.23103	2560.325
1959.31675	2558.225
1962.40046	2537.625
1965.48217	2521.925
1968.56188	2525.825
1971.63959	2503.025
1974.7153	2504.525
1977.78901	2494.425
1980.86073	2484.625
1983.93046	2469.025
1986.99819	2460.325
1990.06394	2445.725
1993.1277	2443.525
1996.18947	2427.825
1999.24925	2413.025
2002.30706	2400.125
2005.36288	2388.025
2008.41672	2384.925
2011.46859	2379.125
2014.51848	2360.425
2017.56639	2361.225
2020.61233	2347.925
2023.6563	2338.625
2026.6983	2321.125
2029.73833	2312.025
2032.7764	2302.725
2035.8125	2303.825
2038.84664	2287.525
2041.87881	2289.325
2044.90903	2280.825
2047.93729	2277.225
2050.96359	2266.825
2053.98794	2268.425
2057.01034	2248.225
2060.03078	2249.425
2063.04927	2267.925
2066.06582	2247.625
2069.08042	2240.125
2072.09307	2238.125
2075.10378	2221.425
2078.11255	2229.825
2081.11938	2219.225
2084.12426	2233.725
2087.12722	2229.025
2090.12824	2213.125
2093.12732	2220.025
2096.12447	2214.325
2099.11969	2210.225
2102.11299	2219.225
2105.10435	2204.325
2108.09379	2205.925
2111.08131	2199.025
2114.0669	2207.425
2117.05057	2200.525
2120.03233	2201.525
2123.01216	2202.325
2125.99008	2186.725
2128.96609	2206.725
2131.94018	2198.025
2134.91236	2193.625
2137.88263	2188.125
2140.851	2188.225
2143.81746	2186.825
2146.78201	2172.225
2149.74466	2177.725
2152.7054	2158.525
2155.66425	2163.325
2158.6212	2156.125
2161.57625	2145.925
2164.52941	2138.525
2167.48067	2138.425
2170.43004	2152.525
2173.37752	2157.025
2176.32311	2132.325
2179.26681	2137.525
2182.20863	2129.225
2185.14856	2138.825
2188.08661	2126.625
2191.02278	2117.725
2193.95707	2115.725
2196.88948	2111.625
2199.82001	2123.825
2202.74867	2093.025
2205.67545	2099.425
2208.60037	2095.925
2211.52341	2088.425
2214.44458	2081.025
2217.36388	2061.725
2220.28132	2061.825
2223.1969	2065.325
2226.11061	2059.725
2229.02246	2050.125
2231.93245	2032.925
2234.84058	2037.525
2237.74686	2032.025
2240.65128	2032.725
2243.55385	2023.525
2246.45456	2020.625
2249.35343	2009.025
2252.25044	2005.525
2255.14561	1995.625
2258.03893	2000.025
2260.93041	1992.825
2263.82004	1987.825
2266.70783	1978.225
2269.59378	1968.625
2272.4779	1968.125
2275.36017	1967.625
2278.24061	1940.025
2281.11922	1934.225
2283.996	1944.125
2286.87094	1933.025
2289.74405	1943.825
2292.61534	1922.325
2295.4848	1914.025
2298.35243	1907.125
2301.21824	1898.725
2304.08223	1900.725
2306.94439	1890.625
2309.80474	1899.125
2312.66327	1897.825
2315.51999	1890.225
2318.37489	1886.525
2321.22797	1885.325
2324.07925	1870.525
2326.92871	1865.325
2329.77637	1869.725
2332.62222	1864.525
2335.46626	1851.525
2338.3085	1852.425
2341.14893	1852.725
2343.98756	1841.925
2346.8244	1836.925
2349.65943	1829.225
2352.49267	1817.925
2355.32411	1829.325
2358.15376	1828.125
2360.98161	1835.425
2363.80768	1835.825
2366.63195	1842.425
2369.45444	1840.325
2372.27514	1837.825
2375.09405	1835.525
2377.91118	1824.825
2380.72652	1813.725
2383.54009	1809.525
2386.35187	1796.525
2389.16188	1794.525
2391.97011	1775.925
2394.77657	1773.225
2397.58125	1764.425
2400.38416	1757.225
2403.18529	1747.425
2405.98466	1755.025
2408.78226	1747.625
2411.57809	1732.625
2414.37216	1729.325
2417.16446	1729.025
2419.955	1715.325
2422.74378	1722.825
2425.5308	1719.425
2428.31606	1715.125
2431.09956	1715.725
2433.88131	1708.225
2436.6613	1702.525
2439.43954	1714.825
2442.21603	1699.425
2444.99077	1709.025
2447.76377	1702.025
2450.53501	1700.425
2453.30451	1701.725
2456.07226	1685.725
2458.83827	1685.025
2461.60254	1674.525
2464.36507	1680.825
2467.12586	1673.025
2469.88492	1673.525
2472.64224	1670.825
2475.39782	1674.125
2478.15167	1659.525
2480.90379	1668.425
2483.65417	1670.825
2486.40283	1672.325
2489.14976	1665.525
2491.89497	1665.825
2494.63845	1673.025
2497.3802	1660.725
2500.12024	1661.225
2502.85855	1656.425
2505.59514	1652.425
2508.33002	1646.625
2511.06318	1622.125
2513.79462	1622.025
2516.52435	1612.325
2519.25237	1611.925
2521.97867	1600.525
2524.70327	1598.425
2527.42616	1584.325
2530.14734	1579.125
2532.86681	1579.925
2535.58458	1582.125
2538.30065	1578.125
2541.01501	1572.025
2543.72768	1574.425
2546.43864	1563.025
2549.14791	1557.125
2551.85548	1555.425
2554.56136	1561.325
2557.26554	1551.925
2559.96803	1547.925
2562.66883	1545.925
2565.36794	1536.125
2568.06536	1538.425
2570.7611	1530.425
2573.45514	1531.725
2576.14751	1521.125
2578.83819	1506.725
2581.52719	1512.725
2584.21451	1504.725
2586.90015	1501.525
2589.58411	1502.625
2592.2664	1501.225
2594.94701	1492.825
2597.62594	1489.425
2600.30321	1476.925
2602.9788	1474.725
2605.65273	1468.125
2608.32498	1477.325
2610.99557	1467.725
2613.66449	1468.025
2616.33175	1467.025
2618.99734	1460.625
2621.66128	1469.425
2624.32355	1445.625
2626.98416	1456.925
2629.64311	1447.825
2632.30041	1442.525
2634.95605	1447.525
2637.61004	1439.825
2640.26238	1433.825
2642.91306	1423.425
2645.56209	1428.525
2648.20948	1425.925
2650.85521	1424.825
2653.4993	1422.125
2656.14175	1422.925
2658.78255	1425.125
2661.42171	1425.225
2664.05923	1422.725
2666.6951	1416.525
2669.32934	1418.225
2671.96194	1416.625
2674.59291	1408.525
2677.22224	1416.725
2679.84993	1416.025
2682.476	1423.625
2685.10043	1414.825
2687.72324	1418.425
2690.34441	1413.025
2692.96396	1413.925
2695.58188	1413.425
2698.19818	1397.325
2700.81285	1407.225
2703.4259	1412.425
2706.03733	1394.625
2708.64714	1395.025
2711.25533	1402.325
2713.86191	1406.425
2716.46687	1404.325
2719.07021	1404.925
2721.67194	1416.625
2724.27206	1407.125
2726.87057	1411.625
2729.46747	1420.525
2732.06276	1406.425
2734.65644	1395.625
2737.24852	1392.225
2739.83899	1398.525
2742.42786	1396.425
2745.01513	1387.725
2747.60079	1381.525
2750.18486	1379.325
2752.76733	1373.825
2755.3482	1379.025
2757.92747	1375.225
2760.50515	1381.625
2763.08123	1371.925
2765.65573	1370.325
2768.22863	1363.625
2770.79994	1359.425
2773.36967	1356.225
2775.9378	1364.625
2778.50435	1355.625
2781.06932	1350.725
2783.6327	1355.525
2786.1945	1358.725
2788.75471	1361.125
2791.31335	1343.525
2793.87041	1353.025
2796.42589	1344.525
2798.97979	1340.225
2801.53212	1336.425
2804.08288	1334.925
2806.63206	1342.425
2809.17967	1330.425
2811.72571	1329.325
2814.27018	1325.925
2816.81308	1325.725
2819.35442	1327.925
2821.89419	1319.825
2824.43239	1326.625
2826.96904	1321.225
2829.50412	1321.925
2832.03763	1325.125
2834.56959	1320.125
2837.1	1323.425
2839.62884	1326.725
2842.15613	1333.525
2844.68186	1350.325
2847.20604	1357.025
2849.72867	1360.725
2852.24974	1368.925
2854.76927	1367.325
2857.28724	1365.225
2859.80367	1364.025
2862.31855	1359.525
2864.83189	1363.425
2867.34368	1362.025
2869.85393	1371.325
2872.36264	1373.025
2874.8698	1382.325
2877.37543	1375.925
2879.87952	1383.225
2882.38207	1377.225
2884.88308	1372.625
2887.38256	1364.325
2889.88051	1369.425
2892.37692	1356.325
2894.8718	1360.625
2897.36515	1365.125
2899.85698	1375.825
2902.34727	1374.725
2904.83604	1374.325
2907.32328	1382.925
2909.809	1384.925
2912.29319	1388.825
2914.77587	1392.025
2917.25702	1389.825
2919.73665	1388.325
2922.21476	1384.625
2924.69136	1387.525
2927.16644	1386.325
2929.64	1384.125
2932.11205	1380.425
2934.58258	1373.525
2937.05161	1377.125
2939.51912	1371.625
2941.98513	1364.225
2944.44962	1358.625
2946.91261	1341.425
2949.37409	1334.125
2951.83407	1328.925
2954.29254	1323.425
2956.74951	1312.925
2959.20498	1304.925
2961.65895	1304.125
2964.11142	1296.225
2966.56239	1287.025
2969.01186	1250.525
2971.45984	1280.725
2973.90632	1278.725
2976.35131	1274.825
2978.7948	1268.825
2981.23681	1260.125
2983.67732	1259.825
2986.11635	1247.125
2988.55388	1248.025
2990.98993	1252.925
2993.4245	1245.325
2995.85758	1240.425
2998.28917	1242.125
3000.71928	1236.625
3003.14791	1243.625
3005.57506	1236.325
3008.00073	1236.825
3010.42493	1247.325
3012.84764	1234.225
3015.26888	1234.425
3017.68865	1232.425
3020.10694	1231.925
3022.52376	1234.425
3024.9391	1226.625
3027.35298	1236.625
3029.76539	1233.725
3032.17632	1234.525
3034.5858	1234.325
3036.9938	1236.325
3039.40034	1230.425
3041.80542	1234.525
3044.20903	1223.825
3046.61118	1233.825
3049.01187	1231.325
3051.4111	1234.925
3053.80888	1226.825
3056.20519	1239.325
3058.60005	1226.125
3060.99345	1236.425
3063.3854	1230.225
3065.7759	1238.525
3068.16494	1237.925
3070.55254	1237.925
3072.93868	1234.225
3075.32338	1239.325
3077.70662	1237.325
3080.08842	1229.225
3082.46878	1233.125
3084.84769	1248.825
3087.22515	1244.325
3089.60118	1247.425
3091.97576	1250.125
3094.3489	1258.125
3096.72061	1254.525
3099.09087	1265.125
3101.4597	1267.825
3103.82709	1280.125
3106.19305	1282.025
3108.55757	1283.425
3110.92066	1280.725
3113.28232	1289.625
3115.64255	1284.725
3118.00134	1293.225
3120.35871	1286.925
3122.71466	1298.725
3125.06917	1306.025
3127.42226	1305.325
3129.77393	1319.225
3132.12417	1319.125
3134.47299	1324.625
3136.82039	1324.025
3139.16636	1338.225
3141.51092	1338.625
3143.85406	1354.625
3146.19579	1358.525
3148.53609	1354.025
3150.87499	1382.025
3153.21246	1382.625
3155.54853	1389.325
3157.88318	1386.525
3160.21642	1400.225
3162.54826	1418.625
3164.87868	1416.025
3167.2077	1427.425
3169.5353	1433.525
3171.86151	1439.225
3174.18631	1446.525
3176.5097	1448.825
3178.83169	1443.725
3181.15228	1454.925
3183.47147	1456.525
3185.78926	1460.325
3188.10565	1451.925
3190.42065	1462.125
3192.73424	1476.825
3195.04645	1492.325
3197.35725	1485.025
3199.66667	1485.825
3201.97469	1494.525
3204.28132	1493.925
3206.58656	1502.325
3208.8904	1517.425
3211.19287	1504.825
3213.49394	1527.825
3215.79363	1526.625
3218.09193	1524.325
3220.38884	1526.925
3222.68438	1536.325
3224.97853	1541.725
3227.2713	1545.625
3229.56269	1537.625
3231.8527	1547.725
3234.14133	1548.225
3236.42858	1540.725
