Data from AgNPs_APTES_FTO_UA_50uM_CRN_0uM_R6G_10uM_Scan_RamanShift__0__11-11-03-660.txt Node

Date: Tue Jul 05 11:11:03 BST 2022
User: TCL
Spectrometer: QEP01345
Trigger mode: 4
Integration Time (sec): 7.000000E0
Scans to average: 10
Electric dark correction enabled: true
Nonlinearity correction enabled: false
Boxcar width: 0
XAxis mode: Raman Shifts
Number of Pixels in Spectrum: 1044
>>>>>Begin Spectral Data<<<<<
46.04893	-0.925
50.45542	0.275
54.85868	-0.725
59.25871	1.875
63.6555	49.175
68.04907	49.275
72.43941	52.875
76.82654	59.575
81.21044	60.875
85.59113	66.275
89.96862	68.775
94.34289	69.075
98.71396	72.775
103.08183	74.775
107.4465	75.375
111.80798	76.475
116.16626	71.875
120.52136	74.375
124.87327	80.675
129.222	78.075
133.56755	80.275
137.90993	83.675
142.24913	85.275
146.58517	86.675
150.91804	96.275
155.24774	103.575
159.57429	118.075
163.89768	150.775
168.21792	188.075
172.53501	238.375
176.84895	322.075
181.15975	433.075
185.46741	603.775
189.77193	828.075
194.07331	1120.175
198.37157	1458.675
202.6667	1817.075
206.9587	2207.775
211.24758	2582.375
215.53334	2994.175
219.81599	3437.775
224.09553	3902.175
228.37195	4435.775
232.64527	4986.275
236.91549	5548.975
241.18261	6094.875
245.44663	6575.975
249.70755	6989.075
253.96539	7311.475
258.22014	7567.175
262.4718	7738.675
266.72039	7769.275
270.96589	7678.875
275.20832	7439.775
279.44768	7161.675
283.68397	6811.075
287.91719	6472.975
292.14735	6202.875
296.37445	6008.675
300.59849	5953.075
304.81948	6003.775
309.03742	6063.875
313.25231	6028.075
317.46415	5745.075
321.67296	5305.575
325.87872	4873.475
330.08145	4610.875
334.28114	4525.075
338.47781	4541.775
342.67145	4633.975
346.86207	4780.975
351.04966	5009.675
355.23424	5278.375
359.4158	5402.975
363.59435	5351.775
367.76989	5240.675
371.94243	5148.075
376.11196	5029.475
380.27849	4952.275
384.44203	4844.775
388.60257	4758.475
392.76012	4727.075
396.91468	4742.775
401.06626	4840.575
405.21485	4863.075
409.36047	4773.175
413.50311	4497.475
417.64277	4250.175
421.77947	4108.375
425.9132	4065.575
430.04396	4035.875
434.17176	4044.675
438.2966	4103.775
442.41849	4179.375
446.53742	4243.875
450.6534	4300.875
454.76644	4334.975
458.87653	4328.575
462.98368	4307.375
467.08789	4250.175
471.18916	4215.275
475.2875	4151.675
479.38291	4086.175
483.4754	4051.175
487.56496	4036.575
491.6516	4028.175
495.73531	4032.575
499.81612	4063.375
503.89401	4102.875
507.96899	4171.275
512.04106	4234.575
516.11023	4317.475
520.1765	4393.575
524.23987	4398.275
528.30034	4358.875
532.35792	4301.575
536.41261	4239.675
540.46441	4183.875
544.51333	4142.375
548.55936	4145.975
552.60252	4201.675
556.64279	4296.975
560.6802	4355.375
564.71473	4473.175
568.7464	4678.575
572.7752	4744.875
576.80114	4503.075
580.82422	4264.275
584.84444	4160.275
588.86181	4179.275
592.87633	4235.775
596.888	4362.975
600.89682	4662.875
604.9028	5349.975
608.90594	6974.475
612.90624	9170.275
616.90371	9310.975
620.89834	6990.775
624.89015	5693.275
628.87913	5324.175
632.86528	5161.575
636.84862	5049.875
640.82913	4817.475
644.80683	4496.175
648.78172	4296.175
652.75379	4259.275
656.72306	4433.575
660.68952	4673.075
664.65319	4712.275
668.61405	4568.175
672.57211	4578.375
676.52738	4735.275
680.47986	4995.775
684.42955	5262.775
688.37646	5425.875
692.32058	5400.775
696.26192	5214.575
700.20048	5045.075
704.13626	4964.575
708.06928	4878.575
711.99952	4799.575
715.927	4709.575
719.85171	4654.075
723.77365	4588.975
727.69284	4516.175
731.60928	4432.575
735.52295	4398.875
739.43388	4395.075
743.34206	4380.775
747.24749	4365.475
751.15017	4370.375
755.05012	4387.975
758.94733	4603.075
762.8418	5106.975
766.73354	5992.175
770.62254	6817.175
774.50882	7110.375
778.39237	6801.675
782.27321	6109.475
786.15132	5299.575
790.02671	4794.275
793.89938	4585.275
797.76935	4497.275
801.6366	4468.875
805.50115	4484.775
809.36299	4477.475
813.22213	4501.475
817.07857	4530.375
820.93231	4504.175
824.78336	4514.775
828.63172	4524.475
832.47738	4521.475
836.32036	4508.875
840.16066	4490.075
843.99827	4498.575
847.8332	4499.175
851.66546	4487.475
855.49504	4482.875
859.32195	4492.575
863.1462	4512.775
866.96777	4539.375
870.78668	4575.475
874.60293	4649.075
878.41652	4702.575
882.22745	4768.075
886.03573	4889.475
889.84136	4993.675
893.64433	5122.475
897.44466	5238.775
901.24235	5365.475
905.0374	5472.775
908.8298	5579.875
912.61957	5680.675
916.40671	5858.975
920.19121	6013.575
923.97308	6195.175
927.75233	6371.775
931.52895	6458.975
935.30295	6352.575
939.07433	6101.575
942.84309	5786.175
946.60924	5551.075
950.37278	5347.575
954.13371	5175.475
957.89203	5075.175
961.64774	4943.075
965.40086	4819.775
969.15137	4737.675
972.89929	4674.975
976.64461	4604.475
980.38733	4550.475
984.12747	4515.875
987.86502	4467.275
991.59999	4463.275
995.33237	4456.475
999.06217	4448.475
1002.78939	4475.475
1006.51404	4539.175
1010.23611	4585.075
1013.95561	4580.075
1017.67255	4547.575
1021.38692	4530.775
1025.09872	4507.575
1028.80796	4506.575
1032.51465	4506.875
1036.21877	4568.275
1039.92035	4622.775
1043.61937	4697.975
1047.31584	4773.875
1051.00976	4811.275
1054.70114	4791.775
1058.38998	4760.075
1062.07627	4687.975
1065.76003	4604.775
1069.44126	4526.075
1073.11995	4450.875
1076.79611	4437.975
1080.46974	4480.575
1084.14085	4593.775
1087.80943	4716.375
1091.47549	4715.175
1095.13903	4612.575
1098.80005	4430.175
1102.45857	4300.675
1106.11456	4274.475
1109.76805	4302.275
1113.41903	4401.875
1117.06751	4533.475
1120.71348	4760.275
1124.35696	5014.575
1127.99793	5310.575
1131.63641	5336.975
1135.2724	5020.875
1138.90589	4739.275
1142.5369	4575.375
1146.16542	4457.375
1149.79145	4370.275
1153.415	4302.475
1157.03607	4312.575
1160.65467	4337.775
1164.27079	4419.975
1167.88443	4571.375
1171.49561	4815.975
1175.10432	5302.975
1178.71056	5997.875
1182.31434	6606.075
1185.91565	6676.775
1189.51451	6357.575
1193.11091	5866.575
1196.70485	5465.875
1200.29634	5198.275
1203.88538	5042.975
1207.47197	4797.175
1211.05612	4550.275
1214.63782	4415.575
1218.21708	4320.475
1221.79391	4308.075
1225.36829	4319.175
1228.94024	4324.575
1232.50976	4342.575
1236.07685	4345.175
1239.6415	4386.675
1243.20374	4423.775
1246.76355	4485.875
1250.32093	4537.475
1253.8759	4610.075
1257.42845	4698.475
1260.97859	4831.675
1264.52631	4990.575
1268.07163	5180.875
1271.61453	5310.575
1275.15503	5406.375
1278.69312	5391.475
1282.22882	5394.575
1285.76211	5542.275
1289.29301	5773.275
1292.82151	6063.075
1296.34761	6246.275
1299.87133	6543.675
1303.39266	7089.175
1306.9116	7983.275
1310.42815	9073.675
1313.94233	9638.975
1317.45412	9137.775
1320.96354	8110.575
1324.47058	7191.575
1327.97525	6513.575
1331.47754	6112.875
1334.97747	5980.775
1338.47502	6002.375
1341.97022	6211.175
1345.46305	6678.075
1348.95352	7387.175
1352.44163	8208.575
1355.92738	9161.075
1359.41078	10636.175
1362.89183	12421.875
1366.37053	12713.375
1369.84688	10794.275
1373.32088	8655.475
1376.79254	7447.875
1380.26186	6927.675
1383.72883	6635.275
1387.19347	6406.275
1390.65578	6198.275
1394.11575	6031.575
1397.57339	5949.875
1401.0287	5856.375
1404.48168	5770.875
1407.93234	5676.975
1411.38068	5596.375
1414.82669	5603.475
1418.27039	5616.875
1421.71177	5656.375
1425.15083	5581.575
1428.58758	5492.275
1432.02203	5440.275
1435.45416	5446.675
1438.88399	5413.275
1442.31151	5335.975
1445.73673	5268.675
1449.15965	5229.675
1452.58027	5178.375
1455.9986	5129.075
1459.41463	5101.975
1462.82837	5095.075
1466.23982	5131.575
1469.64898	5206.975
1473.05586	5273.275
1476.46045	5263.075
1479.86276	5315.675
1483.26279	5387.975
1486.66054	5514.375
1490.05602	5697.475
1493.44922	6014.175
1496.84016	6555.275
1500.22882	7413.475
1503.61521	8661.775
1506.99934	10159.975
1510.38121	11602.275
1513.76081	12119.175
1517.13816	11297.075
1520.51324	9521.375
1523.88607	7866.275
1527.25665	6769.875
1530.62498	6158.175
1533.99105	5837.375
1537.35488	5598.775
1540.71647	5439.675
1544.07581	5365.575
1547.4329	5368.275
1550.78776	5391.075
1554.14038	5447.375
1557.49077	5533.275
1560.83892	5628.975
1564.18484	5823.075
1567.52853	6125.875
1570.86999	6410.175
1574.20922	6595.075
1577.54624	6569.075
1580.88103	6238.475
1584.2136	5660.775
1587.54395	5198.075
1590.87208	5031.375
1594.19801	5032.375
1597.52172	5198.775
1600.84321	5251.575
1604.16251	5076.975
1607.47959	4922.375
1610.79447	4820.375
1614.10715	4688.475
1617.41763	4599.475
1620.7259	4533.975
1624.03199	4515.175
1627.33587	4531.075
1630.63757	4609.375
1633.93707	4695.175
1637.23439	4855.475
1640.52951	5181.575
1643.82246	5743.975
1647.11321	6609.175
1650.40179	7458.375
1653.68819	7591.475
1656.97241	6832.675
1660.25446	5732.075
1663.53433	4948.275
1666.81203	4474.275
1670.08756	4200.075
1673.36092	4050.275
1676.63211	3931.475
1679.90115	3874.075
1683.16801	3800.375
1686.43272	3777.475
1689.69527	3750.175
1692.95567	3716.675
1696.2139	3687.275
1699.46999	3675.475
1702.72392	3635.275
1705.97571	3625.275
1709.22535	3609.475
1712.47284	3596.775
1715.71819	3572.675
1718.96139	3556.275
1722.20246	3538.475
1725.44139	3518.075
1728.67818	3486.675
1731.91284	3458.675
1735.14537	3451.175
1738.37576	3421.875
1741.60403	3409.875
1744.83017	3396.575
1748.05418	3404.575
1751.27607	3400.375
1754.49584	3391.775
1757.71349	3412.175
1760.92903	3399.175
1764.14244	3398.475
1767.35375	3405.575
1770.56294	3382.175
1773.77002	3395.075
1776.97499	3388.975
1780.17785	3374.875
1783.37861	3363.075
1786.57727	3335.175
1789.77382	3307.875
1792.96828	3313.875
1796.16064	3288.475
1799.3509	3271.375
1802.53907	3248.775
1805.72514	3223.275
1808.90913	3194.875
1812.09102	3179.975
1815.27083	3157.175
1818.44856	3140.775
1821.6242	3124.975
1824.79776	3121.075
1827.96924	3091.375
1831.13864	3095.475
1834.30597	3084.175
1837.47122	3077.875
1840.6344	3077.075
1843.7955	3063.475
1846.95454	3060.575
1850.11151	3050.775
1853.26642	3052.075
1856.41926	3042.375
1859.57004	3031.275
1862.71876	3042.575
1865.86542	3034.575
1869.01003	3027.975
1872.15258	3029.875
1875.29308	3034.675
1878.43152	3023.175
1881.56792	3024.475
1884.70227	3009.475
1887.83457	3006.075
1890.96482	3012.475
1894.09304	3004.275
1897.21921	2995.175
1900.34335	2997.275
1903.46544	2994.875
1906.58551	2999.375
1909.70353	2992.475
1912.81953	3002.175
1915.93349	2994.175
1919.04543	2998.375
1922.15534	3000.075
1925.26322	2986.375
1928.36908	2988.375
1931.47292	2993.175
1934.57473	2990.975
1937.67453	2992.875
1940.77232	2971.375
1943.86808	2964.575
1946.96184	2957.875
1950.05358	2941.975
1953.14331	2940.375
1956.23103	2935.875
1959.31675	2938.775
1962.40046	2911.675
1965.48217	2909.075
1968.56188	2905.875
1971.63959	2892.575
1974.7153	2886.675
1977.78901	2871.575
1980.86073	2852.975
1983.93046	2844.275
1986.99819	2841.075
1990.06394	2825.475
1993.1277	2818.575
1996.18947	2807.875
1999.24925	2797.375
2002.30706	2783.975
2005.36288	2773.475
2008.41672	2770.275
2011.46859	2771.275
2014.51848	2751.975
2017.56639	2757.975
2020.61233	2755.275
2023.6563	2740.575
2026.6983	2730.475
2029.73833	2743.975
2032.7764	2725.775
2035.8125	2730.575
2038.84664	2725.475
2041.87881	2736.675
2044.90903	2729.875
2047.93729	2761.475
2050.96359	2765.075
2053.98794	2777.775
2057.01034	2797.875
2060.03078	2809.775
2063.04927	2863.375
2066.06582	2871.375
2069.08042	2905.675
2072.09307	2916.875
2075.10378	2951.275
2078.11255	2985.575
2081.11938	3026.275
2084.12426	3062.175
2087.12722	3085.875
2090.12824	3098.475
2093.12732	3111.375
2096.12447	3122.375
2099.11969	3139.375
2102.11299	3117.375
2105.10435	3117.475
2108.09379	3104.175
2111.08131	3092.975
2114.0669	3063.375
2117.05057	3039.975
2120.03233	3018.075
2123.01216	2993.675
2125.99008	2961.675
2128.96609	2959.675
2131.94018	2911.275
2134.91236	2901.175
2137.88263	2874.875
2140.851	2848.775
2143.81746	2819.975
2146.78201	2790.775
2149.74466	2757.375
2152.7054	2738.075
2155.66425	2719.775
2158.6212	2688.175
2161.57625	2686.275
2164.52941	2668.275
2167.48067	2653.375
2170.43004	2655.775
2173.37752	2637.075
2176.32311	2627.575
2179.26681	2627.275
2182.20863	2618.375
2185.14856	2621.275
2188.08661	2625.175
2191.02278	2596.275
2193.95707	2586.775
2196.88948	2609.075
2199.82001	2609.175
2202.74867	2576.775
2205.67545	2569.075
2208.60037	2574.275
2211.52341	2573.775
2214.44458	2553.675
2217.36388	2559.775
2220.28132	2564.075
2223.1969	2548.075
2226.11061	2534.775
2229.02246	2538.575
2231.93245	2522.075
2234.84058	2513.775
2237.74686	2524.675
2240.65128	2514.175
2243.55385	2520.375
2246.45456	2498.775
2249.35343	2503.575
2252.25044	2498.675
2255.14561	2498.775
2258.03893	2509.475
2260.93041	2498.775
2263.82004	2497.375
2266.70783	2498.375
2269.59378	2480.875
2272.4779	2471.675
2275.36017	2478.275
2278.24061	2461.475
2281.11922	2469.175
2283.996	2450.975
2286.87094	2465.675
2289.74405	2442.175
2292.61534	2440.375
2295.4848	2426.275
2298.35243	2419.175
2301.21824	2429.075
2304.08223	2427.475
2306.94439	2410.775
2309.80474	2421.675
2312.66327	2409.175
2315.51999	2405.775
2318.37489	2406.775
2321.22797	2404.475
2324.07925	2413.375
2326.92871	2404.375
2329.77637	2406.575
2332.62222	2393.975
2335.46626	2382.275
2338.3085	2380.675
2341.14893	2386.875
2343.98756	2381.975
2346.8244	2371.175
2349.65943	2373.875
2352.49267	2370.975
2355.32411	2367.275
2358.15376	2367.775
2360.98161	2382.475
2363.80768	2379.375
2366.63195	2380.475
2369.45444	2388.675
2372.27514	2387.975
2375.09405	2384.175
2377.91118	2373.975
2380.72652	2372.275
2383.54009	2357.575
2386.35187	2348.375
2389.16188	2352.375
2391.97011	2325.175
2394.77657	2316.475
2397.58125	2312.275
2400.38416	2309.375
2403.18529	2300.475
2405.98466	2294.075
2408.78226	2286.575
2411.57809	2287.775
2414.37216	2277.975
2417.16446	2278.775
2419.955	2282.675
2422.74378	2283.075
2425.5308	2273.075
2428.31606	2276.775
2431.09956	2283.675
2433.88131	2286.675
2436.6613	2267.375
2439.43954	2273.575
2442.21603	2274.975
2444.99077	2261.875
2447.76377	2265.675
2450.53501	2269.475
2453.30451	2270.975
2456.07226	2262.675
2458.83827	2251.075
2461.60254	2255.675
2464.36507	2246.075
2467.12586	2244.975
2469.88492	2237.175
2472.64224	2237.575
2475.39782	2244.275
2478.15167	2243.875
2480.90379	2243.375
2483.65417	2247.675
2486.40283	2256.375
2489.14976	2258.875
2491.89497	2256.775
2494.63845	2253.975
2497.3802	2243.675
2500.12024	2251.575
2502.85855	2232.775
2505.59514	2236.475
2508.33002	2241.775
2511.06318	2211.875
2513.79462	2200.875
2516.52435	2197.875
2519.25237	2194.475
2521.97867	2187.975
2524.70327	2184.075
2527.42616	2166.375
2530.14734	2155.975
2532.86681	2157.875
2535.58458	2151.775
2538.30065	2160.575
2541.01501	2150.175
2543.72768	2148.075
2546.43864	2137.475
2549.14791	2139.475
2551.85548	2132.275
2554.56136	2138.975
2557.26554	2148.375
2559.96803	2140.475
2562.66883	2136.575
2565.36794	2123.575
2568.06536	2130.375
2570.7611	2117.075
2573.45514	2118.475
2576.14751	2113.175
2578.83819	2111.375
2581.52719	2107.875
2584.21451	2102.775
2586.90015	2094.375
2589.58411	2088.175
2592.2664	2082.875
2594.94701	2075.275
2597.62594	2089.875
2600.30321	2069.075
2602.9788	2073.075
2605.65273	2064.575
2608.32498	2057.075
2610.99557	2066.575
2613.66449	2056.075
2616.33175	2061.275
2618.99734	2055.975
2621.66128	2045.575
2624.32355	2044.175
2626.98416	2053.575
2629.64311	2048.875
2632.30041	2039.175
2634.95605	2037.175
2637.61004	2030.775
2640.26238	2028.075
2642.91306	2018.675
2645.56209	2030.975
2648.20948	2021.575
2650.85521	2022.275
2653.4993	2023.375
2656.14175	2017.875
2658.78255	2016.975
2661.42171	2024.575
2664.05923	2034.375
2666.6951	2020.775
2669.32934	2022.275
2671.96194	2018.775
2674.59291	2029.175
2677.22224	2015.175
2679.84993	2035.775
2682.476	2036.175
2685.10043	2035.375
2687.72324	2027.075
2690.34441	2024.475
2692.96396	2029.775
2695.58188	2017.775
2698.19818	2027.275
2700.81285	2024.175
2703.4259	2020.775
2706.03733	2024.975
2708.64714	2029.275
2711.25533	2030.375
2713.86191	2032.075
2716.46687	2030.775
2719.07021	2040.475
2721.67194	2031.575
2724.27206	2034.675
2726.87057	2037.475
2729.46747	2034.875
2732.06276	2027.875
2734.65644	2024.575
2737.24852	2029.375
2739.83899	2019.775
2742.42786	2015.275
2745.01513	2013.075
2747.60079	2009.375
2750.18486	2005.675
2752.76733	2005.075
2755.3482	1990.275
2757.92747	1989.975
2760.50515	1985.875
2763.08123	1983.875
2765.65573	1981.075
2768.22863	1972.575
2770.79994	1971.575
2773.36967	1962.975
2775.9378	1965.175
2778.50435	1963.275
2781.06932	1958.575
2783.6327	1966.275
2786.1945	1963.675
2788.75471	1953.175
2791.31335	1947.575
2793.87041	1956.175
2796.42589	1943.675
2798.97979	1933.975
2801.53212	1924.075
2804.08288	1932.175
2806.63206	1925.575
2809.17967	1925.375
2811.72571	1919.775
2814.27018	1917.475
2816.81308	1912.375
2819.35442	1915.275
2821.89419	1915.175
2824.43239	1913.375
2826.96904	1915.075
2829.50412	1907.375
2832.03763	1911.575
2834.56959	1896.075
2837.1	1910.175
2839.62884	1907.075
2842.15613	1905.375
2844.68186	1921.375
2847.20604	1927.975
2849.72867	1933.675
2852.24974	1931.475
2854.76927	1934.575
2857.28724	1936.975
2859.80367	1935.875
2862.31855	1933.675
2864.83189	1930.275
2867.34368	1936.775
2869.85393	1939.675
2872.36264	1945.975
2874.8698	1939.775
2877.37543	1939.475
2879.87952	1949.775
2882.38207	1950.075
2884.88308	1943.675
2887.38256	1942.775
2889.88051	1942.375
2892.37692	1957.275
2894.8718	1954.875
2897.36515	1966.475
2899.85698	1967.275
2902.34727	1976.475
2904.83604	1984.675
2907.32328	1996.975
2909.809	2007.175
2912.29319	2018.575
2914.77587	2029.275
2917.25702	2034.075
2919.73665	2035.475
2922.21476	2044.175
2924.69136	2041.475
2927.16644	2047.675
2929.64	2045.875
2932.11205	2043.175
2934.58258	2030.575
2937.05161	2042.775
2939.51912	2014.975
2941.98513	2021.675
2944.44962	2013.375
2946.91261	1990.675
2949.37409	1985.075
2951.83407	1972.675
2954.29254	1958.275
2956.74951	1952.075
2959.20498	1940.975
2961.65895	1942.075
2964.11142	1935.375
2966.56239	1911.775
2969.01186	1873.175
2971.45984	1902.775
2973.90632	1907.075
2976.35131	1902.775
2978.7948	1897.575
2981.23681	1875.475
2983.67732	1884.175
2986.11635	1872.075
2988.55388	1868.775
2990.98993	1870.375
2993.4245	1860.175
2995.85758	1856.975
2998.28917	1860.175
3000.71928	1856.475
3003.14791	1847.775
3005.57506	1858.375
3008.00073	1845.475
3010.42493	1847.375
3012.84764	1851.675
3015.26888	1847.375
3017.68865	1836.875
3020.10694	1828.575
3022.52376	1839.775
3024.9391	1828.475
3027.35298	1832.975
3029.76539	1837.675
3032.17632	1833.875
3034.5858	1828.275
3036.9938	1829.275
3039.40034	1827.875
3041.80542	1832.775
3044.20903	1817.475
3046.61118	1825.675
3049.01187	1824.675
3051.4111	1810.175
3053.80888	1818.775
3056.20519	1821.875
3058.60005	1820.475
3060.99345	1823.875
3063.3854	1810.075
3065.7759	1810.575
3068.16494	1812.675
3070.55254	1816.175
3072.93868	1813.875
3075.32338	1809.475
3077.70662	1809.575
3080.08842	1804.475
3082.46878	1798.575
3084.84769	1801.475
3087.22515	1806.675
3089.60118	1824.375
3091.97576	1826.675
3094.3489	1824.675
3096.72061	1829.775
3099.09087	1829.675
3101.4597	1827.075
3103.82709	1844.275
3106.19305	1854.875
3108.55757	1853.875
3110.92066	1855.075
3113.28232	1850.275
3115.64255	1842.675
3118.00134	1855.975
3120.35871	1857.675
3122.71466	1870.075
3125.06917	1863.375
3127.42226	1867.575
3129.77393	1880.075
3132.12417	1866.675
3134.47299	1878.475
3136.82039	1889.775
3139.16636	1888.275
3141.51092	1890.975
3143.85406	1909.775
3146.19579	1906.075
3148.53609	1916.375
3150.87499	1921.375
3153.21246	1930.575
3155.54853	1936.675
3157.88318	1936.575
3160.21642	1951.775
3162.54826	1960.375
3164.87868	1976.775
3167.2077	1974.375
3169.5353	1982.675
3171.86151	1988.575
3174.18631	1998.175
3176.5097	1991.075
3178.83169	1997.675
3181.15228	1996.175
3183.47147	1997.375
3185.78926	2009.775
3188.10565	2005.075
3190.42065	2010.275
3192.73424	2015.575
3195.04645	2026.975
3197.35725	2013.075
3199.66667	2024.675
3201.97469	2028.075
3204.28132	2037.475
3206.58656	2036.475
3208.8904	2043.675
3211.19287	2055.175
3213.49394	2061.175
3215.79363	2078.075
3218.09193	2075.475
3220.38884	2069.575
3222.68438	2073.875
3224.97853	2072.875
3227.2713	2069.175
3229.56269	2085.075
3231.8527	2076.475
3234.14133	2084.175
3236.42858	2066.275
