Data from AgNPs_APTES_FTO_UA_50uM_CRN_0uM_R6G_10uM_Scan_RamanShift__30__11-46-03-689.txt Node

Date: Tue Jul 05 11:46:03 BST 2022
User: TCL
Spectrometer: QEP01345
Trigger mode: 4
Integration Time (sec): 7.000000E0
Scans to average: 10
Electric dark correction enabled: true
Nonlinearity correction enabled: false
Boxcar width: 0
XAxis mode: Raman Shifts
Number of Pixels in Spectrum: 1044
>>>>>Begin Spectral Data<<<<<
46.04893	-0.7875
50.45542	-0.4875
54.85868	-0.4875
59.25871	1.0125
63.6555	35.4125
68.04907	38.6125
72.43941	43.2125
76.82654	45.4125
81.21044	46.6125
85.59113	49.5125
89.96862	49.8125
94.34289	51.7125
98.71396	55.8125
103.08183	56.8125
107.4465	52.7125
111.80798	57.2125
116.16626	55.7125
120.52136	55.7125
124.87327	61.0125
129.222	59.0125
133.56755	59.4125
137.90993	62.2125
142.24913	68.2125
146.58517	73.4125
150.91804	80.4125
155.24774	89.7125
159.57429	104.5125
163.89768	126.8125
168.21792	167.6125
172.53501	216.6125
176.84895	289.7125
181.15975	401.6125
185.46741	560.7125
189.77193	766.9125
194.07331	1017.4125
198.37157	1291.1125
202.6667	1596.3125
206.9587	1884.6125
211.24758	2172.9125
215.53334	2476.1125
219.81599	2779.3125
224.09553	3103.3125
228.37195	3474.4125
232.64527	3855.3125
236.91549	4260.0125
241.18261	4660.6125
245.44663	4999.9125
249.70755	5275.1125
253.96539	5526.9125
258.22014	5717.7125
262.4718	5879.2125
266.72039	6006.1125
270.96589	6056.6125
275.20832	6044.2125
279.44768	5963.5125
283.68397	5863.2125
287.91719	5770.3125
292.14735	5748.2125
296.37445	5757.7125
300.59849	5848.9125
304.81948	5962.8125
309.03742	6025.7125
313.25231	6009.9125
317.46415	5840.1125
321.67296	5618.2125
325.87872	5400.2125
330.08145	5273.7125
334.28114	5250.2125
338.47781	5293.4125
342.67145	5394.4125
346.86207	5516.7125
351.04966	5699.2125
355.23424	5922.5125
359.4158	6114.7125
363.59435	6249.1125
367.76989	6325.8125
371.94243	6378.9125
376.11196	6415.1125
380.27849	6461.8125
384.44203	6464.8125
388.60257	6459.2125
392.76012	6436.4125
396.91468	6448.1125
401.06626	6526.7125
405.21485	6598.2125
409.36047	6518.0125
413.50311	6320.0125
417.64277	6090.2125
421.77947	5966.6125
425.9132	5914.9125
430.04396	5906.1125
434.17176	5928.1125
438.2966	5983.4125
442.41849	6097.7125
446.53742	6215.0125
450.6534	6316.7125
454.76644	6364.1125
458.87653	6331.1125
462.98368	6302.4125
467.08789	6259.8125
471.18916	6213.2125
475.2875	6200.4125
479.38291	6161.8125
483.4754	6208.1125
487.56496	6297.6125
491.6516	6396.1125
495.73531	6486.9125
499.81612	6477.0125
503.89401	6420.5125
507.96899	6382.2125
512.04106	6409.6125
516.11023	6492.8125
520.1765	6570.1125
524.23987	6599.8125
528.30034	6631.4125
532.35792	6576.2125
536.41261	6468.5125
540.46441	6323.4125
544.51333	6211.8125
548.55936	6155.6125
552.60252	6191.7125
556.64279	6224.0125
560.6802	6235.0125
564.71473	6235.9125
568.7464	6338.5125
572.7752	6416.8125
576.80114	6341.0125
580.82422	6265.8125
584.84444	6297.6125
588.86181	6433.5125
592.87633	6536.5125
596.888	6616.7125
600.89682	6697.9125
604.9028	7087.6125
608.90594	8252.0125
612.90624	9796.7125
616.90371	9675.2125
620.89834	8002.1125
624.89015	7393.7125
628.87913	7625.1125
632.86528	8008.3125
636.84862	8280.5125
640.82913	8139.1125
644.80683	7706.2125
648.78172	7230.5125
652.75379	6867.3125
656.72306	6737.7125
660.68952	6710.7125
664.65319	6567.0125
668.61405	6319.2125
672.57211	6218.8125
676.52738	6230.5125
680.47986	6246.6125
684.42955	6208.4125
688.37646	6198.1125
692.32058	6178.5125
696.26192	6129.8125
700.20048	6143.6125
704.13626	6143.2125
708.06928	6131.7125
711.99952	6112.0125
715.927	6113.1125
719.85171	6144.7125
723.77365	6235.5125
727.69284	6259.3125
731.60928	6184.8125
735.52295	6125.2125
739.43388	6087.5125
743.34206	6092.8125
747.24749	6076.9125
751.15017	6076.1125
755.05012	6095.5125
758.94733	6209.3125
762.8418	6583.6125
766.73354	7226.2125
770.62254	7978.0125
774.50882	8419.6125
778.39237	8180.6125
782.27321	7419.5125
786.15132	6675.5125
790.02671	6246.1125
793.89938	6061.4125
797.76935	6016.4125
801.6366	6107.4125
805.50115	6303.0125
809.36299	6498.6125
813.22213	6579.8125
817.07857	6475.2125
820.93231	6264.2125
824.78336	6088.1125
828.63172	5917.8125
832.47738	5824.2125
836.32036	5788.3125
840.16066	5739.7125
843.99827	5736.1125
847.8332	5738.8125
851.66546	5729.2125
855.49504	5706.9125
859.32195	5712.4125
863.1462	5749.7125
866.96777	5775.4125
870.78668	5844.0125
874.60293	5999.3125
878.41652	6151.3125
882.22745	6318.8125
886.03573	6404.8125
889.84136	6409.3125
893.64433	6298.2125
897.44466	6107.2125
901.24235	5929.7125
905.0374	5794.6125
908.8298	5662.9125
912.61957	5595.4125
916.40671	5564.9125
920.19121	5548.0125
923.97308	5574.6125
927.75233	5598.8125
931.52895	5623.6125
935.30295	5604.4125
939.07433	5493.4125
942.84309	5385.1125
946.60924	5325.7125
950.37278	5252.3125
954.13371	5210.8125
957.89203	5187.9125
961.64774	5145.8125
965.40086	5121.5125
969.15137	5092.8125
972.89929	5085.1125
976.64461	5055.2125
980.38733	5028.9125
984.12747	4990.5125
987.86502	5000.7125
991.59999	5029.5125
995.33237	5091.3125
999.06217	5152.8125
1002.78939	5267.1125
1006.51404	5376.7125
1010.23611	5501.0125
1013.95561	5557.6125
1017.67255	5576.3125
1021.38692	5535.4125
1025.09872	5420.0125
1028.80796	5308.8125
1032.51465	5209.0125
1036.21877	5137.0125
1039.92035	5110.6125
1043.61937	5101.4125
1047.31584	5085.8125
1051.00976	5087.8125
1054.70114	5105.7125
1058.38998	5157.1125
1062.07627	5203.0125
1065.76003	5256.0125
1069.44126	5287.4125
1073.11995	5296.4125
1076.79611	5348.5125
1080.46974	5333.9125
1084.14085	5369.5125
1087.80943	5417.6125
1091.47549	5407.5125
1095.13903	5313.2125
1098.80005	5169.5125
1102.45857	5060.3125
1106.11456	5048.7125
1109.76805	5096.6125
1113.41903	5228.6125
1117.06751	5441.2125
1120.71348	5762.2125
1124.35696	6165.8125
1127.99793	6650.7125
1131.63641	6994.0125
1135.2724	7032.9125
1138.90589	6871.0125
1142.5369	6594.0125
1146.16542	6228.7125
1149.79145	5872.5125
1153.415	5526.3125
1157.03607	5282.7125
1160.65467	5174.2125
1164.27079	5176.7125
1167.88443	5298.8125
1171.49561	5519.6125
1175.10432	5972.7125
1178.71056	6638.2125
1182.31434	7237.4125
1185.91565	7457.0125
1189.51451	7379.7125
1193.11091	7165.8125
1196.70485	7003.5125
1200.29634	6885.5125
1203.88538	6784.5125
1207.47197	6504.6125
1211.05612	6171.2125
1214.63782	5864.8125
1218.21708	5656.4125
1221.79391	5474.4125
1225.36829	5355.3125
1228.94024	5257.6125
1232.50976	5173.2125
1236.07685	5118.3125
1239.6415	5090.1125
1243.20374	5111.9125
1246.76355	5136.7125
1250.32093	5159.8125
1253.8759	5222.7125
1257.42845	5329.1125
1260.97859	5449.6125
1264.52631	5525.0125
1268.07163	5650.0125
1271.61453	5722.8125
1275.15503	5752.6125
1278.69312	5740.4125
1282.22882	5721.6125
1285.76211	5768.3125
1289.29301	5904.2125
1292.82151	6055.5125
1296.34761	6242.7125
1299.87133	6542.7125
1303.39266	6949.4125
1306.9116	7583.6125
1310.42815	8332.2125
1313.94233	8806.5125
1317.45412	8672.2125
1320.96354	8143.5125
1324.47058	7519.3125
1327.97525	6972.2125
1331.47754	6641.6125
1334.97747	6511.1125
1338.47502	6559.3125
1341.97022	6707.9125
1345.46305	6988.1125
1348.95352	7462.8125
1352.44163	8135.0125
1355.92738	9023.7125
1359.41078	10235.7125
1362.89183	11371.4125
1366.37053	11364.0125
1369.84688	9997.4125
1373.32088	8465.0125
1376.79254	7428.5125
1380.26186	6862.2125
1383.72883	6561.0125
1387.19347	6308.7125
1390.65578	6059.4125
1394.11575	5850.4125
1397.57339	5691.7125
1401.0287	5590.4125
1404.48168	5483.4125
1407.93234	5374.7125
1411.38068	5277.1125
1414.82669	5174.1125
1418.27039	5101.1125
1421.71177	5013.6125
1425.15083	4923.3125
1428.58758	4863.6125
1432.02203	4842.2125
1435.45416	4866.9125
1438.88399	4884.9125
1442.31151	4883.3125
1445.73673	4872.7125
1449.15965	4889.7125
1452.58027	4844.8125
1455.9986	4798.4125
1459.41463	4761.9125
1462.82837	4778.1125
1466.23982	4858.1125
1469.64898	4952.6125
1473.05586	5002.9125
1476.46045	5037.2125
1479.86276	5111.7125
1483.26279	5211.3125
1486.66054	5360.0125
1490.05602	5527.3125
1493.44922	5736.4125
1496.84016	6095.8125
1500.22882	6662.6125
1503.61521	7439.4125
1506.99934	8359.2125
1510.38121	9208.6125
1513.76081	9616.6125
1517.13816	9174.1125
1520.51324	8136.9125
1523.88607	7092.9125
1527.25665	6330.7125
1530.62498	5952.8125
1533.99105	5757.9125
1537.35488	5648.7125
1540.71647	5590.8125
1544.07581	5578.1125
1547.4329	5620.6125
1550.78776	5647.5125
1554.14038	5675.3125
1557.49077	5741.4125
1560.83892	5816.6125
1564.18484	5925.1125
1567.52853	6087.2125
1570.86999	6228.8125
1574.20922	6340.7125
1577.54624	6338.1125
1580.88103	6132.3125
1584.2136	5764.0125
1587.54395	5481.4125
1590.87208	5404.0125
1594.19801	5513.4125
1597.52172	5792.6125
1600.84321	6002.2125
1604.16251	5953.7125
1607.47959	5798.4125
1610.79447	5565.0125
1614.10715	5368.6125
1617.41763	5191.1125
1620.7259	5079.9125
1624.03199	5040.7125
1627.33587	5086.1125
1630.63757	5134.7125
1633.93707	5272.9125
1637.23439	5527.5125
1640.52951	5921.5125
1643.82246	6553.6125
1647.11321	7285.4125
1650.40179	7869.4125
1653.68819	7889.1125
1656.97241	7208.5125
1660.25446	6315.0125
1663.53433	5582.2125
1666.81203	5090.7125
1670.08756	4746.3125
1673.36092	4514.2125
1676.63211	4329.9125
1679.90115	4217.9125
1683.16801	4098.6125
1686.43272	4007.7125
1689.69527	3915.7125
1692.95567	3867.3125
1696.2139	3790.2125
1699.46999	3714.4125
1702.72392	3638.0125
1705.97571	3551.6125
1709.22535	3487.2125
1712.47284	3418.2125
1715.71819	3374.9125
1718.96139	3338.0125
1722.20246	3278.4125
1725.44139	3242.0125
1728.67818	3207.6125
1731.91284	3168.3125
1735.14537	3123.1125
1738.37576	3098.4125
1741.60403	3072.3125
1744.83017	3059.1125
1748.05418	3044.3125
1751.27607	3033.1125
1754.49584	3021.9125
1757.71349	2990.0125
1760.92903	2977.1125
1764.14244	2968.7125
1767.35375	2958.0125
1770.56294	2937.9125
1773.77002	2926.8125
1776.97499	2925.1125
1780.17785	2901.6125
1783.37861	2900.4125
1786.57727	2878.7125
1789.77382	2871.5125
1792.96828	2854.5125
1796.16064	2844.5125
1799.3509	2841.9125
1802.53907	2828.7125
1805.72514	2809.0125
1808.90913	2793.2125
1812.09102	2796.5125
1815.27083	2781.5125
1818.44856	2773.6125
1821.6242	2761.4125
1824.79776	2759.4125
1827.96924	2736.8125
1831.13864	2727.7125
1834.30597	2713.8125
1837.47122	2714.1125
1840.6344	2706.0125
1843.7955	2686.4125
1846.95454	2693.3125
1850.11151	2682.7125
1853.26642	2683.8125
1856.41926	2671.5125
1859.57004	2675.6125
1862.71876	2671.7125
1865.86542	2656.4125
1869.01003	2646.7125
1872.15258	2641.3125
1875.29308	2640.2125
1878.43152	2632.2125
1881.56792	2628.4125
1884.70227	2611.6125
1887.83457	2606.5125
1890.96482	2601.2125
1894.09304	2604.0125
1897.21921	2591.1125
1900.34335	2569.7125
1903.46544	2582.2125
1906.58551	2584.5125
1909.70353	2560.6125
1912.81953	2558.8125
1915.93349	2548.8125
1919.04543	2549.9125
1922.15534	2545.3125
1925.26322	2520.3125
1928.36908	2528.5125
1931.47292	2514.5125
1934.57473	2493.1125
1937.67453	2473.1125
1940.77232	2480.9125
1943.86808	2460.9125
1946.96184	2450.6125
1950.05358	2440.4125
1953.14331	2440.7125
1956.23103	2422.6125
1959.31675	2410.4125
1962.40046	2406.7125
1965.48217	2390.3125
1968.56188	2390.6125
1971.63959	2370.6125
1974.7153	2381.8125
1977.78901	2354.4125
1980.86073	2362.7125
1983.93046	2337.0125
1986.99819	2320.0125
1990.06394	2324.0125
1993.1277	2317.0125
1996.18947	2298.6125
1999.24925	2298.6125
2002.30706	2271.6125
2005.36288	2258.8125
2008.41672	2254.4125
2011.46859	2257.6125
2014.51848	2242.0125
2017.56639	2231.2125
2020.61233	2231.2125
2023.6563	2219.4125
2026.6983	2202.2125
2029.73833	2194.6125
2032.7764	2184.7125
2035.8125	2183.5125
2038.84664	2175.0125
2041.87881	2169.3125
2044.90903	2154.6125
2047.93729	2154.7125
2050.96359	2174.8125
2053.98794	2144.1125
2057.01034	2139.4125
2060.03078	2138.4125
2063.04927	2148.3125
2066.06582	2132.4125
2069.08042	2133.7125
2072.09307	2112.9125
2075.10378	2111.9125
2078.11255	2116.9125
2081.11938	2112.1125
2084.12426	2114.4125
2087.12722	2114.2125
2090.12824	2099.5125
2093.12732	2093.1125
2096.12447	2092.8125
2099.11969	2096.9125
2102.11299	2091.8125
2105.10435	2094.3125
2108.09379	2081.5125
2111.08131	2087.5125
2114.0669	2090.6125
2117.05057	2089.3125
2120.03233	2091.6125
2123.01216	2091.2125
2125.99008	2083.3125
2128.96609	2088.4125
2131.94018	2075.4125
2134.91236	2085.3125
2137.88263	2077.7125
2140.851	2070.7125
2143.81746	2085.1125
2146.78201	2065.5125
2149.74466	2077.8125
2152.7054	2055.7125
2155.66425	2063.8125
2158.6212	2051.1125
2161.57625	2032.7125
2164.52941	2041.8125
2167.48067	2046.0125
2170.43004	2036.1125
2173.37752	2041.9125
2176.32311	2031.9125
2179.26681	2042.5125
2182.20863	2017.2125
2185.14856	2018.4125
2188.08661	2008.1125
2191.02278	2012.3125
2193.95707	2001.3125
2196.88948	2011.8125
2199.82001	1997.5125
2202.74867	1998.9125
2205.67545	1991.7125
2208.60037	1985.1125
2211.52341	1987.9125
2214.44458	1970.8125
2217.36388	1959.9125
2220.28132	1957.3125
2223.1969	1954.0125
2226.11061	1952.7125
2229.02246	1930.8125
2231.93245	1940.4125
2234.84058	1925.0125
2237.74686	1924.4125
2240.65128	1929.6125
2243.55385	1918.3125
2246.45456	1920.7125
2249.35343	1894.6125
2252.25044	1901.5125
2255.14561	1899.1125
2258.03893	1888.9125
2260.93041	1894.5125
2263.82004	1894.6125
2266.70783	1875.2125
2269.59378	1872.9125
2272.4779	1869.6125
2275.36017	1860.8125
2278.24061	1866.0125
2281.11922	1843.2125
2283.996	1842.6125
2286.87094	1835.0125
2289.74405	1831.9125
2292.61534	1832.0125
2295.4848	1824.5125
2298.35243	1818.1125
2301.21824	1812.7125
2304.08223	1807.4125
2306.94439	1810.6125
2309.80474	1784.5125
2312.66327	1801.0125
2315.51999	1802.1125
2318.37489	1785.1125
2321.22797	1788.0125
2324.07925	1779.7125
2326.92871	1779.0125
2329.77637	1780.5125
2332.62222	1774.8125
2335.46626	1761.2125
2338.3085	1758.9125
2341.14893	1747.5125
2343.98756	1752.4125
2346.8244	1732.9125
2349.65943	1734.6125
2352.49267	1737.0125
2355.32411	1741.8125
2358.15376	1746.6125
2360.98161	1748.5125
2363.80768	1741.2125
2366.63195	1755.3125
2369.45444	1744.0125
2372.27514	1754.9125
2375.09405	1745.8125
2377.91118	1732.3125
2380.72652	1721.0125
2383.54009	1719.4125
2386.35187	1716.5125
2389.16188	1701.7125
2391.97011	1695.4125
2394.77657	1681.9125
2397.58125	1674.9125
2400.38416	1677.9125
2403.18529	1664.9125
2405.98466	1662.1125
2408.78226	1655.7125
2411.57809	1649.2125
2414.37216	1653.4125
2417.16446	1643.6125
2419.955	1630.7125
2422.74378	1632.6125
2425.5308	1638.6125
2428.31606	1644.5125
2431.09956	1623.0125
2433.88131	1625.7125
2436.6613	1621.1125
2439.43954	1628.0125
2442.21603	1628.6125
2444.99077	1615.4125
2447.76377	1615.6125
2450.53501	1615.5125
2453.30451	1606.4125
2456.07226	1600.4125
2458.83827	1597.0125
2461.60254	1604.7125
2464.36507	1598.9125
2467.12586	1594.4125
2469.88492	1587.3125
2472.64224	1585.3125
2475.39782	1593.7125
2478.15167	1590.9125
2480.90379	1590.9125
2483.65417	1588.3125
2486.40283	1602.1125
2489.14976	1586.4125
2491.89497	1600.1125
2494.63845	1589.1125
2497.3802	1581.2125
2500.12024	1583.7125
2502.85855	1578.7125
2505.59514	1568.4125
2508.33002	1567.8125
2511.06318	1558.4125
2513.79462	1539.8125
2516.52435	1527.0125
2519.25237	1529.5125
2521.97867	1525.5125
2524.70327	1525.1125
2527.42616	1511.7125
2530.14734	1504.7125
2532.86681	1505.9125
2535.58458	1504.5125
2538.30065	1495.3125
2541.01501	1501.6125
2543.72768	1500.0125
2546.43864	1495.7125
2549.14791	1487.0125
2551.85548	1480.9125
2554.56136	1478.0125
2557.26554	1483.0125
2559.96803	1472.7125
2562.66883	1467.7125
2565.36794	1468.0125
2568.06536	1461.1125
2570.7611	1458.9125
2573.45514	1456.9125
2576.14751	1446.7125
2578.83819	1449.4125
2581.52719	1444.9125
2584.21451	1443.9125
2586.90015	1426.4125
2589.58411	1423.7125
2592.2664	1419.8125
2594.94701	1414.1125
2597.62594	1419.5125
2600.30321	1412.8125
2602.9788	1416.9125
2605.65273	1406.1125
2608.32498	1405.8125
2610.99557	1406.0125
2613.66449	1404.5125
2616.33175	1398.4125
2618.99734	1392.4125
2621.66128	1388.7125
2624.32355	1394.4125
2626.98416	1391.2125
2629.64311	1383.8125
2632.30041	1382.9125
2634.95605	1379.3125
2637.61004	1389.8125
2640.26238	1362.9125
2642.91306	1359.7125
2645.56209	1368.9125
2648.20948	1364.2125
2650.85521	1360.0125
2653.4993	1365.4125
2656.14175	1365.5125
2658.78255	1365.0125
2661.42171	1357.2125
2664.05923	1359.2125
2666.6951	1360.0125
2669.32934	1364.5125
2671.96194	1351.8125
2674.59291	1365.8125
2677.22224	1361.0125
2679.84993	1353.6125
2682.476	1357.2125
2685.10043	1361.0125
2687.72324	1360.0125
2690.34441	1357.2125
2692.96396	1354.0125
2695.58188	1355.5125
2698.19818	1343.7125
2700.81285	1355.9125
2703.4259	1351.7125
2706.03733	1350.8125
2708.64714	1341.0125
2711.25533	1355.1125
2713.86191	1362.6125
2716.46687	1361.9125
2719.07021	1366.2125
2721.67194	1362.7125
2724.27206	1364.8125
2726.87057	1367.7125
2729.46747	1354.1125
2732.06276	1361.8125
2734.65644	1350.6125
2737.24852	1346.9125
2739.83899	1343.5125
2742.42786	1345.0125
2745.01513	1340.5125
2747.60079	1339.2125
2750.18486	1339.5125
2752.76733	1334.7125
2755.3482	1332.0125
2757.92747	1332.1125
2760.50515	1336.6125
2763.08123	1332.0125
2765.65573	1323.1125
2768.22863	1332.5125
2770.79994	1317.3125
2773.36967	1304.5125
2775.9378	1320.0125
2778.50435	1324.3125
2781.06932	1310.6125
2783.6327	1308.9125
2786.1945	1321.4125
2788.75471	1317.8125
2791.31335	1314.3125
2793.87041	1316.6125
2796.42589	1319.7125
2798.97979	1309.5125
2801.53212	1302.4125
2804.08288	1311.0125
2806.63206	1309.0125
2809.17967	1300.1125
2811.72571	1306.4125
2814.27018	1302.8125
2816.81308	1302.3125
2819.35442	1302.3125
2821.89419	1300.0125
2824.43239	1302.2125
2826.96904	1309.2125
2829.50412	1298.4125
2832.03763	1297.8125
2834.56959	1302.5125
2837.1	1310.6125
2839.62884	1305.6125
2842.15613	1317.6125
2844.68186	1339.0125
2847.20604	1344.7125
2849.72867	1350.3125
2852.24974	1356.2125
2854.76927	1364.4125
2857.28724	1358.5125
2859.80367	1355.3125
2862.31855	1350.3125
2864.83189	1351.2125
2867.34368	1357.6125
2869.85393	1362.0125
2872.36264	1352.2125
2874.8698	1350.7125
2877.37543	1356.1125
2879.87952	1354.0125
2882.38207	1351.0125
2884.88308	1347.3125
2887.38256	1351.0125
2889.88051	1349.2125
2892.37692	1347.3125
2894.8718	1337.8125
2897.36515	1353.3125
2899.85698	1351.9125
2902.34727	1355.3125
2904.83604	1353.0125
2907.32328	1364.7125
2909.809	1362.9125
2912.29319	1361.6125
2914.77587	1361.3125
2917.25702	1376.9125
2919.73665	1364.4125
2922.21476	1363.2125
2924.69136	1364.1125
2927.16644	1367.8125
2929.64	1359.1125
2932.11205	1359.4125
2934.58258	1341.3125
2937.05161	1341.3125
2939.51912	1336.5125
2941.98513	1315.3125
2944.44962	1315.7125
2946.91261	1311.5125
2949.37409	1301.0125
2951.83407	1286.7125
2954.29254	1279.9125
2956.74951	1274.5125
2959.20498	1267.2125
2961.65895	1265.8125
2964.11142	1261.1125
2966.56239	1252.2125
2969.01186	1215.1125
2971.45984	1239.8125
2973.90632	1247.0125
2976.35131	1236.7125
2978.7948	1238.6125
2981.23681	1229.8125
2983.67732	1223.2125
2986.11635	1223.5125
2988.55388	1221.3125
2990.98993	1216.6125
2993.4245	1214.6125
2995.85758	1216.3125
2998.28917	1214.8125
3000.71928	1214.6125
3003.14791	1213.7125
3005.57506	1208.9125
3008.00073	1202.2125
3010.42493	1209.1125
3012.84764	1212.1125
3015.26888	1214.9125
3017.68865	1212.7125
3020.10694	1205.0125
3022.52376	1213.8125
3024.9391	1207.1125
3027.35298	1211.5125
3029.76539	1212.1125
3032.17632	1209.2125
3034.5858	1211.3125
3036.9938	1213.6125
3039.40034	1212.3125
3041.80542	1201.9125
3044.20903	1208.3125
3046.61118	1218.3125
3049.01187	1211.9125
3051.4111	1210.7125
3053.80888	1217.2125
3056.20519	1220.9125
3058.60005	1217.6125
3060.99345	1225.0125
3063.3854	1219.7125
3065.7759	1217.5125
3068.16494	1217.3125
3070.55254	1215.1125
3072.93868	1225.0125
3075.32338	1226.1125
3077.70662	1232.1125
3080.08842	1216.1125
3082.46878	1217.3125
3084.84769	1231.6125
3087.22515	1242.2125
3089.60118	1236.8125
3091.97576	1235.5125
3094.3489	1251.1125
3096.72061	1252.5125
3099.09087	1255.6125
3101.4597	1267.3125
3103.82709	1269.8125
3106.19305	1274.2125
3108.55757	1279.1125
3110.92066	1271.8125
3113.28232	1289.3125
3115.64255	1285.8125
3118.00134	1284.6125
3120.35871	1292.4125
3122.71466	1296.4125
3125.06917	1307.5125
