Data from AgNPs_APTES_FTO_UA_50uM_CRN_0uM_R6G_10uM_Scan_RamanShift__72__12-35-03-746.txt Node

Date: Tue Jul 05 12:35:03 BST 2022
User: TCL
Spectrometer: QEP01345
Trigger mode: 4
Integration Time (sec): 7.000000E0
Scans to average: 10
Electric dark correction enabled: true
Nonlinearity correction enabled: false
Boxcar width: 0
XAxis mode: Raman Shifts
Number of Pixels in Spectrum: 1044
>>>>>Begin Spectral Data<<<<<
46.04893	-0.5875
50.45542	-0.0875
54.85868	-0.3875
59.25871	1.2125
63.6555	37.7125
68.04907	43.6125
72.43941	40.6125
76.82654	43.6125
81.21044	48.7125
85.59113	53.4125
89.96862	49.7125
94.34289	51.7125
98.71396	54.0125
103.08183	58.2125
107.4465	57.1125
111.80798	61.9125
116.16626	59.7125
120.52136	55.8125
124.87327	60.7125
129.222	65.5125
133.56755	60.5125
137.90993	63.8125
142.24913	68.1125
146.58517	70.8125
150.91804	81.6125
155.24774	93.1125
159.57429	107.7125
163.89768	132.7125
168.21792	172.0125
172.53501	228.2125
176.84895	316.1125
181.15975	437.1125
185.46741	611.1125
189.77193	838.8125
194.07331	1121.3125
198.37157	1445.2125
202.6667	1780.0125
206.9587	2114.4125
211.24758	2442.6125
215.53334	2775.0125
219.81599	3095.4125
224.09553	3456.3125
228.37195	3844.9125
232.64527	4267.7125
236.91549	4753.3125
241.18261	5255.4125
245.44663	5775.3125
249.70755	6273.8125
253.96539	6685.9125
258.22014	7059.1125
262.4718	7342.9125
266.72039	7519.3125
270.96589	7615.4125
275.20832	7611.7125
279.44768	7538.6125
283.68397	7423.4125
287.91719	7329.4125
292.14735	7200.6125
296.37445	7124.2125
300.59849	7039.8125
304.81948	6981.6125
309.03742	6929.8125
313.25231	6934.6125
317.46415	6920.6125
321.67296	6915.4125
325.87872	6934.6125
330.08145	6958.1125
334.28114	7012.2125
338.47781	7101.9125
342.67145	7186.8125
346.86207	7253.6125
351.04966	7380.6125
355.23424	7466.0125
359.4158	7574.3125
363.59435	7675.9125
367.76989	7758.0125
371.94243	7865.7125
376.11196	7947.3125
380.27849	8008.5125
384.44203	8107.2125
388.60257	8175.7125
392.76012	8240.8125
396.91468	8314.0125
401.06626	8360.7125
405.21485	8447.2125
409.36047	8505.7125
413.50311	8515.3125
417.64277	8520.4125
421.77947	8565.4125
425.9132	8614.7125
430.04396	8680.9125
434.17176	8720.8125
438.2966	8818.3125
442.41849	8865.1125
446.53742	8962.6125
450.6534	9061.9125
454.76644	9140.5125
458.87653	9210.9125
462.98368	9239.5125
467.08789	9289.4125
471.18916	9315.2125
475.2875	9316.8125
479.38291	9317.2125
483.4754	9336.8125
487.56496	9360.3125
491.6516	9364.4125
495.73531	9406.7125
499.81612	9401.2125
503.89401	9449.6125
507.96899	9496.4125
512.04106	9546.1125
516.11023	9550.1125
520.1765	9596.1125
524.23987	9598.1125
528.30034	9645.9125
532.35792	9695.1125
536.41261	9714.2125
540.46441	9722.6125
544.51333	9729.0125
548.55936	9761.2125
552.60252	9804.8125
556.64279	9872.7125
560.6802	9963.3125
564.71473	9974.2125
568.7464	9982.9125
572.7752	10015.5125
576.80114	10008.0125
580.82422	10041.2125
584.84444	10068.9125
588.86181	10098.7125
592.87633	10194.2125
596.888	10229.7125
600.89682	10254.8125
604.9028	10405.3125
608.90594	10655.5125
612.90624	10843.3125
616.90371	10745.2125
620.89834	10474.8125
624.89015	10344.3125
628.87913	10323.4125
632.86528	10404.1125
636.84862	10438.2125
640.82913	10459.3125
644.80683	10437.8125
648.78172	10428.4125
652.75379	10434.8125
656.72306	10493.8125
660.68952	10597.0125
664.65319	10634.9125
668.61405	10676.4125
672.57211	10713.8125
676.52738	10761.7125
680.47986	10840.8125
684.42955	10853.6125
688.37646	10933.2125
692.32058	10997.2125
696.26192	11053.2125
700.20048	11058.9125
704.13626	11092.9125
708.06928	11135.4125
711.99952	11136.0125
715.927	11150.0125
719.85171	11111.7125
723.77365	11134.5125
727.69284	11073.7125
731.60928	11066.9125
735.52295	11056.7125
739.43388	11048.0125
743.34206	11102.1125
747.24749	11123.1125
751.15017	11132.9125
755.05012	11156.5125
758.94733	11189.0125
762.8418	11268.0125
766.73354	11385.7125
770.62254	11541.1125
774.50882	11640.7125
778.39237	11637.8125
782.27321	11599.8125
786.15132	11476.8125
790.02671	11393.4125
793.89938	11319.4125
797.76935	11310.1125
801.6366	11296.9125
805.50115	11319.2125
809.36299	11323.0125
813.22213	11304.2125
817.07857	11337.7125
820.93231	11340.1125
824.78336	11390.7125
828.63172	11382.2125
832.47738	11400.4125
836.32036	11445.7125
840.16066	11449.1125
843.99827	11496.7125
847.8332	11510.2125
851.66546	11529.2125
855.49504	11524.8125
859.32195	11549.0125
863.1462	11588.0125
866.96777	11615.1125
870.78668	11609.2125
874.60293	11672.4125
878.41652	11681.5125
882.22745	11711.2125
886.03573	11714.2125
889.84136	11736.3125
893.64433	11764.0125
897.44466	11798.8125
901.24235	11822.2125
905.0374	11836.9125
908.8298	11862.4125
912.61957	11899.8125
916.40671	11901.3125
920.19121	11905.9125
923.97308	11872.0125
927.75233	11871.6125
931.52895	11875.6125
935.30295	11835.3125
939.07433	11820.5125
942.84309	11780.4125
946.60924	11762.7125
950.37278	11764.2125
954.13371	11724.0125
957.89203	11728.2125
961.64774	11723.3125
965.40086	11692.0125
969.15137	11716.5125
972.89929	11679.1125
976.64461	11693.2125
980.38733	11708.6125
984.12747	11679.4125
987.86502	11692.2125
991.59999	11730.1125
995.33237	11757.5125
999.06217	11804.0125
1002.78939	11830.1125
1006.51404	11885.3125
1010.23611	11955.8125
1013.95561	11976.8125
1017.67255	12012.1125
1021.38692	11995.8125
1025.09872	11961.6125
1028.80796	11950.9125
1032.51465	11904.0125
1036.21877	11914.8125
1039.92035	11935.6125
1043.61937	11971.9125
1047.31584	11985.7125
1051.00976	12004.0125
1054.70114	12013.0125
1058.38998	12029.5125
1062.07627	12060.7125
1065.76003	12089.4125
1069.44126	12090.0125
1073.11995	12157.0125
1076.79611	12222.5125
1080.46974	12258.2125
1084.14085	12228.6125
1087.80943	12234.8125
1091.47549	12267.0125
1095.13903	12278.8125
1098.80005	12262.5125
1102.45857	12270.8125
1106.11456	12281.1125
1109.76805	12245.3125
1113.41903	12162.7125
1117.06751	12165.4125
1120.71348	12158.4125
1124.35696	12149.8125
1127.99793	12186.5125
1131.63641	12178.1125
1135.2724	12172.3125
1138.90589	12161.8125
1142.5369	12174.2125
1146.16542	12139.3125
1149.79145	12123.5125
1153.415	12084.0125
1157.03607	12034.9125
1160.65467	12051.3125
1164.27079	12094.2125
1167.88443	12130.7125
1171.49561	12194.5125
1175.10432	12287.9125
1178.71056	12403.8125
1182.31434	12540.9125
1185.91565	12627.5125
1189.51451	12719.8125
1193.11091	12770.8125
1196.70485	12791.2125
1200.29634	12764.2125
1203.88538	12720.5125
1207.47197	12626.7125
1211.05612	12540.1125
1214.63782	12488.1125
1218.21708	12460.5125
1221.79391	12405.7125
1225.36829	12347.1125
1228.94024	12347.3125
1232.50976	12325.2125
1236.07685	12316.9125
1239.6415	12300.5125
1243.20374	12346.7125
1246.76355	12372.8125
1250.32093	12406.6125
1253.8759	12413.4125
1257.42845	12507.5125
1260.97859	12565.6125
1264.52631	12597.6125
1268.07163	12639.7125
1271.61453	12703.9125
1275.15503	12708.4125
1278.69312	12711.7125
1282.22882	12710.6125
1285.76211	12689.1125
1289.29301	12695.3125
1292.82151	12696.0125
1296.34761	12763.7125
1299.87133	12855.8125
1303.39266	12918.9125
1306.9116	13031.7125
1310.42815	13186.6125
1313.94233	13306.1125
1317.45412	13306.5125
1320.96354	13316.0125
1324.47058	13270.6125
1327.97525	13145.1125
1331.47754	13047.4125
1334.97747	13005.3125
1338.47502	13040.7125
1341.97022	13148.9125
1345.46305	13312.6125
1348.95352	13446.2125
1352.44163	13504.4125
1355.92738	13460.3125
1359.41078	13443.6125
1362.89183	13382.9125
1366.37053	13251.3125
1369.84688	12995.9125
1373.32088	12799.6125
1376.79254	12568.4125
1380.26186	12447.9125
1383.72883	12371.8125
1387.19347	12252.3125
1390.65578	12159.5125
1394.11575	12083.8125
1397.57339	12032.1125
1401.0287	12006.3125
1404.48168	11987.2125
1407.93234	11965.9125
1411.38068	11963.0125
1414.82669	11926.4125
1418.27039	11885.8125
1421.71177	11855.4125
1425.15083	11808.5125
1428.58758	11806.8125
1432.02203	11771.5125
1435.45416	11748.2125
1438.88399	11735.1125
1442.31151	11742.3125
1445.73673	11729.3125
1449.15965	11720.3125
1452.58027	11735.7125
1455.9986	11733.2125
1459.41463	11714.8125
1462.82837	11779.8125
1466.23982	11837.3125
1469.64898	11899.7125
1473.05586	11949.8125
1476.46045	11954.9125
1479.86276	11965.9125
1483.26279	12025.2125
1486.66054	12014.5125
1490.05602	12046.2125
1493.44922	12102.8125
1496.84016	12165.4125
1500.22882	12307.2125
1503.61521	12445.6125
1506.99934	12558.9125
1510.38121	12591.5125
1513.76081	12557.3125
1517.13816	12494.7125
1520.51324	12394.3125
1523.88607	12303.4125
1527.25665	12248.9125
1530.62498	12218.9125
1533.99105	12226.0125
1537.35488	12201.7125
1540.71647	12214.7125
1544.07581	12242.4125
1547.4329	12240.0125
1550.78776	12207.5125
1554.14038	12205.8125
1557.49077	12216.8125
1560.83892	12203.1125
1564.18484	12219.6125
1567.52853	12235.1125
1570.86999	12254.3125
1574.20922	12255.3125
1577.54624	12263.2125
1580.88103	12209.4125
1584.2136	12184.1125
1587.54395	12149.4125
1590.87208	12156.6125
1594.19801	12223.1125
1597.52172	12363.6125
1600.84321	12400.0125
1604.16251	12403.8125
1607.47959	12374.8125
1610.79447	12236.2125
1614.10715	12033.3125
1617.41763	11873.6125
1620.7259	11732.1125
1624.03199	11644.9125
1627.33587	11627.7125
1630.63757	11641.5125
1633.93707	11624.2125
1637.23439	11707.2125
1640.52951	11828.1125
1643.82246	12019.4125
1647.11321	12136.2125
1650.40179	12186.0125
1653.68819	12091.0125
1656.97241	11880.7125
1660.25446	11641.8125
1663.53433	11497.8125
1666.81203	11347.7125
1670.08756	11260.8125
1673.36092	11212.6125
1676.63211	11174.9125
1679.90115	11135.8125
1683.16801	11091.5125
1686.43272	11076.1125
1689.69527	11050.9125
1692.95567	11014.0125
1696.2139	10994.7125
1699.46999	10981.5125
1702.72392	10977.9125
1705.97571	10989.4125
1709.22535	11022.4125
1712.47284	11016.8125
1715.71819	11016.8125
1718.96139	11020.1125
1722.20246	11017.7125
1725.44139	10991.0125
1728.67818	10961.8125
1731.91284	10939.1125
1735.14537	10866.8125
1738.37576	10840.6125
1741.60403	10784.3125
1744.83017	10798.6125
1748.05418	10787.8125
1751.27607	10758.9125
1754.49584	10747.2125
1757.71349	10729.2125
1760.92903	10671.3125
1764.14244	10692.7125
1767.35375	10687.7125
1770.56294	10674.7125
1773.77002	10660.2125
1776.97499	10654.5125
1780.17785	10658.1125
1783.37861	10680.0125
1786.57727	10637.7125
1789.77382	10633.6125
1792.96828	10629.4125
1796.16064	10593.7125
1799.3509	10582.9125
1802.53907	10561.7125
1805.72514	10516.5125
1808.90913	10521.6125
1812.09102	10538.5125
1815.27083	10490.7125
1818.44856	10487.2125
1821.6242	10471.1125
1824.79776	10464.1125
1827.96924	10465.9125
1831.13864	10431.6125
1834.30597	10402.0125
1837.47122	10393.7125
1840.6344	10393.9125
1843.7955	10369.3125
1846.95454	10360.2125
1850.11151	10358.1125
1853.26642	10352.9125
1856.41926	10344.7125
1859.57004	10361.1125
1862.71876	10349.4125
1865.86542	10333.2125
1869.01003	10344.9125
1872.15258	10311.0125
1875.29308	10333.6125
1878.43152	10290.4125
1881.56792	10291.0125
1884.70227	10254.6125
1887.83457	10237.1125
1890.96482	10228.2125
1894.09304	10220.0125
1897.21921	10192.0125
1900.34335	10188.1125
1903.46544	10176.6125
1906.58551	10164.0125
1909.70353	10163.8125
1912.81953	10138.8125
1915.93349	10125.9125
1919.04543	10120.8125
1922.15534	10092.8125
1925.26322	10073.6125
1928.36908	10072.0125
1931.47292	10044.8125
1934.57473	10046.8125
1937.67453	9999.8125
1940.77232	9978.5125
1943.86808	9936.5125
1946.96184	9925.2125
1950.05358	9878.4125
1953.14331	9851.4125
1956.23103	9851.9125
1959.31675	9801.4125
1962.40046	9775.5125
1965.48217	9732.3125
1968.56188	9699.7125
1971.63959	9682.3125
1974.7153	9642.9125
1977.78901	9621.4125
1980.86073	9601.9125
1983.93046	9591.8125
1986.99819	9537.7125
1990.06394	9504.4125
1993.1277	9503.6125
1996.18947	9463.8125
1999.24925	9427.1125
2002.30706	9407.4125
2005.36288	9365.8125
2008.41672	9339.4125
2011.46859	9316.8125
2014.51848	9295.5125
2017.56639	9293.0125
2020.61233	9235.0125
2023.6563	9219.8125
2026.6983	9186.1125
2029.73833	9148.4125
2032.7764	9120.3125
2035.8125	9095.5125
2038.84664	9084.8125
2041.87881	9077.5125
2044.90903	9064.5125
2047.93729	9045.6125
2050.96359	9021.1125
2053.98794	8986.8125
2057.01034	8992.0125
2060.03078	8984.4125
2063.04927	8989.4125
2066.06582	8968.2125
2069.08042	8950.2125
2072.09307	8908.8125
2075.10378	8937.0125
2078.11255	8939.3125
2081.11938	8951.1125
2084.12426	8941.5125
2087.12722	8936.6125
2090.12824	8917.7125
2093.12732	8900.0125
2096.12447	8900.1125
2099.11969	8882.9125
2102.11299	8899.2125
2105.10435	8912.4125
2108.09379	8906.1125
2111.08131	8918.9125
2114.0669	8919.0125
2117.05057	8942.7125
2120.03233	8952.1125
2123.01216	8938.9125
2125.99008	8936.8125
2128.96609	8945.8125
2131.94018	8945.6125
2134.91236	8986.0125
2137.88263	8993.2125
2140.851	8990.9125
2143.81746	8991.8125
2146.78201	8964.5125
2149.74466	8974.7125
2152.7054	8969.9125
2155.66425	8962.2125
2158.6212	8957.1125
2161.57625	8956.1125
2164.52941	8944.3125
2167.48067	8934.1125
2170.43004	8948.8125
2173.37752	8944.5125
2176.32311	8937.7125
2179.26681	8941.3125
2182.20863	8917.6125
2185.14856	8946.8125
2188.08661	8904.0125
2191.02278	8911.7125
2193.95707	8890.1125
2196.88948	8900.1125
2199.82001	8907.4125
2202.74867	8862.2125
2205.67545	8848.6125
2208.60037	8847.0125
2211.52341	8816.6125
2214.44458	8798.3125
2217.36388	8794.7125
2220.28132	8758.1125
2223.1969	8753.7125
2226.11061	8738.6125
2229.02246	8716.7125
2231.93245	8676.7125
2234.84058	8685.7125
2237.74686	8686.6125
2240.65128	8693.6125
2243.55385	8652.7125
2246.45456	8620.7125
2249.35343	8621.4125
2252.25044	8609.2125
2255.14561	8583.9125
2258.03893	8566.5125
2260.93041	8563.9125
2263.82004	8540.5125
2266.70783	8493.9125
2269.59378	8478.6125
2272.4779	8460.2125
2275.36017	8437.2125
2278.24061	8407.7125
2281.11922	8388.4125
2283.996	8398.9125
2286.87094	8375.4125
2289.74405	8340.0125
2292.61534	8334.0125
2295.4848	8333.0125
2298.35243	8320.8125
2301.21824	8321.8125
2304.08223	8309.2125
2306.94439	8280.6125
2309.80474	8309.5125
2312.66327	8288.3125
2315.51999	8280.1125
2318.37489	8269.2125
2321.22797	8258.8125
2324.07925	8206.0125
2326.92871	8188.3125
2329.77637	8189.7125
2332.62222	8174.1125
2335.46626	8150.6125
2338.3085	8125.9125
2341.14893	8119.5125
2343.98756	8121.2125
2346.8244	8110.8125
2349.65943	8064.3125
2352.49267	8061.9125
2355.32411	8051.6125
2358.15376	8067.2125
2360.98161	8039.5125
2363.80768	8059.3125
2366.63195	8064.1125
2369.45444	8054.3125
2372.27514	8034.4125
2375.09405	8028.6125
2377.91118	8000.9125
2380.72652	7984.9125
2383.54009	7970.6125
2386.35187	7930.4125
2389.16188	7918.0125
2391.97011	7895.3125
2394.77657	7846.5125
2397.58125	7845.7125
2400.38416	7835.9125
2403.18529	7834.3125
2405.98466	7810.9125
2408.78226	7798.8125
2411.57809	7773.3125
2414.37216	7759.6125
2417.16446	7792.0125
2419.955	7766.3125
2422.74378	7747.4125
2425.5308	7756.8125
2428.31606	7741.9125
2431.09956	7729.9125
2433.88131	7701.6125
2436.6613	7705.7125
2439.43954	7717.9125
2442.21603	7689.6125
2444.99077	7655.3125
2447.76377	7661.1125
2450.53501	7663.7125
2453.30451	7629.4125
2456.07226	7612.2125
2458.83827	7603.6125
2461.60254	7589.2125
2464.36507	7586.5125
2467.12586	7572.4125
2469.88492	7540.3125
2472.64224	7538.5125
2475.39782	7539.3125
2478.15167	7541.1125
2480.90379	7526.2125
2483.65417	7532.5125
2486.40283	7523.9125
2489.14976	7507.0125
2491.89497	7507.3125
2494.63845	7466.4125
2497.3802	7471.6125
2500.12024	7469.1125
2502.85855	7435.8125
2505.59514	7460.9125
2508.33002	7457.8125
2511.06318	7429.7125
2513.79462	7417.0125
2516.52435	7401.0125
2519.25237	7401.3125
2521.97867	7386.1125
2524.70327	7387.8125
2527.42616	7362.9125
2530.14734	7340.4125
2532.86681	7324.3125
2535.58458	7314.1125
2538.30065	7304.0125
2541.01501	7278.5125
2543.72768	7268.9125
2546.43864	7251.4125
2549.14791	7218.7125
2551.85548	7196.1125
2554.56136	7220.1125
2557.26554	7208.4125
2559.96803	7183.9125
2562.66883	7151.4125
2565.36794	7140.6125
2568.06536	7132.0125
2570.7611	7083.4125
2573.45514	7089.7125
2576.14751	7071.9125
2578.83819	7055.5125
2581.52719	7046.0125
2584.21451	7041.8125
2586.90015	7022.1125
2589.58411	6995.3125
2592.2664	7007.1125
2594.94701	6968.5125
2597.62594	6951.6125
2600.30321	6915.4125
2602.9788	6906.4125
2605.65273	6915.1125
2608.32498	6874.8125
2610.99557	6876.5125
2613.66449	6886.6125
2616.33175	6888.7125
2618.99734	6850.2125
2621.66128	6846.0125
2624.32355	6829.5125
2626.98416	6817.8125
2629.64311	6795.4125
2632.30041	6790.2125
2634.95605	6785.1125
2637.61004	6786.6125
2640.26238	6764.1125
2642.91306	6771.6125
2645.56209	6739.8125
2648.20948	6728.8125
2650.85521	6717.5125
2653.4993	6717.7125
2656.14175	6718.5125
2658.78255	6725.0125
2661.42171	6688.0125
2664.05923	6723.5125
2666.6951	6701.3125
2669.32934	6703.2125
2671.96194	6674.0125
2674.59291	6683.1125
2677.22224	6669.2125
2679.84993	6657.1125
2682.476	6645.4125
2685.10043	6671.9125
2687.72324	6646.3125
2690.34441	6648.9125
2692.96396	6644.3125
2695.58188	6643.7125
2698.19818	6631.2125
2700.81285	6623.3125
2703.4259	6604.9125
2706.03733	6567.9125
2708.64714	6599.1125
2711.25533	6610.8125
2713.86191	6596.6125
2716.46687	6604.5125
2719.07021	6602.6125
2721.67194	6612.8125
2724.27206	6608.7125
2726.87057	6606.5125
2729.46747	6614.8125
2732.06276	6572.2125
2734.65644	6588.2125
2737.24852	6580.0125
2739.83899	6580.4125
2742.42786	6564.8125
2745.01513	6530.7125
2747.60079	6524.4125
2750.18486	6532.3125
2752.76733	6520.0125
2755.3482	6508.1125
2757.92747	6498.1125
2760.50515	6490.1125
2763.08123	6488.4125
2765.65573	6446.9125
2768.22863	6451.1125
2770.79994	6418.6125
2773.36967	6428.6125
2775.9378	6402.3125
2778.50435	6384.7125
2781.06932	6384.8125
2783.6327	6382.4125
2786.1945	6385.4125
2788.75471	6355.5125
2791.31335	6335.8125
2793.87041	6325.2125
2796.42589	6306.3125
2798.97979	6303.4125
2801.53212	6257.9125
2804.08288	6264.5125
2806.63206	6247.4125
2809.17967	6209.6125
2811.72571	6202.6125
2814.27018	6199.5125
2816.81308	6172.6125
2819.35442	6140.6125
2821.89419	6122.0125
2824.43239	6109.9125
2826.96904	6110.1125
2829.50412	6101.6125
2832.03763	6099.5125
2834.56959	6104.0125
2837.1	6077.4125
2839.62884	6043.4125
2842.15613	6029.4125
2844.68186	6049.5125
2847.20604	6039.4125
2849.72867	6035.3125
2852.24974	6025.2125
2854.76927	5991.7125
2857.28724	5987.8125
2859.80367	5973.4125
2862.31855	5988.8125
2864.83189	5968.0125
2867.34368	5941.5125
2869.85393	5954.4125
2872.36264	5929.8125
2874.8698	5923.1125
2877.37543	5940.2125
2879.87952	5927.2125
2882.38207	5933.4125
2884.88308	5910.1125
2887.38256	5910.7125
2889.88051	5902.8125
2892.37692	5892.1125
2894.8718	5901.2125
2897.36515	5885.9125
2899.85698	5891.2125
2902.34727	5878.8125
2904.83604	5874.6125
2907.32328	5885.2125
2909.809	5880.3125
2912.29319	5898.5125
2914.77587	5876.3125
2917.25702	5897.4125
2919.73665	5864.7125
2922.21476	5850.5125
2924.69136	5862.0125
2927.16644	5849.6125
2929.64	5837.1125
2932.11205	5841.7125
2934.58258	5825.3125
2937.05161	5833.0125
2939.51912	5824.6125
2941.98513	5815.4125
2944.44962	5795.6125
2946.91261	5810.3125
2949.37409	5796.3125
2951.83407	5804.3125
2954.29254	5800.3125
2956.74951	5775.8125
2959.20498	5773.1125
2961.65895	5766.6125
2964.11142	5795.9125
2966.56239	5776.4125
2969.01186	5768.1125
2971.45984	5765.5125
2973.90632	5773.1125
2976.35131	5759.2125
2978.7948	5743.3125
2981.23681	5741.7125
2983.67732	5736.8125
2986.11635	5715.2125
2988.55388	5710.9125
2990.98993	5716.0125
2993.4245	5704.8125
2995.85758	5686.0125
2998.28917	5691.3125
3000.71928	5673.1125
3003.14791	5644.7125
3005.57506	5640.7125
3008.00073	5635.7125
3010.42493	5634.8125
3012.84764	5610.3125
3015.26888	5612.9125
3017.68865	5588.7125
3020.10694	5588.2125
3022.52376	5588.1125
3024.9391	5582.5125
3027.35298	5570.8125
3029.76539	5557.9125
3032.17632	5549.8125
3034.5858	5558.5125
3036.9938	5565.4125
3039.40034	5550.6125
3041.80542	5536.7125
3044.20903	5504.0125
3046.61118	5527.1125
3049.01187	5517.1125
3051.4111	5510.3125
3053.80888	5495.4125
3056.20519	5491.3125
3058.60005	5480.4125
3060.99345	5464.3125
3063.3854	5438.9125
3065.7759	5440.6125
3068.16494	5417.6125
3070.55254	5416.7125
3072.93868	5412.9125
3075.32338	5395.8125
3077.70662	5383.5125
3080.08842	5381.9125
3082.46878	5363.2125
