Data from AgNPs_APTES_FTO_UA_50uM_CRN_0uM_R6G_10uM_Scan_RamanShift__39__11-56-33-701.txt Node

Date: Tue Jul 05 11:56:33 BST 2022
User: TCL
Spectrometer: QEP01345
Trigger mode: 4
Integration Time (sec): 7.000000E0
Scans to average: 10
Electric dark correction enabled: true
Nonlinearity correction enabled: false
Boxcar width: 0
XAxis mode: Raman Shifts
Number of Pixels in Spectrum: 1044
>>>>>Begin Spectral Data<<<<<
46.04893	0.325
50.45542	0.225
54.85868	-0.675
59.25871	0.625
63.6555	35.725
68.04907	39.425
72.43941	41.125
76.82654	46.525
81.21044	49.625
85.59113	52.925
89.96862	52.925
94.34289	53.925
98.71396	57.425
103.08183	60.225
107.4465	60.225
111.80798	61.525
116.16626	57.525
120.52136	61.825
124.87327	62.425
129.222	62.925
133.56755	62.525
137.90993	62.125
142.24913	68.125
146.58517	68.825
150.91804	71.725
155.24774	80.725
159.57429	96.225
163.89768	112.125
168.21792	139.525
172.53501	180.425
176.84895	237.725
181.15975	320.525
185.46741	437.425
189.77193	585.125
194.07331	777.125
198.37157	985.625
202.6667	1204.125
206.9587	1414.725
211.24758	1631.125
215.53334	1838.625
219.81599	2057.925
224.09553	2300.825
228.37195	2580.725
232.64527	2872.925
236.91549	3140.825
241.18261	3401.225
245.44663	3596.825
249.70755	3752.525
253.96539	3853.825
258.22014	3935.825
262.4718	4016.425
266.72039	4067.425
270.96589	4091.325
275.20832	4082.725
279.44768	4009.225
283.68397	3932.625
287.91719	3874.025
292.14735	3887.425
296.37445	3962.525
300.59849	4117.625
304.81948	4283.125
309.03742	4408.325
313.25231	4397.125
317.46415	4188.625
321.67296	3850.725
325.87872	3561.225
330.08145	3416.625
334.28114	3372.525
338.47781	3409.025
342.67145	3493.425
346.86207	3654.025
351.04966	3875.525
355.23424	4146.725
359.4158	4374.125
363.59435	4489.725
367.76989	4549.225
371.94243	4564.425
376.11196	4578.025
380.27849	4597.525
384.44203	4547.325
388.60257	4492.925
392.76012	4452.425
396.91468	4476.625
401.06626	4568.225
405.21485	4614.125
409.36047	4494.625
413.50311	4216.625
417.64277	3933.025
421.77947	3789.625
425.9132	3719.825
430.04396	3701.025
434.17176	3739.325
438.2966	3793.725
442.41849	3927.425
446.53742	4086.425
450.6534	4211.625
454.76644	4267.925
458.87653	4263.225
462.98368	4207.125
467.08789	4137.425
471.18916	4047.525
475.2875	3990.325
479.38291	3964.725
483.4754	3985.925
487.56496	4075.625
491.6516	4192.925
495.73531	4251.825
499.81612	4206.325
503.89401	4142.725
507.96899	4092.525
512.04106	4119.925
516.11023	4242.225
520.1765	4395.025
524.23987	4457.825
528.30034	4413.725
532.35792	4298.925
536.41261	4121.525
540.46441	3905.725
544.51333	3772.025
548.55936	3712.625
552.60252	3712.525
556.64279	3786.925
560.6802	3813.125
564.71473	3837.325
568.7464	3985.025
572.7752	4057.025
576.80114	3965.025
580.82422	3864.325
584.84444	3910.825
588.86181	4061.325
592.87633	4222.925
596.888	4270.725
600.89682	4300.025
604.9028	4764.725
608.90594	6148.625
612.90624	7974.425
616.90371	7853.525
620.89834	6002.925
624.89015	5386.125
628.87913	5685.225
632.86528	6134.325
636.84862	6367.225
640.82913	6171.125
644.80683	5617.625
648.78172	5037.425
652.75379	4600.825
656.72306	4413.825
660.68952	4363.925
664.65319	4153.225
668.61405	3853.725
672.57211	3725.025
676.52738	3710.225
680.47986	3700.625
684.42955	3674.125
688.37646	3656.625
692.32058	3667.125
696.26192	3653.425
700.20048	3681.025
704.13626	3717.725
708.06928	3695.125
711.99952	3651.325
715.927	3675.025
719.85171	3767.725
723.77365	3854.025
727.69284	3845.125
731.60928	3797.125
735.52295	3715.525
739.43388	3670.225
743.34206	3676.825
747.24749	3670.325
751.15017	3682.325
755.05012	3717.525
758.94733	3907.225
762.8418	4358.525
766.73354	5105.825
770.62254	5895.225
774.50882	6379.625
778.39237	6136.125
782.27321	5279.525
786.15132	4395.325
790.02671	3927.125
793.89938	3747.725
797.76935	3750.725
801.6366	3909.525
805.50115	4206.625
809.36299	4481.325
813.22213	4515.925
817.07857	4377.725
820.93231	4112.625
824.78336	3846.225
828.63172	3637.325
832.47738	3537.325
836.32036	3477.725
840.16066	3410.225
843.99827	3376.725
847.8332	3338.825
851.66546	3345.425
855.49504	3345.325
859.32195	3343.125
863.1462	3372.025
866.96777	3435.725
870.78668	3567.025
874.60293	3778.425
878.41652	4010.225
882.22745	4207.225
886.03573	4319.025
889.84136	4293.425
893.64433	4122.025
897.44466	3897.725
901.24235	3660.025
905.0374	3469.825
908.8298	3334.625
912.61957	3268.925
916.40671	3235.325
920.19121	3218.525
923.97308	3239.625
927.75233	3263.625
931.52895	3298.725
935.30295	3265.125
939.07433	3136.425
942.84309	3039.725
946.60924	2978.725
950.37278	2936.325
954.13371	2923.925
957.89203	2911.725
961.64774	2890.225
965.40086	2876.525
969.15137	2863.625
972.89929	2841.025
976.64461	2840.125
980.38733	2838.325
984.12747	2829.525
987.86502	2866.625
991.59999	2899.125
995.33237	2986.125
999.06217	3093.725
1002.78939	3239.125
1006.51404	3404.825
1010.23611	3551.225
1013.95561	3660.925
1017.67255	3672.925
1021.38692	3585.525
1025.09872	3463.525
1028.80796	3320.125
1032.51465	3197.925
1036.21877	3157.925
1039.92035	3162.725
1043.61937	3160.625
1047.31584	3135.525
1051.00976	3138.225
1054.70114	3161.925
1058.38998	3180.125
1062.07627	3247.825
1065.76003	3333.625
1069.44126	3404.125
1073.11995	3429.525
1076.79611	3472.825
1080.46974	3504.625
1084.14085	3542.725
1087.80943	3569.725
1091.47549	3528.725
1095.13903	3393.525
1098.80005	3222.925
1102.45857	3134.225
1106.11456	3116.025
1109.76805	3221.625
1113.41903	3391.325
1117.06751	3675.325
1120.71348	4057.325
1124.35696	4565.425
1127.99793	5130.525
1131.63641	5488.525
1135.2724	5527.625
1138.90589	5365.825
1142.5369	5083.325
1146.16542	4661.025
1149.79145	4219.625
1153.415	3855.925
1157.03607	3590.325
1160.65467	3447.125
1164.27079	3473.525
1167.88443	3610.725
1171.49561	3917.025
1175.10432	4500.825
1178.71056	5274.425
1182.31434	5932.325
1185.91565	6195.125
1189.51451	6237.725
1193.11091	6149.525
1196.70485	6088.525
1200.29634	6071.825
1203.88538	5958.025
1207.47197	5605.525
1211.05612	5172.725
1214.63782	4771.725
1218.21708	4450.425
1221.79391	4162.225
1225.36829	3947.425
1228.94024	3774.125
1232.50976	3642.325
1236.07685	3578.725
1239.6415	3580.925
1243.20374	3639.125
1246.76355	3673.725
1250.32093	3716.625
1253.8759	3803.525
1257.42845	3916.525
1260.97859	4032.025
1264.52631	4144.325
1268.07163	4257.625
1271.61453	4351.925
1275.15503	4362.725
1278.69312	4326.025
1282.22882	4310.425
1285.76211	4367.925
1289.29301	4565.525
1292.82151	4793.525
1296.34761	5026.625
1299.87133	5340.325
1303.39266	5843.325
1306.9116	6579.525
1310.42815	7421.425
1313.94233	7914.025
1317.45412	7730.825
1320.96354	7146.125
1324.47058	6435.425
1327.97525	5850.525
1331.47754	5515.325
1334.97747	5459.425
1338.47502	5591.125
1341.97022	5832.725
1345.46305	6201.525
1348.95352	6745.225
1352.44163	7539.925
1355.92738	8595.525
1359.41078	9889.925
1362.89183	10906.125
1366.37053	10550.025
1369.84688	9046.725
1373.32088	7495.925
1376.79254	6399.525
1380.26186	5765.625
1383.72883	5388.325
1387.19347	5074.025
1390.65578	4770.225
1394.11575	4502.325
1397.57339	4346.825
1401.0287	4242.025
1404.48168	4160.025
1407.93234	4059.725
1411.38068	3992.225
1414.82669	3896.925
1418.27039	3829.325
1421.71177	3739.525
1425.15083	3667.125
1428.58758	3620.225
1432.02203	3666.825
1435.45416	3711.925
1438.88399	3751.425
1442.31151	3740.325
1445.73673	3736.425
1449.15965	3738.225
1452.58027	3672.125
1455.9986	3602.325
1459.41463	3541.425
1462.82837	3568.525
1466.23982	3679.325
1469.64898	3803.325
1473.05586	3894.625
1476.46045	3986.825
1479.86276	4115.325
1483.26279	4312.125
1486.66054	4514.425
1490.05602	4730.325
1493.44922	5017.625
1496.84016	5425.825
1500.22882	6048.825
1503.61521	6849.825
1506.99934	7714.025
1510.38121	8475.125
1513.76081	8734.925
1517.13816	8219.125
1520.51324	7118.325
1523.88607	6016.825
1527.25665	5288.125
1530.62498	4927.325
1533.99105	4799.925
1537.35488	4766.025
1540.71647	4782.525
1544.07581	4812.425
1547.4329	4884.925
1550.78776	4935.125
1554.14038	4924.925
1557.49077	4910.225
1560.83892	4918.925
1564.18484	5045.125
1567.52853	5188.425
1570.86999	5407.225
1574.20922	5544.825
1577.54624	5557.725
1580.88103	5288.025
1584.2136	4876.225
1587.54395	4603.225
1590.87208	4565.025
1594.19801	4764.725
1597.52172	5088.225
1600.84321	5315.025
1604.16251	5292.425
1607.47959	5062.325
1610.79447	4759.025
1614.10715	4454.425
1617.41763	4243.525
1620.7259	4107.125
1624.03199	4083.725
1627.33587	4135.625
1630.63757	4271.225
1633.93707	4522.025
1637.23439	4870.825
1640.52951	5434.625
1643.82246	6203.525
1647.11321	7059.525
1650.40179	7711.925
1653.68819	7695.225
1656.97241	6883.625
1660.25446	5838.425
1663.53433	4979.725
1666.81203	4315.225
1670.08756	3821.225
1673.36092	3477.325
1676.63211	3213.825
1679.90115	3014.925
1683.16801	2872.425
1686.43272	2761.025
1689.69527	2683.125
1692.95567	2607.725
1696.2139	2537.225
1699.46999	2484.325
1702.72392	2407.825
1705.97571	2349.525
1709.22535	2293.825
1712.47284	2262.625
1715.71819	2227.825
1718.96139	2203.925
1722.20246	2174.225
1725.44139	2144.025
1728.67818	2127.125
1731.91284	2085.625
1735.14537	2072.025
1738.37576	2042.825
1741.60403	2020.125
1744.83017	2003.025
1748.05418	1996.025
1751.27607	1990.925
1754.49584	1974.825
1757.71349	1967.325
1760.92903	1953.925
1764.14244	1951.525
1767.35375	1936.825
1770.56294	1931.425
1773.77002	1916.725
1776.97499	1889.825
1780.17785	1876.125
1783.37861	1875.825
1786.57727	1860.125
1789.77382	1848.825
1792.96828	1845.125
1796.16064	1839.725
1799.3509	1828.025
1802.53907	1816.325
1805.72514	1815.425
1808.90913	1800.225
1812.09102	1788.025
1815.27083	1780.425
1818.44856	1773.125
1821.6242	1778.325
1824.79776	1758.525
1827.96924	1755.325
1831.13864	1747.325
1834.30597	1741.825
1837.47122	1736.425
1840.6344	1731.725
1843.7955	1726.125
1846.95454	1716.125
1850.11151	1711.025
1853.26642	1711.025
1856.41926	1708.325
1859.57004	1707.925
1862.71876	1707.425
1865.86542	1697.925
1869.01003	1694.625
1872.15258	1684.525
1875.29308	1691.625
1878.43152	1678.525
1881.56792	1675.525
1884.70227	1680.325
1887.83457	1663.625
1890.96482	1665.425
1894.09304	1659.625
1897.21921	1659.425
1900.34335	1650.525
1903.46544	1647.525
1906.58551	1646.925
1909.70353	1650.725
1912.81953	1644.025
1915.93349	1637.325
1919.04543	1622.225
1922.15534	1632.025
1925.26322	1621.425
1928.36908	1617.225
1931.47292	1613.125
1934.57473	1597.925
1937.67453	1597.925
1940.77232	1586.325
1943.86808	1593.425
1946.96184	1576.225
1950.05358	1574.725
1953.14331	1571.225
1956.23103	1564.825
1959.31675	1552.525
1962.40046	1554.825
1965.48217	1555.525
1968.56188	1546.725
1971.63959	1540.725
1974.7153	1534.025
1977.78901	1521.925
1980.86073	1527.025
1983.93046	1511.325
1986.99819	1506.725
1990.06394	1503.625
1993.1277	1492.825
1996.18947	1482.825
1999.24925	1482.925
2002.30706	1474.825
2005.36288	1461.225
2008.41672	1462.225
2011.46859	1453.525
2014.51848	1453.725
2017.56639	1449.525
2020.61233	1432.225
2023.6563	1434.025
2026.6983	1423.125
2029.73833	1420.625
2032.7764	1416.725
2035.8125	1412.125
2038.84664	1413.625
2041.87881	1418.025
2044.90903	1403.625
2047.93729	1408.225
2050.96359	1402.025
2053.98794	1405.125
2057.01034	1398.825
2060.03078	1385.725
2063.04927	1396.525
2066.06582	1394.125
2069.08042	1385.425
2072.09307	1382.325
2075.10378	1379.825
2078.11255	1382.725
2081.11938	1378.925
2084.12426	1388.225
2087.12722	1375.525
2090.12824	1378.225
2093.12732	1370.125
2096.12447	1370.125
2099.11969	1379.625
2102.11299	1360.025
2105.10435	1371.325
2108.09379	1366.725
2111.08131	1365.525
2114.0669	1359.825
2117.05057	1367.225
2120.03233	1362.025
2123.01216	1367.925
2125.99008	1364.625
2128.96609	1364.425
2131.94018	1362.125
2134.91236	1362.125
2137.88263	1367.425
2140.851	1365.025
2143.81746	1371.025
2146.78201	1360.625
2149.74466	1350.225
2152.7054	1346.725
2155.66425	1341.325
2158.6212	1341.125
2161.57625	1342.425
2164.52941	1332.225
2167.48067	1337.925
2170.43004	1325.125
2173.37752	1338.925
2176.32311	1330.225
2179.26681	1336.225
2182.20863	1331.425
2185.14856	1328.725
2188.08661	1324.825
2191.02278	1324.125
2193.95707	1322.925
2196.88948	1330.325
2199.82001	1316.925
2202.74867	1315.225
2205.67545	1309.925
2208.60037	1315.525
2211.52341	1301.625
2214.44458	1300.225
2217.36388	1296.225
2220.28132	1291.925
2223.1969	1284.025
2226.11061	1284.325
2229.02246	1280.825
2231.93245	1280.425
2234.84058	1268.825
2237.74686	1284.225
2240.65128	1271.225
2243.55385	1276.725
2246.45456	1263.125
2249.35343	1263.725
2252.25044	1269.925
2255.14561	1266.425
2258.03893	1262.025
2260.93041	1257.425
2263.82004	1264.025
2266.70783	1262.425
2269.59378	1254.725
2272.4779	1247.725
2275.36017	1251.425
2278.24061	1239.625
2281.11922	1229.225
2283.996	1244.625
2286.87094	1228.925
2289.74405	1221.925
2292.61534	1215.925
2295.4848	1214.825
2298.35243	1208.925
2301.21824	1210.325
2304.08223	1212.425
2306.94439	1201.025
2309.80474	1200.525
2312.66327	1199.525
2315.51999	1210.525
2318.37489	1191.225
2321.22797	1194.325
2324.07925	1188.425
2326.92871	1180.825
2329.77637	1192.825
2332.62222	1186.825
2335.46626	1180.425
2338.3085	1182.325
2341.14893	1169.225
2343.98756	1179.625
2346.8244	1168.025
2349.65943	1171.125
2352.49267	1167.125
2355.32411	1172.525
2358.15376	1176.225
2360.98161	1189.325
2363.80768	1182.525
2366.63195	1190.725
2369.45444	1194.125
2372.27514	1197.825
2375.09405	1191.225
2377.91118	1192.925
2380.72652	1189.925
2383.54009	1180.825
2386.35187	1181.725
2389.16188	1164.525
2391.97011	1158.925
2394.77657	1157.325
2397.58125	1153.525
2400.38416	1151.725
2403.18529	1136.125
2405.98466	1133.625
2408.78226	1135.425
2411.57809	1131.525
2414.37216	1132.325
2417.16446	1130.025
2419.955	1127.125
2422.74378	1123.125
2425.5308	1117.625
2428.31606	1120.925
2431.09956	1119.925
2433.88131	1113.325
2436.6613	1117.625
2439.43954	1112.725
2442.21603	1122.825
2444.99077	1113.125
2447.76377	1115.725
2450.53501	1108.525
2453.30451	1115.025
2456.07226	1107.925
2458.83827	1107.725
2461.60254	1116.325
2464.36507	1113.525
2467.12586	1111.825
2469.88492	1105.425
2472.64224	1103.025
2475.39782	1114.825
2478.15167	1106.625
2480.90379	1107.725
2483.65417	1104.625
2486.40283	1118.225
2489.14976	1121.025
2491.89497	1128.525
2494.63845	1131.725
2497.3802	1119.525
2500.12024	1114.525
2502.85855	1113.525
2505.59514	1108.725
2508.33002	1107.925
2511.06318	1090.725
2513.79462	1081.725
2516.52435	1075.525
2519.25237	1077.225
2521.97867	1071.525
2524.70327	1065.425
2527.42616	1060.425
2530.14734	1063.325
2532.86681	1055.825
2535.58458	1056.525
2538.30065	1057.725
2541.01501	1052.825
2543.72768	1058.425
2546.43864	1061.025
2549.14791	1045.625
2551.85548	1055.025
2554.56136	1052.925
2557.26554	1049.925
2559.96803	1058.625
2562.66883	1040.125
2565.36794	1038.825
2568.06536	1045.925
2570.7611	1044.525
2573.45514	1033.025
2576.14751	1038.625
2578.83819	1030.025
2581.52719	1029.225
2584.21451	1032.925
2586.90015	1029.425
2589.58411	1029.625
2592.2664	1017.225
2594.94701	1017.525
2597.62594	1019.025
2600.30321	1012.425
2602.9788	1020.725
2605.65273	1017.825
2608.32498	1018.125
2610.99557	1013.925
2613.66449	1013.625
2616.33175	1019.225
2618.99734	1008.825
2621.66128	1013.325
2624.32355	1008.525
2626.98416	1012.125
2629.64311	999.825
2632.30041	993.125
2634.95605	989.925
2637.61004	998.525
2640.26238	994.125
2642.91306	985.225
2645.56209	983.825
2648.20948	991.725
2650.85521	989.125
2653.4993	984.925
2656.14175	988.125
2658.78255	990.625
2661.42171	993.625
2664.05923	994.625
2666.6951	999.525
2669.32934	994.525
2671.96194	993.725
2674.59291	1007.825
2677.22224	1000.325
2679.84993	1009.525
2682.476	1008.525
2685.10043	1009.925
2687.72324	1011.325
2690.34441	1011.125
2692.96396	1012.925
2695.58188	1008.025
2698.19818	1011.625
2700.81285	1016.925
2703.4259	1023.925
2706.03733	1033.225
2708.64714	1029.425
2711.25533	1029.725
2713.86191	1030.925
2716.46687	1041.225
2719.07021	1043.425
2721.67194	1048.925
2724.27206	1041.525
2726.87057	1050.325
2729.46747	1033.725
2732.06276	1040.725
2734.65644	1029.825
2737.24852	1036.725
2739.83899	1026.425
2742.42786	1026.625
2745.01513	1031.125
2747.60079	1027.825
2750.18486	1023.125
2752.76733	1022.725
2755.3482	1019.025
2757.92747	1018.025
2760.50515	1020.525
2763.08123	1018.525
2765.65573	1021.125
2768.22863	1013.925
2770.79994	1022.325
2773.36967	1021.325
2775.9378	1026.325
2778.50435	1025.425
2781.06932	1032.425
2783.6327	1030.625
2786.1945	1046.325
2788.75471	1049.525
2791.31335	1054.125
2793.87041	1053.925
2796.42589	1060.925
2798.97979	1064.825
2801.53212	1059.825
2804.08288	1070.625
2806.63206	1076.225
2809.17967	1083.825
2811.72571	1081.725
2814.27018	1079.425
2816.81308	1086.525
2819.35442	1089.725
2821.89419	1086.525
2824.43239	1099.425
2826.96904	1107.425
2829.50412	1099.125
2832.03763	1111.925
2834.56959	1108.925
2837.1	1121.425
2839.62884	1133.425
2842.15613	1140.225
2844.68186	1161.925
2847.20604	1175.025
2849.72867	1199.125
2852.24974	1198.725
2854.76927	1218.925
2857.28724	1208.425
2859.80367	1205.025
2862.31855	1199.125
2864.83189	1194.825
2867.34368	1195.825
2869.85393	1180.225
2872.36264	1183.625
2874.8698	1189.625
2877.37543	1182.525
2879.87952	1182.525
2882.38207	1182.925
2884.88308	1174.225
2887.38256	1178.925
2889.88051	1171.825
2892.37692	1169.325
2894.8718	1169.725
2897.36515	1171.925
2899.85698	1181.425
2902.34727	1182.425
2904.83604	1185.025
2907.32328	1179.525
2909.809	1187.325
2912.29319	1179.925
2914.77587	1181.725
2917.25702	1190.825
2919.73665	1177.825
2922.21476	1176.525
2924.69136	1173.325
2927.16644	1172.325
2929.64	1160.825
2932.11205	1153.725
2934.58258	1148.525
2937.05161	1136.825
2939.51912	1124.825
2941.98513	1122.625
2944.44962	1098.025
2946.91261	1087.625
2949.37409	1077.825
2951.83407	1063.725
2954.29254	1057.625
2956.74951	1047.725
2959.20498	1037.125
2961.65895	1036.225
2964.11142	1033.425
2966.56239	1019.825
2969.01186	995.625
2971.45984	1007.425
2973.90632	1018.325
2976.35131	1016.825
2978.7948	1008.225
2981.23681	1007.825
2983.67732	1006.925
2986.11635	997.725
2988.55388	991.825
2990.98993	1001.125
2993.4245	989.725
2995.85758	994.825
2998.28917	989.125
3000.71928	987.725
3003.14791	993.225
3005.57506	979.925
3008.00073	989.025
3010.42493	996.925
3012.84764	984.125
3015.26888	988.825
3017.68865	994.525
3020.10694	991.525
3022.52376	995.125
3024.9391	994.225
3027.35298	1001.125
3029.76539	997.525
3032.17632	1002.725
3034.5858	1005.425
3036.9938	1008.425
3039.40034	1008.225
3041.80542	1001.125
3044.20903	1007.625
3046.61118	1013.125
3049.01187	1013.025
3051.4111	1017.025
3053.80888	1017.825
3056.20519	1022.525
3058.60005	1022.825
3060.99345	1036.825
3063.3854	1026.625
3065.7759	1034.225
3068.16494	1033.225
3070.55254	1037.825
3072.93868	1038.325
3075.32338	1042.225
3077.70662	1046.025
3080.08842	1044.925
3082.46878	1038.725
3084.84769	1050.025
3087.22515	1052.725
3089.60118	1056.425
3091.97576	1061.025
3094.3489	1059.625
3096.72061	1063.425
3099.09087	1073.725
3101.4597	1075.525
3103.82709	1081.225
3106.19305	1088.025
3108.55757	1095.525
3110.92066	1098.825
3113.28232	1102.025
3115.64255	1102.825
3118.00134	1105.725
3120.35871	1119.025
3122.71466	1119.825
3125.06917	1131.025
3127.42226	1133.125
3129.77393	1149.425
3132.12417	1147.725
3134.47299	1158.925
3136.82039	1173.125
3139.16636	1176.525
3141.51092	1176.625
3143.85406	1195.725
3146.19579	1196.425
3148.53609	1208.625
3150.87499	1218.125
3153.21246	1235.725
3155.54853	1236.725
3157.88318	1241.625
3160.21642	1257.325
3162.54826	1259.725
3164.87868	1276.625
3167.2077	1282.525
3169.5353	1293.325
3171.86151	1294.525
3174.18631	1307.825
3176.5097	1309.825
3178.83169	1313.525
3181.15228	1328.025
3183.47147	1323.025
3185.78926	1338.325
3188.10565	1329.925
3190.42065	1346.825
3192.73424	1360.325
3195.04645	1364.525
3197.35725	1366.525
3199.66667	1374.025
3201.97469	1388.925
3204.28132	1394.525
3206.58656	1398.425
3208.8904	1401.925
3211.19287	1415.925
3213.49394	1422.425
3215.79363	1427.025
3218.09193	1433.225
3220.38884	1440.525
3222.68438	1441.325
3224.97853	1447.625
3227.2713	1441.725
3229.56269	1453.225
3231.8527	1459.925
3234.14133	1457.725
3236.42858	1457.325
3238.71446	1457.225
3240.99896	1446.025
