Data from AgNPs_APTES_FTO_UA_50uM_CRN_0uM_R6G_10uM_Scan_RamanShift__24__11-39-03-680.txt Node

Date: Tue Jul 05 11:39:03 BST 2022
User: TCL
Spectrometer: QEP01345
Trigger mode: 4
Integration Time (sec): 7.000000E0
Scans to average: 10
Electric dark correction enabled: true
Nonlinearity correction enabled: false
Boxcar width: 0
XAxis mode: Raman Shifts
Number of Pixels in Spectrum: 1044
>>>>>Begin Spectral Data<<<<<
46.04893	-0.5125
50.45542	-0.1125
54.85868	-0.1125
59.25871	0.9875
63.6555	36.2875
68.04907	41.6875
72.43941	41.6875
76.82654	44.6875
81.21044	48.1875
85.59113	51.2875
89.96862	51.9875
94.34289	54.6875
98.71396	56.8875
103.08183	59.3875
107.4465	58.1875
111.80798	62.1875
116.16626	57.1875
120.52136	58.9875
124.87327	62.0875
129.222	60.4875
133.56755	64.8875
137.90993	62.8875
142.24913	66.8875
146.58517	73.6875
150.91804	80.5875
155.24774	92.0875
159.57429	108.2875
163.89768	127.3875
168.21792	166.1875
172.53501	219.1875
176.84895	295.3875
181.15975	408.4875
185.46741	571.8875
189.77193	764.7875
194.07331	1032.4875
198.37157	1319.2875
202.6667	1607.8875
206.9587	1923.3875
211.24758	2217.7875
215.53334	2519.0875
219.81599	2826.5875
224.09553	3197.7875
228.37195	3568.0875
232.64527	3989.7875
236.91549	4411.8875
241.18261	4831.3875
245.44663	5202.4875
249.70755	5497.7875
253.96539	5765.7875
258.22014	5961.2875
262.4718	6142.1875
266.72039	6272.8875
270.96589	6327.1875
275.20832	6315.5875
279.44768	6220.8875
283.68397	6086.1875
287.91719	5998.3875
292.14735	5959.8875
296.37445	5970.0875
300.59849	6047.5875
304.81948	6147.3875
309.03742	6215.3875
313.25231	6211.9875
317.46415	6046.8875
321.67296	5836.9875
325.87872	5605.1875
330.08145	5494.8875
334.28114	5495.9875
338.47781	5512.0875
342.67145	5596.4875
346.86207	5736.1875
351.04966	5907.8875
355.23424	6122.5875
359.4158	6303.0875
363.59435	6444.4875
367.76989	6519.5875
371.94243	6576.1875
376.11196	6621.0875
380.27849	6658.2875
384.44203	6666.6875
388.60257	6656.6875
392.76012	6645.7875
396.91468	6667.3875
401.06626	6743.3875
405.21485	6799.1875
409.36047	6698.6875
413.50311	6500.8875
417.64277	6267.2875
421.77947	6154.9875
425.9132	6121.1875
430.04396	6112.9875
434.17176	6152.9875
438.2966	6197.4875
442.41849	6288.4875
446.53742	6378.2875
450.6534	6513.9875
454.76644	6549.4875
458.87653	6541.6875
462.98368	6485.3875
467.08789	6438.2875
471.18916	6401.5875
475.2875	6354.6875
479.38291	6304.1875
483.4754	6306.7875
487.56496	6338.2875
491.6516	6406.1875
495.73531	6480.2875
499.81612	6482.7875
503.89401	6510.0875
507.96899	6518.9875
512.04106	6554.4875
516.11023	6649.9875
520.1765	6677.8875
524.23987	6690.5875
528.30034	6688.3875
532.35792	6640.4875
536.41261	6564.8875
540.46441	6451.7875
544.51333	6373.9875
548.55936	6343.9875
552.60252	6388.0875
556.64279	6463.4875
560.6802	6485.3875
564.71473	6508.4875
568.7464	6584.9875
572.7752	6658.9875
576.80114	6600.4875
580.82422	6518.7875
584.84444	6545.1875
588.86181	6631.2875
592.87633	6743.1875
596.888	6862.2875
600.89682	6958.9875
604.9028	7366.2875
608.90594	8536.2875
612.90624	10102.4875
616.90371	9870.4875
620.89834	8022.9875
624.89015	7189.3875
628.87913	7205.4875
632.86528	7438.0875
636.84862	7632.2875
640.82913	7585.3875
644.80683	7254.8875
648.78172	6910.3875
652.75379	6707.7875
656.72306	6721.6875
660.68952	6773.9875
664.65319	6687.4875
668.61405	6480.3875
672.57211	6389.0875
676.52738	6414.5875
680.47986	6467.7875
684.42955	6495.8875
688.37646	6501.9875
692.32058	6441.1875
696.26192	6377.6875
700.20048	6371.3875
704.13626	6360.6875
708.06928	6344.0875
711.99952	6331.4875
715.927	6314.4875
719.85171	6339.8875
723.77365	6402.0875
727.69284	6380.7875
731.60928	6338.0875
735.52295	6300.9875
739.43388	6284.6875
743.34206	6278.0875
747.24749	6263.7875
751.15017	6277.5875
755.05012	6302.8875
758.94733	6432.7875
762.8418	6813.7875
766.73354	7492.1875
770.62254	8347.7875
774.50882	8804.7875
778.39237	8532.2875
782.27321	7684.9875
786.15132	6930.3875
790.02671	6484.1875
793.89938	6294.5875
797.76935	6227.7875
801.6366	6263.8875
805.50115	6350.7875
809.36299	6453.1875
813.22213	6455.3875
817.07857	6406.0875
820.93231	6278.1875
824.78336	6179.6875
828.63172	6098.7875
832.47738	6060.0875
836.32036	6019.9875
840.16066	5985.0875
843.99827	6023.7875
847.8332	6004.9875
851.66546	5999.9875
855.49504	5977.9875
859.32195	5974.5875
863.1462	5972.3875
866.96777	5981.4875
870.78668	6028.1875
874.60293	6118.7875
878.41652	6200.6875
882.22745	6299.4875
886.03573	6363.3875
889.84136	6382.2875
893.64433	6335.8875
897.44466	6233.6875
901.24235	6117.8875
905.0374	6051.5875
908.8298	5971.3875
912.61957	5948.4875
916.40671	5965.6875
920.19121	5994.3875
923.97308	6054.6875
927.75233	6095.4875
931.52895	6119.4875
935.30295	6079.9875
939.07433	5950.4875
942.84309	5820.2875
946.60924	5719.4875
950.37278	5623.7875
954.13371	5575.6875
957.89203	5552.1875
961.64774	5504.8875
965.40086	5445.0875
969.15137	5415.6875
972.89929	5388.6875
976.64461	5365.6875
980.38733	5347.7875
984.12747	5311.6875
987.86502	5302.0875
991.59999	5311.1875
995.33237	5340.7875
999.06217	5397.0875
1002.78939	5475.4875
1006.51404	5568.7875
1010.23611	5665.3875
1013.95561	5722.6875
1017.67255	5736.0875
1021.38692	5684.9875
1025.09872	5620.7875
1028.80796	5501.8875
1032.51465	5434.5875
1036.21877	5384.0875
1039.92035	5369.2875
1043.61937	5367.0875
1047.31584	5377.5875
1051.00976	5398.0875
1054.70114	5395.3875
1058.38998	5415.7875
1062.07627	5464.0875
1065.76003	5483.8875
1069.44126	5485.0875
1073.11995	5493.3875
1076.79611	5527.9875
1080.46974	5546.5875
1084.14085	5598.7875
1087.80943	5651.1875
1091.47549	5694.3875
1095.13903	5627.9875
1098.80005	5493.5875
1102.45857	5360.8875
1106.11456	5322.4875
1109.76805	5359.0875
1113.41903	5460.2875
1117.06751	5648.9875
1120.71348	5897.7875
1124.35696	6200.8875
1127.99793	6536.2875
1131.63641	6779.0875
1135.2724	6726.3875
1138.90589	6540.2875
1142.5369	6275.1875
1146.16542	5985.8875
1149.79145	5744.7875
1153.415	5542.5875
1157.03607	5411.4875
1160.65467	5366.1875
1164.27079	5415.2875
1167.88443	5590.7875
1171.49561	5892.2875
1175.10432	6387.6875
1178.71056	7092.7875
1182.31434	7710.5875
1185.91565	7886.0875
1189.51451	7675.7875
1193.11091	7314.7875
1196.70485	6979.5875
1200.29634	6736.4875
1203.88538	6553.8875
1207.47197	6270.1875
1211.05612	5989.0875
1214.63782	5743.8875
1218.21708	5599.0875
1221.79391	5516.9875
1225.36829	5466.3875
1228.94024	5449.4875
1232.50976	5401.4875
1236.07685	5332.8875
1239.6415	5330.2875
1243.20374	5309.8875
1246.76355	5341.2875
1250.32093	5360.5875
1253.8759	5432.4875
1257.42845	5517.9875
1260.97859	5657.9875
1264.52631	5784.8875
1268.07163	5924.8875
1271.61453	6043.6875
1275.15503	6114.5875
1278.69312	6132.8875
1282.22882	6141.0875
1285.76211	6209.0875
1289.29301	6361.2875
1292.82151	6545.2875
1296.34761	6774.4875
1299.87133	7078.7875
1303.39266	7557.4875
1306.9116	8231.1875
1310.42815	9022.3875
1313.94233	9505.7875
1317.45412	9373.3875
1320.96354	8791.6875
1324.47058	8098.1875
1327.97525	7502.7875
1331.47754	7079.4875
1334.97747	6892.4875
1338.47502	6853.9875
1341.97022	6967.4875
1345.46305	7198.6875
1348.95352	7717.3875
1352.44163	8426.9875
1355.92738	9405.0875
1359.41078	10731.8875
1362.89183	12044.0875
1366.37053	12128.5875
1369.84688	10683.7875
1373.32088	8946.6875
1376.79254	7780.3875
1380.26186	7182.3875
1383.72883	6895.5875
1387.19347	6643.8875
1390.65578	6407.0875
1394.11575	6218.5875
1397.57339	6071.6875
1401.0287	5977.5875
1404.48168	5899.8875
1407.93234	5777.0875
1411.38068	5668.7875
1414.82669	5562.8875
1418.27039	5482.9875
1421.71177	5401.8875
1425.15083	5325.1875
1428.58758	5236.7875
1432.02203	5222.0875
1435.45416	5248.3875
1438.88399	5285.0875
1442.31151	5288.2875
1445.73673	5269.9875
1449.15965	5274.0875
1452.58027	5265.3875
1455.9986	5213.9875
1459.41463	5199.2875
1462.82837	5205.0875
1466.23982	5277.7875
1469.64898	5350.7875
1473.05586	5419.1875
1476.46045	5452.5875
1479.86276	5492.0875
1483.26279	5595.2875
1486.66054	5664.8875
1490.05602	5824.1875
1493.44922	6069.9875
1496.84016	6440.4875
1500.22882	7051.3875
1503.61521	7892.0875
1506.99934	8947.4875
1510.38121	9897.4875
1513.76081	10345.2875
1517.13816	9845.6875
1520.51324	8712.9875
1523.88607	7574.2875
1527.25665	6737.6875
1530.62498	6314.0875
1533.99105	6065.0875
1537.35488	5903.1875
1540.71647	5794.8875
1544.07581	5730.9875
1547.4329	5717.2875
1550.78776	5744.4875
1554.14038	5787.9875
1557.49077	5855.0875
1560.83892	5946.7875
1564.18484	6075.7875
1567.52853	6252.2875
1570.86999	6416.7875
1574.20922	6540.6875
1577.54624	6546.9875
1580.88103	6292.4875
1584.2136	5894.5875
1587.54395	5599.3875
1590.87208	5508.7875
1594.19801	5628.3875
1597.52172	5886.3875
1600.84321	6065.9875
1604.16251	5997.2875
1607.47959	5785.5875
1610.79447	5548.0875
1614.10715	5328.7875
1617.41763	5135.0875
1620.7259	5016.6875
1624.03199	4954.7875
1627.33587	4949.2875
1630.63757	5014.7875
1633.93707	5135.8875
1637.23439	5356.9875
1640.52951	5758.8875
1643.82246	6372.9875
1647.11321	7157.0875
1650.40179	7784.2875
1653.68819	7764.1875
1656.97241	7031.0875
1660.25446	6066.9875
1663.53433	5372.9875
1666.81203	4899.4875
1670.08756	4604.4875
1673.36092	4451.2875
1676.63211	4326.9875
1679.90115	4234.0875
1683.16801	4162.3875
1686.43272	4100.8875
1689.69527	4062.4875
1692.95567	4005.2875
1696.2139	3968.0875
1699.46999	3919.7875
1702.72392	3858.0875
1705.97571	3793.0875
1709.22535	3715.6875
1712.47284	3650.8875
1715.71819	3605.8875
1718.96139	3557.7875
1722.20246	3511.4875
1725.44139	3456.7875
1728.67818	3417.5875
1731.91284	3381.9875
1735.14537	3330.4875
1738.37576	3303.1875
1741.60403	3275.6875
1744.83017	3256.2875
1748.05418	3240.4875
1751.27607	3224.5875
1754.49584	3199.7875
1757.71349	3181.3875
1760.92903	3164.1875
1764.14244	3150.4875
1767.35375	3148.1875
1770.56294	3125.1875
1773.77002	3108.4875
1776.97499	3108.3875
1780.17785	3102.4875
1783.37861	3089.7875
1786.57727	3076.8875
1789.77382	3073.6875
1792.96828	3051.9875
1796.16064	3047.9875
1799.3509	3022.0875
1802.53907	3013.0875
1805.72514	2997.5875
1808.90913	2994.4875
1812.09102	2986.3875
1815.27083	2974.6875
1818.44856	2958.9875
1821.6242	2951.7875
1824.79776	2943.1875
1827.96924	2922.2875
1831.13864	2902.1875
1834.30597	2906.5875
1837.47122	2905.1875
1840.6344	2877.9875
1843.7955	2877.3875
1846.95454	2868.8875
1850.11151	2870.4875
1853.26642	2855.1875
1856.41926	2855.8875
1859.57004	2849.0875
1862.71876	2853.1875
1865.86542	2835.4875
1869.01003	2846.3875
1872.15258	2826.4875
1875.29308	2823.7875
1878.43152	2808.1875
1881.56792	2806.6875
1884.70227	2805.3875
1887.83457	2804.0875
1890.96482	2782.5875
1894.09304	2785.1875
1897.21921	2767.3875
1900.34335	2777.3875
1903.46544	2761.5875
1906.58551	2750.1875
1909.70353	2750.0875
1912.81953	2735.8875
1915.93349	2738.9875
1919.04543	2731.3875
1922.15534	2719.9875
1925.26322	2710.5875
1928.36908	2698.2875
1931.47292	2664.4875
1934.57473	2667.1875
1937.67453	2659.2875
1940.77232	2649.1875
1943.86808	2638.2875
1946.96184	2627.7875
1950.05358	2617.5875
1953.14331	2600.7875
1956.23103	2593.0875
1959.31675	2576.4875
1962.40046	2572.2875
1965.48217	2716.9875
1968.56188	2576.7875
1971.63959	2548.2875
1974.7153	2530.7875
1977.78901	2525.5875
1980.86073	2515.6875
1983.93046	2502.6875
1986.99819	2483.7875
1990.06394	2480.0875
1993.1277	2461.9875
1996.18947	2458.2875
1999.24925	2448.7875
2002.30706	2426.4875
2005.36288	2420.1875
2008.41672	2419.0875
2011.46859	2411.3875
2014.51848	2394.0875
2017.56639	2383.7875
2020.61233	2377.3875
2023.6563	2371.3875
2026.6983	2347.5875
2029.73833	2349.5875
2032.7764	2339.5875
2035.8125	2329.5875
2038.84664	2327.3875
2041.87881	2317.4875
2044.90903	2310.1875
2047.93729	2301.9875
2050.96359	2314.3875
2053.98794	2296.7875
2057.01034	2285.8875
2060.03078	2273.5875
2063.04927	2291.1875
2066.06582	2278.0875
2069.08042	2276.7875
2072.09307	2253.0875
2075.10378	2266.2875
2078.11255	2263.3875
2081.11938	2261.9875
2084.12426	2260.6875
2087.12722	2255.2875
2090.12824	2246.1875
2093.12732	2243.6875
2096.12447	2247.1875
2099.11969	2244.1875
2102.11299	2228.6875
2105.10435	2239.5875
2108.09379	2229.1875
2111.08131	2228.7875
2114.0669	2228.0875
2117.05057	2239.8875
2120.03233	2228.8875
2123.01216	2224.6875
2125.99008	2239.8875
2128.96609	2225.9875
2131.94018	2218.9875
2134.91236	2229.1875
2137.88263	2215.0875
2140.851	2215.0875
2143.81746	2213.1875
2146.78201	2216.6875
2149.74466	2211.0875
2152.7054	2193.5875
2155.66425	2203.7875
2158.6212	2184.5875
2161.57625	2180.2875
2164.52941	2175.4875
2167.48067	2174.0875
2170.43004	2185.9875
2173.37752	2167.6875
2176.32311	2163.1875
2179.26681	2167.4875
2182.20863	2154.5875
2185.14856	2165.5875
2188.08661	2162.0875
2191.02278	2145.5875
2193.95707	2142.8875
2196.88948	2149.3875
2199.82001	2156.5875
2202.74867	2135.0875
2205.67545	2125.0875
2208.60037	2129.8875
2211.52341	2108.8875
2214.44458	2101.2875
2217.36388	2100.6875
2220.28132	2096.4875
2223.1969	2092.3875
2226.11061	2085.4875
2229.02246	2083.5875
2231.93245	2063.4875
2234.84058	2057.3875
2237.74686	2051.0875
2240.65128	2043.0875
2243.55385	2047.4875
2246.45456	2043.6875
2249.35343	2041.2875
2252.25044	2032.2875
2255.14561	2024.9875
2258.03893	2025.2875
2260.93041	2024.0875
2263.82004	2012.0875
2266.70783	2013.2875
2269.59378	1999.7875
2272.4779	1994.0875
2275.36017	1986.0875
2278.24061	1972.7875
2281.11922	1968.0875
2283.996	1960.7875
2286.87094	1958.6875
2289.74405	1957.8875
2292.61534	1943.0875
2295.4848	1936.2875
2298.35243	1941.4875
2301.21824	1933.4875
2304.08223	1927.3875
2306.94439	1917.6875
2309.80474	1916.5875
2312.66327	1921.2875
2315.51999	1918.1875
2318.37489	1915.1875
2321.22797	1891.8875
2324.07925	1896.6875
2326.92871	1894.1875
2329.77637	1897.6875
2332.62222	1893.1875
2335.46626	1877.5875
2338.3085	1871.5875
2341.14893	1860.8875
2343.98756	1868.9875
2346.8244	1869.3875
2349.65943	1861.7875
2352.49267	1856.0875
2355.32411	1861.4875
2358.15376	1867.3875
2360.98161	1858.7875
2363.80768	1866.7875
2366.63195	1867.3875
2369.45444	1869.5875
2372.27514	1868.5875
2375.09405	1861.3875
2377.91118	1856.7875
2380.72652	1847.1875
2383.54009	1832.3875
2386.35187	1825.1875
2389.16188	1805.3875
2391.97011	1805.4875
2394.77657	1801.9875
2397.58125	1787.3875
2400.38416	1793.3875
2403.18529	1770.3875
2405.98466	1765.8875
2408.78226	1768.6875
2411.57809	1755.1875
2414.37216	1756.4875
2417.16446	1748.6875
2419.955	1748.7875
2422.74378	1747.9875
2425.5308	1738.0875
2428.31606	1746.4875
2431.09956	1739.4875
2433.88131	1750.5875
2436.6613	1733.3875
2439.43954	1734.0875
2442.21603	1736.6875
2444.99077	1734.2875
2447.76377	1714.9875
2450.53501	1720.2875
2453.30451	1722.6875
2456.07226	1717.7875
2458.83827	1714.3875
2461.60254	1703.3875
2464.36507	1711.0875
2467.12586	1710.0875
2469.88492	1707.7875
2472.64224	1689.7875
2475.39782	1700.9875
2478.15167	1697.6875
2480.90379	1699.8875
2483.65417	1697.7875
2486.40283	1693.4875
2489.14976	1697.8875
2491.89497	1699.5875
2494.63845	1689.4875
2497.3802	1681.4875
2500.12024	1680.1875
2502.85855	1674.4875
2505.59514	1667.3875
2508.33002	1667.0875
2511.06318	1653.2875
2513.79462	1643.3875
2516.52435	1637.8875
2519.25237	1647.5875
2521.97867	1629.1875
2524.70327	1621.6875
2527.42616	1609.4875
2530.14734	1610.1875
2532.86681	1595.2875
2535.58458	1603.7875
2538.30065	1593.7875
2541.01501	1585.8875
2543.72768	1589.4875
2546.43864	1583.1875
2549.14791	1583.2875
2551.85548	1585.1875
2554.56136	1569.1875
2557.26554	1577.3875
2559.96803	1572.2875
2562.66883	1566.2875
2565.36794	1565.3875
2568.06536	1545.2875
2570.7611	1543.9875
2573.45514	1551.7875
2576.14751	1541.5875
2578.83819	1543.9875
2581.52719	1530.9875
2584.21451	1532.2875
2586.90015	1530.6875
2589.58411	1513.5875
2592.2664	1522.5875
2594.94701	1515.3875
2597.62594	1510.0875
2600.30321	1503.4875
2602.9788	1495.8875
2605.65273	1500.6875
2608.32498	1490.7875
2610.99557	1490.2875
2613.66449	1490.8875
2616.33175	1496.9875
2618.99734	1482.2875
2621.66128	1479.9875
2624.32355	1473.5875
2626.98416	1478.0875
2629.64311	1471.9875
2632.30041	1471.4875
2634.95605	1463.4875
2637.61004	1455.4875
2640.26238	1456.7875
2642.91306	1450.9875
2645.56209	1451.2875
2648.20948	1453.8875
2650.85521	1449.0875
2653.4993	1449.8875
2656.14175	1446.8875
2658.78255	1446.8875
2661.42171	1443.6875
2664.05923	1451.7875
2666.6951	1439.5875
2669.32934	1441.0875
2671.96194	1441.9875
2674.59291	1443.6875
2677.22224	1439.3875
2679.84993	1433.4875
2682.476	1435.3875
2685.10043	1440.1875
2687.72324	1434.4875
2690.34441	1434.0875
2692.96396	1426.2875
2695.58188	1439.9875
2698.19818	1432.0875
2700.81285	1427.4875
2703.4259	1427.8875
2706.03733	1415.5875
2708.64714	1420.5875
2711.25533	1426.9875
2713.86191	1421.7875
2716.46687	1438.1875
2719.07021	1427.2875
2721.67194	1434.8875
2724.27206	1432.1875
2726.87057	1436.0875
2729.46747	1430.8875
2732.06276	1437.1875
2734.65644	1436.9875
2737.24852	1419.5875
2739.83899	1420.2875
2742.42786	1414.3875
2745.01513	1408.8875
2747.60079	1408.4875
2750.18486	1406.3875
2752.76733	1410.2875
2755.3482	1401.2875
2757.92747	1394.5875
2760.50515	1397.9875
2763.08123	1390.0875
2765.65573	1391.3875
2768.22863	1382.7875
2770.79994	1379.0875
2773.36967	1379.9875
2775.9378	1386.6875
2778.50435	1377.9875
2781.06932	1372.8875
2783.6327	1378.8875
2786.1945	1377.5875
2788.75471	1370.6875
2791.31335	1368.5875
2793.87041	1369.2875
2796.42589	1362.9875
2798.97979	1358.2875
2801.53212	1361.5875
2804.08288	1350.5875
2806.63206	1354.7875
2809.17967	1343.2875
2811.72571	1343.6875
2814.27018	1343.6875
2816.81308	1345.2875
2819.35442	1346.9875
2821.89419	1340.9875
2824.43239	1337.3875
2826.96904	1348.4875
2829.50412	1353.3875
2832.03763	1340.8875
2834.56959	1348.1875
2837.1	1339.7875
2839.62884	1353.5875
2842.15613	1355.7875
2844.68186	1377.1875
2847.20604	1376.7875
2849.72867	1385.3875
2852.24974	1389.3875
2854.76927	1391.3875
2857.28724	1390.4875
2859.80367	1385.7875
2862.31855	1391.3875
2864.83189	1388.7875
2867.34368	1385.9875
2869.85393	1391.0875
2872.36264	1378.9875
2874.8698	1390.9875
2877.37543	1395.4875
2879.87952	1399.0875
2882.38207	1392.6875
2884.88308	1396.8875
2887.38256	1383.4875
2889.88051	1390.1875
2892.37692	1380.6875
2894.8718	1383.6875
2897.36515	1393.0875
2899.85698	1397.6875
2902.34727	1397.3875
2904.83604	1402.3875
2907.32328	1406.6875
2909.809	1410.1875
2912.29319	1409.2875
2914.77587	1406.7875
2917.25702	1415.4875
2919.73665	1412.6875
2922.21476	1419.1875
2924.69136	1414.8875
2927.16644	1411.8875
2929.64	1403.5875
2932.11205	1406.4875
2934.58258	1403.3875
2937.05161	1393.5875
2939.51912	1399.5875
2941.98513	1382.0875
2944.44962	1387.7875
2946.91261	1371.1875
2949.37409	1366.0875
2951.83407	1345.9875
2954.29254	1337.6875
2956.74951	1334.8875
2959.20498	1317.9875
2961.65895	1324.8875
2964.11142	1331.9875
2966.56239	1303.4875
2969.01186	1263.0875
2971.45984	1294.6875
2973.90632	1299.3875
2976.35131	1292.6875
2978.7948	1293.5875
2981.23681	1281.1875
2983.67732	1278.4875
2986.11635	1274.1875
2988.55388	1266.5875
2990.98993	1275.6875
2993.4245	1262.9875
2995.85758	1258.5875
2998.28917	1259.7875
3000.71928	1264.7875
3003.14791	1253.4875
3005.57506	1258.8875
3008.00073	1256.7875
3010.42493	1257.4875
3012.84764	1255.0875
3015.26888	1256.9875
3017.68865	1255.2875
3020.10694	1259.1875
3022.52376	1260.1875
3024.9391	1250.0875
3027.35298	1254.8875
3029.76539	1249.7875
3032.17632	1252.5875
3034.5858	1246.5875
3036.9938	1247.7875
3039.40034	1250.3875
3041.80542	1249.5875
3044.20903	1252.1875
3046.61118	1253.4875
3049.01187	1247.1875
3051.4111	1247.0875
3053.80888	1249.5875
3056.20519	1255.2875
3058.60005	1248.9875
3060.99345	1247.5875
3063.3854	1254.0875
3065.7759	1251.2875
3068.16494	1251.9875
3070.55254	1246.6875
3072.93868	1260.9875
3075.32338	1258.8875
3077.70662	1257.1875
3080.08842	1252.1875
3082.46878	1256.2875
3084.84769	1259.9875
3087.22515	1260.0875
3089.60118	1262.4875
3091.97576	1275.9875
3094.3489	1271.0875
3096.72061	1270.6875
3099.09087	1278.7875
3101.4597	1288.7875
3103.82709	1288.8875
3106.19305	1303.3875
3108.55757	1297.3875
3110.92066	1309.2875
3113.28232	1305.7875
3115.64255	1307.3875
3118.00134	1313.5875
3120.35871	1317.2875
3122.71466	1319.0875
3125.06917	1324.4875
