Data from AgNPs_APTES_FTO_UA_50uM_CRN_0uM_R6G_10uM_Scan_RamanShift__9__11-21-33-661.txt Node

Date: Tue Jul 05 11:21:33 BST 2022
User: TCL
Spectrometer: QEP01345
Trigger mode: 4
Integration Time (sec): 7.000000E0
Scans to average: 10
Electric dark correction enabled: true
Nonlinearity correction enabled: false
Boxcar width: 0
XAxis mode: Raman Shifts
Number of Pixels in Spectrum: 1044
>>>>>Begin Spectral Data<<<<<
46.04893	0.5125
50.45542	0.8125
54.85868	-0.7875
59.25871	1.0125
63.6555	35.2125
68.04907	37.6125
72.43941	38.9125
76.82654	45.8125
81.21044	44.7125
85.59113	47.9125
89.96862	48.3125
94.34289	53.1125
98.71396	51.9125
103.08183	54.3125
107.4465	54.6125
111.80798	57.6125
116.16626	54.0125
120.52136	56.7125
124.87327	57.8125
129.222	59.6125
133.56755	62.9125
137.90993	60.9125
142.24913	66.3125
146.58517	71.1125
150.91804	73.7125
155.24774	80.7125
159.57429	93.1125
163.89768	118.2125
168.21792	146.4125
172.53501	189.1125
176.84895	258.0125
181.15975	359.0125
185.46741	492.0125
189.77193	674.8125
194.07331	896.1125
198.37157	1158.5125
202.6667	1428.5125
206.9587	1705.0125
211.24758	1969.4125
215.53334	2277.5125
219.81599	2590.1125
224.09553	2926.5125
228.37195	3303.3125
232.64527	3699.5125
236.91549	4107.8125
241.18261	4457.9125
245.44663	4773.1125
249.70755	5021.5125
253.96539	5205.0125
258.22014	5373.4125
262.4718	5523.1125
266.72039	5576.3125
270.96589	5610.6125
275.20832	5537.2125
279.44768	5411.8125
283.68397	5267.3125
287.91719	5125.8125
292.14735	5066.6125
296.37445	5102.7125
300.59849	5251.5125
304.81948	5456.2125
309.03742	5646.1125
313.25231	5749.3125
317.46415	5643.1125
321.67296	5292.6125
325.87872	4925.2125
330.08145	4720.1125
334.28114	4639.6125
338.47781	4686.3125
342.67145	4809.8125
346.86207	4980.4125
351.04966	5253.0125
355.23424	5538.5125
359.4158	5713.0125
363.59435	5711.8125
367.76989	5672.5125
371.94243	5612.8125
376.11196	5532.6125
380.27849	5483.5125
384.44203	5424.9125
388.60257	5372.1125
392.76012	5366.7125
396.91468	5408.9125
401.06626	5498.5125
405.21485	5569.3125
409.36047	5507.9125
413.50311	5450.6125
417.64277	5602.6125
421.77947	5680.5125
425.9132	5032.0125
430.04396	4707.3125
434.17176	4691.2125
438.2966	4749.1125
442.41849	4830.5125
446.53742	4941.3125
450.6534	5043.2125
454.76644	5091.7125
458.87653	5062.5125
462.98368	4994.2125
467.08789	4937.2125
471.18916	4868.3125
475.2875	4767.5125
479.38291	4684.5125
483.4754	4665.2125
487.56496	4633.1125
491.6516	4642.9125
495.73531	4664.5125
499.81612	4713.9125
503.89401	4760.0125
507.96899	4835.3125
512.04106	4910.4125
516.11023	4996.8125
520.1765	5054.8125
524.23987	5054.5125
528.30034	5000.9125
532.35792	4972.3125
536.41261	4883.4125
540.46441	4765.7125
544.51333	4693.0125
548.55936	4712.9125
552.60252	4770.5125
556.64279	4893.6125
560.6802	4974.9125
564.71473	5073.6125
568.7464	5240.2125
572.7752	5331.0125
576.80114	5123.5125
580.82422	4896.2125
584.84444	4869.9125
588.86181	4928.6125
592.87633	5041.6125
596.888	5161.1125
600.89682	5270.5125
604.9028	5849.5125
608.90594	7497.0125
612.90624	9727.0125
616.90371	9524.7125
620.89834	6847.9125
624.89015	5398.2125
628.87913	5099.5125
632.86528	5186.4125
636.84862	5258.3125
640.82913	5144.7125
644.80683	4884.2125
648.78172	4708.4125
652.75379	4694.6125
656.72306	4840.6125
660.68952	5044.4125
664.65319	4973.5125
668.61405	4751.9125
672.57211	4646.3125
676.52738	4734.9125
680.47986	4867.8125
684.42955	5021.4125
688.37646	5072.4125
692.32058	5010.0125
696.26192	4891.8125
700.20048	4809.6125
704.13626	4761.7125
708.06928	4728.9125
711.99952	4692.6125
715.927	4667.1125
719.85171	4678.7125
723.77365	4697.1125
727.69284	4652.8125
731.60928	4623.8125
735.52295	4608.4125
739.43388	4608.1125
743.34206	4611.5125
747.24749	4607.9125
751.15017	4618.2125
755.05012	4676.2125
758.94733	4890.2125
762.8418	5451.2125
766.73354	6438.9125
770.62254	7384.3125
774.50882	7759.0125
778.39237	7336.8125
782.27321	6466.2125
786.15132	5583.1125
790.02671	5001.0125
793.89938	4748.4125
797.76935	4662.8125
801.6366	4637.4125
805.50115	4633.9125
809.36299	4626.3125
813.22213	4618.7125
817.07857	4592.8125
820.93231	4577.5125
824.78336	4543.0125
828.63172	4561.1125
832.47738	4546.7125
836.32036	4535.8125
840.16066	4499.5125
843.99827	4487.8125
847.8332	4512.7125
851.66546	4493.1125
855.49504	4488.5125
859.32195	4494.2125
863.1462	4460.2125
866.96777	4464.4125
870.78668	4493.2125
874.60293	4504.9125
878.41652	4546.7125
882.22745	4586.4125
886.03573	4644.2125
889.84136	4658.7125
893.64433	4684.0125
897.44466	4711.9125
901.24235	4738.9125
905.0374	4756.8125
908.8298	4770.9125
912.61957	4811.8125
916.40671	4895.7125
920.19121	5019.1125
923.97308	5144.0125
927.75233	5260.4125
931.52895	5355.4125
935.30295	5270.4125
939.07433	5050.7125
942.84309	4805.5125
946.60924	4650.0125
950.37278	4532.0125
954.13371	4424.1125
957.89203	4371.0125
961.64774	4300.2125
965.40086	4240.8125
969.15137	4168.5125
972.89929	4134.2125
976.64461	4092.1125
980.38733	4080.5125
984.12747	4024.8125
987.86502	4012.0125
991.59999	4022.8125
995.33237	4036.7125
999.06217	4062.1125
1002.78939	4115.3125
1006.51404	4195.5125
1010.23611	4284.1125
1013.95561	4308.8125
1017.67255	4314.2125
1021.38692	4279.7125
1025.09872	4229.5125
1028.80796	4167.6125
1032.51465	4112.4125
1036.21877	4112.2125
1039.92035	4117.6125
1043.61937	4139.6125
1047.31584	4139.5125
1051.00976	4176.9125
1054.70114	4166.3125
1058.38998	4160.0125
1062.07627	4171.0125
1065.76003	4181.2125
1069.44126	4155.9125
1073.11995	4158.2125
1076.79611	4189.5125
1080.46974	4268.9125
1084.14085	4387.0125
1087.80943	4546.7125
1091.47549	4599.7125
1095.13903	4459.6125
1098.80005	4277.1125
1102.45857	4123.2125
1106.11456	4091.2125
1109.76805	4090.7125
1113.41903	4214.3125
1117.06751	4374.5125
1120.71348	4607.5125
1124.35696	4878.4125
1127.99793	5167.4125
1131.63641	5219.0125
1135.2724	4978.6125
1138.90589	4680.9125
1142.5369	4491.1125
1146.16542	4322.5125
1149.79145	4204.1125
1153.415	4135.5125
1157.03607	4111.4125
1160.65467	4169.8125
1164.27079	4295.3125
1167.88443	4516.7125
1171.49561	4872.7125
1175.10432	5468.0125
1178.71056	6318.4125
1182.31434	7040.6125
1185.91565	7201.4125
1189.51451	6892.1125
1193.11091	6343.9125
1196.70485	5839.9125
1200.29634	5450.1125
1203.88538	5171.3125
1207.47197	4813.9125
1211.05612	4492.7125
1214.63782	4294.7125
1218.21708	4189.9125
1221.79391	4164.4125
1225.36829	4182.1125
1228.94024	4197.8125
1232.50976	4171.7125
1236.07685	4150.3125
1239.6415	4130.9125
1243.20374	4128.6125
1246.76355	4176.7125
1250.32093	4231.8125
1253.8759	4293.7125
1257.42845	4437.2125
1260.97859	4623.5125
1264.52631	4800.0125
1268.07163	4995.8125
1271.61453	5148.7125
1275.15503	5203.1125
1278.69312	5205.5125
1282.22882	5220.7125
1285.76211	5330.9125
1289.29301	5591.6125
1292.82151	5842.6125
1296.34761	6116.8125
1299.87133	6450.1125
1303.39266	7018.1125
1306.9116	7945.4125
1310.42815	9133.7125
1313.94233	9893.5125
1317.45412	9632.3125
1320.96354	8702.3125
1324.47058	7638.7125
1327.97525	6740.8125
1331.47754	6131.4125
1334.97747	5845.6125
1338.47502	5779.4125
1341.97022	5942.5125
1345.46305	6372.9125
1348.95352	7103.7125
1352.44163	8043.8125
1355.92738	9169.3125
1359.41078	10824.0125
1362.89183	12788.9125
1366.37053	13160.0125
1369.84688	11108.9125
1373.32088	8602.8125
1376.79254	7056.2125
1380.26186	6359.5125
1383.72883	6010.4125
1387.19347	5743.0125
1390.65578	5462.2125
1394.11575	5250.7125
1397.57339	5125.7125
1401.0287	5049.9125
1404.48168	4953.6125
1407.93234	4866.5125
1411.38068	4767.9125
1414.82669	4750.0125
1418.27039	4734.6125
1421.71177	4734.9125
1425.15083	4661.8125
1428.58758	4563.9125
1432.02203	4573.7125
1435.45416	4635.1125
1438.88399	4660.6125
1442.31151	4614.6125
1445.73673	4582.1125
1449.15965	4567.3125
1452.58027	4527.6125
1455.9986	4468.4125
1459.41463	4419.4125
1462.82837	4417.3125
1466.23982	4485.6125
1469.64898	4606.2125
1473.05586	4683.2125
1476.46045	4718.6125
1479.86276	4770.7125
1483.26279	4860.4125
1486.66054	5004.0125
1490.05602	5218.8125
1493.44922	5529.7125
1496.84016	6047.8125
1500.22882	6877.8125
1503.61521	8069.4125
1506.99934	9615.2125
1510.38121	11170.4125
1513.76081	12031.6125
1517.13816	11472.7125
1520.51324	9790.9125
1523.88607	7990.3125
1527.25665	6672.4125
1530.62498	5919.1125
1533.99105	5456.6125
1537.35488	5170.7125
1540.71647	4970.3125
1544.07581	4817.7125
1547.4329	4797.7125
1550.78776	4775.5125
1554.14038	4825.1125
1557.49077	4925.9125
1560.83892	5092.3125
1564.18484	5300.3125
1567.52853	5596.6125
1570.86999	5888.8125
1574.20922	6078.3125
1577.54624	6078.2125
1580.88103	5724.0125
1584.2136	5155.9125
1587.54395	4699.7125
1590.87208	4535.8125
1594.19801	4654.2125
1597.52172	4966.9125
1600.84321	5098.0125
1604.16251	4950.5125
1607.47959	4661.6125
1610.79447	4423.7125
1614.10715	4187.7125
1617.41763	3967.2125
1620.7259	3827.3125
1624.03199	3785.5125
1627.33587	3799.8125
1630.63757	3892.7125
1633.93707	4061.8125
1637.23439	4341.0125
1640.52951	4847.8125
1643.82246	5668.7125
1647.11321	6785.9125
1650.40179	7755.2125
1653.68819	7884.1125
1656.97241	6915.1125
1660.25446	5575.1125
1663.53433	4557.7125
1666.81203	3929.0125
1670.08756	3582.6125
1673.36092	3382.3125
1676.63211	3251.1125
1679.90115	3168.8125
1683.16801	3108.8125
1686.43272	3088.0125
1689.69527	3050.4125
1692.95567	3022.0125
1696.2139	3011.8125
1699.46999	2980.8125
1702.72392	2967.7125
1705.97571	2926.8125
1709.22535	2892.2125
1712.47284	2871.6125
1715.71819	2838.1125
1718.96139	2816.5125
1722.20246	2783.3125
1725.44139	2737.3125
1728.67818	2702.2125
1731.91284	2652.6125
1735.14537	2624.0125
1738.37576	2596.7125
1741.60403	2570.3125
1744.83017	2558.4125
1748.05418	2523.5125
1751.27607	2538.6125
1754.49584	2519.9125
1757.71349	2498.8125
1760.92903	2485.5125
1764.14244	2469.7125
1767.35375	2469.8125
1770.56294	2450.1125
1773.77002	2438.2125
1776.97499	2424.0125
1780.17785	2418.6125
1783.37861	2409.5125
1786.57727	2395.7125
1789.77382	2384.4125
1792.96828	2373.5125
1796.16064	2371.5125
1799.3509	2356.2125
1802.53907	2354.4125
1805.72514	2327.5125
1808.90913	2322.1125
1812.09102	2317.1125
1815.27083	2297.6125
1818.44856	2289.6125
1821.6242	2283.2125
1824.79776	2278.5125
1827.96924	2268.0125
1831.13864	2253.6125
1834.30597	2259.3125
1837.47122	2240.9125
1840.6344	2237.7125
1843.7955	2236.7125
1846.95454	2218.4125
1850.11151	2211.9125
1853.26642	2211.7125
1856.41926	2204.5125
1859.57004	2203.7125
1862.71876	2190.2125
1865.86542	2197.9125
1869.01003	2185.3125
1872.15258	2175.8125
1875.29308	2187.9125
1878.43152	2171.0125
1881.56792	2164.6125
1884.70227	2157.2125
1887.83457	2149.7125
1890.96482	2151.9125
1894.09304	2143.6125
1897.21921	2132.3125
1900.34335	2126.1125
1903.46544	2127.6125
1906.58551	2123.3125
1909.70353	2121.5125
1912.81953	2101.8125
1915.93349	2109.1125
1919.04543	2103.5125
1922.15534	2092.9125
1925.26322	2087.8125
1928.36908	2077.3125
1931.47292	2069.7125
1934.57473	2048.8125
1937.67453	2036.6125
1940.77232	2037.1125
1943.86808	2029.1125
1946.96184	2028.1125
1950.05358	2014.1125
1953.14331	2017.4125
1956.23103	2007.3125
1959.31675	1991.4125
1962.40046	1984.0125
1965.48217	1977.6125
1968.56188	1980.8125
1971.63959	1968.9125
1974.7153	1961.3125
1977.78901	1955.5125
1980.86073	1958.6125
1983.93046	1955.0125
1986.99819	1934.8125
1990.06394	1933.9125
1993.1277	1917.9125
1996.18947	1919.3125
1999.24925	1904.2125
2002.30706	1891.7125
2005.36288	1882.3125
2008.41672	1878.0125
2011.46859	1877.7125
2014.51848	1864.3125
2017.56639	1854.0125
2020.61233	1855.8125
2023.6563	1844.1125
2026.6983	1824.9125
2029.73833	1827.0125
2032.7764	1826.8125
2035.8125	1814.7125
2038.84664	1809.3125
2041.87881	1806.7125
2044.90903	1797.9125
2047.93729	1805.6125
2050.96359	1796.4125
2053.98794	1800.4125
2057.01034	1784.0125
2060.03078	1782.1125
2063.04927	1784.9125
2066.06582	1795.2125
2069.08042	1783.8125
2072.09307	1766.5125
2075.10378	1768.9125
2078.11255	1779.9125
2081.11938	1788.5125
2084.12426	1788.6125
2087.12722	1788.1125
2090.12824	1778.6125
2093.12732	1775.5125
2096.12447	1781.4125
2099.11969	1786.3125
2102.11299	1783.0125
2105.10435	1779.4125
2108.09379	1778.1125
2111.08131	1780.5125
2114.0669	1783.3125
2117.05057	1787.5125
2120.03233	1780.8125
2123.01216	1780.2125
2125.99008	1777.9125
2128.96609	1767.3125
2131.94018	1764.2125
2134.91236	1757.6125
2137.88263	1763.2125
2140.851	1755.8125
2143.81746	1750.1125
2146.78201	1730.3125
2149.74466	1732.1125
2152.7054	1722.1125
2155.66425	1713.0125
2158.6212	1705.7125
2161.57625	1708.5125
2164.52941	1698.0125
2167.48067	1691.4125
2170.43004	1694.3125
2173.37752	1693.2125
2176.32311	1698.7125
2179.26681	1679.8125
2182.20863	1687.0125
2185.14856	1680.7125
2188.08661	1679.2125
2191.02278	1677.9125
2193.95707	1671.3125
2196.88948	1661.9125
2199.82001	1674.5125
2202.74867	1658.9125
2205.67545	1646.9125
2208.60037	1659.6125
2211.52341	1642.4125
2214.44458	1633.9125
2217.36388	1638.4125
2220.28132	1627.6125
2223.1969	1630.9125
2226.11061	1620.9125
2229.02246	1619.3125
2231.93245	1602.7125
2234.84058	1605.3125
2237.74686	1606.1125
2240.65128	1606.9125
2243.55385	1595.5125
2246.45456	1591.7125
2249.35343	1587.3125
2252.25044	1588.0125
2255.14561	1589.4125
2258.03893	1576.6125
2260.93041	1585.4125
2263.82004	1592.2125
2266.70783	1576.0125
2269.59378	1561.6125
2272.4779	1567.4125
2275.36017	1562.3125
2278.24061	1560.2125
2281.11922	1552.2125
2283.996	1557.1125
2286.87094	1536.1125
2289.74405	1533.7125
2292.61534	1532.7125
2295.4848	1522.1125
2298.35243	1519.4125
2301.21824	1508.8125
2304.08223	1515.3125
2306.94439	1507.1125
2309.80474	1506.1125
2312.66327	1498.7125
2315.51999	1506.4125
2318.37489	1498.4125
2321.22797	1490.2125
2324.07925	1495.2125
2326.92871	1488.3125
2329.77637	1484.5125
2332.62222	1483.4125
2335.46626	1484.8125
2338.3085	1475.7125
2341.14893	1470.7125
2343.98756	1467.8125
2346.8244	1462.6125
2349.65943	1464.1125
2352.49267	1462.6125
2355.32411	1471.3125
2358.15376	1466.8125
2360.98161	1485.8125
2363.80768	1481.4125
2366.63195	1488.3125
2369.45444	1481.2125
2372.27514	1482.7125
2375.09405	1491.0125
2377.91118	1487.0125
2380.72652	1472.7125
2383.54009	1469.3125
2386.35187	1452.9125
2389.16188	1446.1125
2391.97011	1434.7125
2394.77657	1432.3125
2397.58125	1423.0125
2400.38416	1414.7125
2403.18529	1407.3125
2405.98466	1405.4125
2408.78226	1394.8125
2411.57809	1393.8125
2414.37216	1384.7125
2417.16446	1385.2125
2419.955	1386.0125
2422.74378	1381.3125
2425.5308	1387.1125
2428.31606	1392.2125
2431.09956	1377.4125
2433.88131	1375.6125
2436.6613	1377.3125
2439.43954	1384.2125
2442.21603	1370.7125
2444.99077	1378.6125
2447.76377	1376.7125
2450.53501	1381.5125
2453.30451	1377.6125
2456.07226	1373.8125
2458.83827	1367.4125
2461.60254	1377.5125
2464.36507	1368.6125
2467.12586	1372.0125
2469.88492	1367.1125
2472.64224	1354.2125
2475.39782	1357.7125
2478.15167	1359.8125
2480.90379	1359.9125
2483.65417	1368.9125
2486.40283	1366.5125
2489.14976	1363.6125
2491.89497	1365.8125
2494.63845	1363.2125
2497.3802	1362.0125
2500.12024	1358.6125
2502.85855	1347.0125
2505.59514	1349.3125
2508.33002	1347.3125
2511.06318	1330.2125
2513.79462	1322.2125
2516.52435	1315.0125
2519.25237	1308.9125
2521.97867	1293.2125
2524.70327	1292.9125
2527.42616	1284.6125
2530.14734	1285.1125
2532.86681	1275.3125
2535.58458	1267.8125
2538.30065	1273.3125
2541.01501	1271.5125
2543.72768	1270.3125
2546.43864	1264.8125
2549.14791	1257.0125
2551.85548	1270.7125
2554.56136	1267.4125
2557.26554	1267.6125
2559.96803	1264.6125
2562.66883	1262.4125
2565.36794	1258.5125
2568.06536	1259.1125
2570.7611	1252.2125
2573.45514	1252.0125
2576.14751	1244.5125
2578.83819	1247.2125
2581.52719	1232.2125
2584.21451	1234.4125
2586.90015	1232.7125
2589.58411	1220.5125
2592.2664	1230.0125
2594.94701	1224.2125
2597.62594	1217.9125
2600.30321	1212.4125
2602.9788	1218.4125
2605.65273	1208.0125
2608.32498	1207.4125
2610.99557	1206.7125
2613.66449	1199.3125
2616.33175	1210.5125
2618.99734	1198.3125
2621.66128	1201.1125
2624.32355	1195.8125
2626.98416	1195.2125
2629.64311	1187.2125
2632.30041	1193.7125
2634.95605	1184.0125
2637.61004	1187.5125
2640.26238	1178.7125
2642.91306	1174.5125
2645.56209	1171.9125
2648.20948	1178.0125
2650.85521	1176.1125
2653.4993	1165.4125
2656.14175	1172.5125
2658.78255	1167.0125
2661.42171	1173.7125
2664.05923	1173.8125
2666.6951	1172.8125
2669.32934	1174.9125
2671.96194	1177.9125
2674.59291	1171.2125
2677.22224	1176.3125
2679.84993	1174.8125
2682.476	1181.2125
2685.10043	1175.8125
2687.72324	1182.5125
2690.34441	1168.8125
2692.96396	1167.6125
2695.58188	1173.3125
2698.19818	1172.1125
2700.81285	1164.8125
2703.4259	1161.9125
2706.03733	1158.9125
2708.64714	1161.9125
2711.25533	1163.6125
2713.86191	1158.5125
2716.46687	1172.7125
2719.07021	1159.7125
2721.67194	1170.3125
2724.27206	1170.2125
2726.87057	1174.9125
2729.46747	1172.9125
2732.06276	1169.4125
2734.65644	1158.9125
2737.24852	1161.3125
2739.83899	1153.3125
2742.42786	1151.1125
2745.01513	1152.8125
2747.60079	1147.4125
2750.18486	1140.2125
2752.76733	1141.3125
2755.3482	1130.7125
2757.92747	1135.3125
2760.50515	1137.3125
2763.08123	1132.0125
2765.65573	1130.0125
2768.22863	1126.7125
2770.79994	1115.5125
2773.36967	1123.7125
2775.9378	1122.3125
2778.50435	1119.1125
2781.06932	1119.3125
2783.6327	1118.8125
2786.1945	1121.7125
2788.75471	1109.5125
2791.31335	1109.6125
2793.87041	1101.5125
2796.42589	1101.9125
2798.97979	1100.5125
2801.53212	1096.1125
2804.08288	1104.2125
2806.63206	1091.9125
2809.17967	1092.1125
2811.72571	1097.3125
2814.27018	1097.6125
2816.81308	1093.9125
2819.35442	1087.3125
2821.89419	1087.6125
2824.43239	1095.1125
2826.96904	1098.2125
2829.50412	1087.2125
2832.03763	1102.9125
2834.56959	1093.3125
2837.1	1097.0125
2839.62884	1095.0125
2842.15613	1099.5125
2844.68186	1116.7125
2847.20604	1115.9125
2849.72867	1126.6125
2852.24974	1125.4125
2854.76927	1126.4125
2857.28724	1126.1125
2859.80367	1132.2125
2862.31855	1134.7125
2864.83189	1142.1125
2867.34368	1135.4125
2869.85393	1142.3125
2872.36264	1143.4125
2874.8698	1150.4125
2877.37543	1152.4125
2879.87952	1154.8125
2882.38207	1153.0125
2884.88308	1143.0125
2887.38256	1142.6125
2889.88051	1141.3125
2892.37692	1131.1125
2894.8718	1149.6125
2897.36515	1155.9125
2899.85698	1155.8125
2902.34727	1156.0125
2904.83604	1168.1125
2907.32328	1165.8125
2909.809	1179.2125
2912.29319	1188.0125
2914.77587	1190.9125
2917.25702	1201.3125
2919.73665	1202.6125
2922.21476	1208.7125
2924.69136	1205.0125
2927.16644	1194.9125
2929.64	1201.1125
2932.11205	1198.1125
2934.58258	1200.3125
2937.05161	1195.1125
2939.51912	1191.3125
2941.98513	1181.2125
2944.44962	1175.4125
2946.91261	1157.6125
2949.37409	1149.4125
2951.83407	1147.7125
2954.29254	1127.3125
2956.74951	1124.8125
2959.20498	1122.4125
2961.65895	1119.5125
2964.11142	1110.2125
2966.56239	1085.6125
2969.01186	1056.6125
2971.45984	1077.7125
2973.90632	1090.5125
2976.35131	1084.7125
2978.7948	1076.8125
2981.23681	1069.0125
2983.67732	1063.5125
2986.11635	1057.6125
2988.55388	1056.2125
2990.98993	1055.2125
2993.4245	1050.6125
2995.85758	1052.8125
2998.28917	1051.4125
3000.71928	1046.5125
3003.14791	1047.6125
3005.57506	1043.7125
3008.00073	1044.9125
3010.42493	1039.4125
3012.84764	1036.7125
3015.26888	1039.1125
3017.68865	1044.9125
3020.10694	1039.8125
3022.52376	1039.0125
3024.9391	1036.0125
3027.35298	1039.5125
3029.76539	1037.5125
3032.17632	1025.7125
3034.5858	1029.1125
3036.9938	1033.7125
3039.40034	1030.6125
3041.80542	1028.7125
3044.20903	1025.0125
3046.61118	1028.4125
3049.01187	1019.7125
3051.4111	1021.2125
3053.80888	1023.3125
3056.20519	1024.5125
3058.60005	1015.5125
3060.99345	1025.8125
3063.3854	1018.8125
3065.7759	1019.6125
3068.16494	1019.9125
3070.55254	1022.9125
3072.93868	1017.8125
3075.32338	1023.7125
3077.70662	1025.8125
3080.08842	1012.9125
3082.46878	1014.7125
3084.84769	1018.1125
3087.22515	1020.8125
3089.60118	1031.9125
3091.97576	1024.4125
3094.3489	1026.2125
3096.72061	1030.1125
3099.09087	1029.6125
3101.4597	1038.8125
3103.82709	1048.0125
3106.19305	1041.0125
3108.55757	1047.2125
3110.92066	1044.1125
3113.28232	1046.7125
3115.64255	1046.4125
3118.00134	1052.6125
3120.35871	1057.7125
3122.71466	1063.7125
3125.06917	1060.8125
