Data from AgNPs_APTES_FTO_UA_50uM_CRN_0uM_R6G_10uM_Scan_RamanShift__20__11-34-23-675.txt Node

Date: Tue Jul 05 11:34:23 BST 2022
User: TCL
Spectrometer: QEP01345
Trigger mode: 4
Integration Time (sec): 7.000000E0
Scans to average: 10
Electric dark correction enabled: true
Nonlinearity correction enabled: false
Boxcar width: 0
XAxis mode: Raman Shifts
Number of Pixels in Spectrum: 1044
>>>>>Begin Spectral Data<<<<<
46.04893	-0.6625
50.45542	0.8375
54.85868	-1.8625
59.25871	0.7375
63.6555	39.3375
68.04907	41.4375
72.43941	44.4375
76.82654	47.5375
81.21044	50.2375
85.59113	54.9375
89.96862	53.9375
94.34289	58.8375
98.71396	60.2375
103.08183	61.8375
107.4465	58.0375
111.80798	62.1375
116.16626	59.1375
120.52136	60.8375
124.87327	63.2375
129.222	65.5375
133.56755	65.5375
137.90993	64.4375
142.24913	68.3375
146.58517	74.0375
150.91804	84.2375
155.24774	91.5375
159.57429	105.9375
163.89768	134.1375
168.21792	164.9375
172.53501	215.8375
176.84895	292.9375
181.15975	405.7375
185.46741	559.3375
189.77193	750.1375
194.07331	997.9375
198.37157	1282.2375
202.6667	1579.9375
206.9587	1872.1375
211.24758	2176.0375
215.53334	2475.9375
219.81599	2786.4375
224.09553	3141.0375
228.37195	3536.1375
232.64527	3946.4375
236.91549	4385.4375
241.18261	4788.5375
245.44663	5171.1375
249.70755	5445.1375
253.96539	5700.6375
258.22014	5893.6375
262.4718	6065.5375
266.72039	6175.0375
270.96589	6255.8375
275.20832	6226.6375
279.44768	6120.4375
283.68397	5987.3375
287.91719	5872.8375
292.14735	5825.9375
296.37445	5836.6375
300.59849	5925.6375
304.81948	6019.1375
309.03742	6123.0375
313.25231	6093.5375
317.46415	5947.1375
321.67296	5721.3375
325.87872	5495.5375
330.08145	5380.3375
334.28114	5361.4375
338.47781	5402.9375
342.67145	5471.5375
346.86207	5594.0375
351.04966	5754.6375
355.23424	5965.5375
359.4158	6145.9375
363.59435	6236.0375
367.76989	6319.3375
371.94243	6363.4375
376.11196	6410.2375
380.27849	6399.5375
384.44203	6424.1375
388.60257	6422.1375
392.76012	6417.9375
396.91468	6445.5375
401.06626	6532.9375
405.21485	6567.2375
409.36047	6470.1375
413.50311	6235.1375
417.64277	6043.3375
421.77947	5932.1375
425.9132	5882.6375
430.04396	5878.7375
434.17176	5914.8375
438.2966	5971.7375
442.41849	6060.0375
446.53742	6173.8375
450.6534	6293.5375
454.76644	6351.5375
458.87653	6344.1375
462.98368	6261.8375
467.08789	6223.8375
471.18916	6141.5375
475.2875	6064.1375
479.38291	6015.1375
483.4754	5990.0375
487.56496	6028.4375
491.6516	6051.9375
495.73531	6119.9375
499.81612	6141.1375
503.89401	6172.4375
507.96899	6195.0375
512.04106	6253.5375
516.11023	6307.2375
520.1765	6363.4375
524.23987	6372.5375
528.30034	6337.1375
532.35792	6282.3375
536.41261	6199.6375
540.46441	6103.7375
544.51333	6026.0375
548.55936	6027.5375
552.60252	6065.9375
556.64279	6162.6375
560.6802	6230.8375
564.71473	6245.2375
568.7464	6323.6375
572.7752	6393.7375
576.80114	6322.4375
580.82422	6257.5375
584.84444	6293.6375
588.86181	6407.4375
592.87633	6570.1375
596.888	6685.9375
600.89682	6802.1375
604.9028	7192.7375
608.90594	8383.7375
612.90624	9947.3375
616.90371	9714.8375
620.89834	7703.6375
624.89015	6740.8375
628.87913	6645.0375
632.86528	6810.5375
636.84862	6966.4375
640.82913	6897.5375
644.80683	6627.2375
648.78172	6387.1375
652.75379	6238.7375
656.72306	6293.4375
660.68952	6409.5375
664.65319	6320.4375
668.61405	6120.2375
672.57211	6035.9375
676.52738	6074.8375
680.47986	6171.2375
684.42955	6218.2375
688.37646	6250.6375
692.32058	6191.9375
696.26192	6090.5375
700.20048	6054.0375
704.13626	6047.4375
708.06928	6021.0375
711.99952	6002.5375
715.927	5982.5375
719.85171	6008.5375
723.77365	6035.5375
727.69284	6023.0375
731.60928	5969.5375
735.52295	5952.4375
739.43388	5941.7375
743.34206	5953.9375
747.24749	5946.8375
751.15017	5941.3375
755.05012	5994.4375
758.94733	6152.1375
762.8418	6526.1375
766.73354	7296.9375
770.62254	8137.4375
774.50882	8621.1375
778.39237	8282.9375
782.27321	7427.3375
786.15132	6640.7375
790.02671	6201.9375
793.89938	6003.9375
797.76935	5916.5375
801.6366	5946.5375
805.50115	5979.9375
809.36299	6040.5375
813.22213	6045.6375
817.07857	5990.9375
820.93231	5920.1375
824.78336	5836.5375
828.63172	5783.1375
832.47738	5750.5375
836.32036	5730.9375
840.16066	5720.6375
843.99827	5728.7375
847.8332	5727.5375
851.66546	5716.3375
855.49504	5700.4375
859.32195	5712.7375
863.1462	5691.5375
866.96777	5681.1375
870.78668	5722.2375
874.60293	5758.7375
878.41652	5837.9375
882.22745	5897.2375
886.03573	5954.5375
889.84136	5982.1375
893.64433	5961.8375
897.44466	5920.7375
901.24235	5853.5375
905.0374	5813.3375
908.8298	5778.9375
912.61957	5785.0375
916.40671	5833.0375
920.19121	5900.5375
923.97308	5984.3375
927.75233	6071.4375
931.52895	6108.4375
935.30295	6038.5375
939.07433	5868.5375
942.84309	5724.5375
946.60924	5580.0375
950.37278	5499.6375
954.13371	5418.3375
957.89203	5369.8375
961.64774	5315.6375
965.40086	5248.8375
969.15137	5220.3375
972.89929	5172.7375
976.64461	5131.6375
980.38733	5108.0375
984.12747	5082.4375
987.86502	5077.6375
991.59999	5074.9375
995.33237	5118.7375
999.06217	5169.8375
1002.78939	5218.8375
1006.51404	5316.3375
1010.23611	5400.7375
1013.95561	5473.7375
1017.67255	5493.1375
1021.38692	5453.2375
1025.09872	5358.9375
1028.80796	5263.9375
1032.51465	5187.0375
1036.21877	5158.5375
1039.92035	5156.7375
1043.61937	5153.5375
1047.31584	5167.7375
1051.00976	5188.7375
1054.70114	5186.5375
1058.38998	5199.0375
1062.07627	5239.6375
1065.76003	5256.7375
1069.44126	5267.8375
1073.11995	5274.3375
1076.79611	5331.6375
1080.46974	5353.1375
1084.14085	5398.2375
1087.80943	5452.7375
1091.47549	5494.0375
1095.13903	5423.3375
1098.80005	5308.6375
1102.45857	5174.6375
1106.11456	5118.9375
1109.76805	5142.6375
1113.41903	5234.0375
1117.06751	5407.1375
1120.71348	5625.0375
1124.35696	5897.4375
1127.99793	6170.8375
1131.63641	6350.5375
1135.2724	6245.4375
1138.90589	6041.4375
1142.5369	5813.3375
1146.16542	5597.0375
1149.79145	5400.7375
1153.415	5278.9375
1157.03607	5208.7375
1160.65467	5218.1375
1164.27079	5310.8375
1167.88443	5497.2375
1171.49561	5848.1375
1175.10432	6399.2375
1178.71056	7186.0375
1182.31434	7827.8375
1185.91565	8003.3375
1189.51451	7772.1375
1193.11091	7309.8375
1196.70485	6891.5375
1200.29634	6579.7375
1203.88538	6310.8375
1207.47197	5987.7375
1211.05612	5696.2375
1214.63782	5528.1375
1218.21708	5406.4375
1221.79391	5375.2375
1225.36829	5366.5375
1228.94024	5379.6375
1232.50976	5320.0375
1236.07685	5261.7375
1239.6415	5213.6375
1243.20374	5190.9375
1246.76355	5203.5375
1250.32093	5263.2375
1253.8759	5323.7375
1257.42845	5418.7375
1260.97859	5569.6375
1264.52631	5742.8375
1268.07163	5894.8375
1271.61453	6054.7375
1275.15503	6147.8375
1278.69312	6174.0375
1282.22882	6213.2375
1285.76211	6325.8375
1289.29301	6526.5375
1292.82151	6757.2375
1296.34761	6998.0375
1299.87133	7364.3375
1303.39266	7877.7375
1306.9116	8592.8375
1310.42815	9457.8375
1313.94233	9987.2375
1317.45412	9869.2375
1320.96354	9258.2375
1324.47058	8511.7375
1327.97525	7853.6375
1331.47754	7399.2375
1334.97747	7140.4375
1338.47502	7082.3375
1341.97022	7146.7375
1345.46305	7404.9375
1348.95352	7899.1375
1352.44163	8628.1375
1355.92738	9659.3375
1359.41078	11035.0375
1362.89183	12482.0375
1366.37053	12646.8375
1369.84688	11170.6375
1373.32088	9245.9375
1376.79254	7956.0375
1380.26186	7315.5375
1383.72883	6987.6375
1387.19347	6745.4375
1390.65578	6525.4375
1394.11575	6361.8375
1397.57339	6225.9375
1401.0287	6162.9375
1404.48168	6074.0375
1407.93234	5988.9375
1411.38068	5862.3375
1414.82669	5736.5375
1418.27039	5645.0375
1421.71177	5561.2375
1425.15083	5450.9375
1428.58758	5361.5375
1432.02203	5350.0375
1435.45416	5381.2375
1438.88399	5421.3375
1442.31151	5439.8375
1445.73673	5424.0375
1449.15965	5430.1375
1452.58027	5428.6375
1455.9986	5364.0375
1459.41463	5363.4375
1462.82837	5370.2375
1466.23982	5454.3375
1469.64898	5564.0375
1473.05586	5617.0375
1476.46045	5651.7375
1479.86276	5695.4375
1483.26279	5811.2375
1486.66054	5878.5375
1490.05602	6043.0375
1493.44922	6288.4375
1496.84016	6652.1375
1500.22882	7284.1375
1503.61521	8179.8375
1506.99934	9239.8375
1510.38121	10275.8375
1513.76081	10715.2375
1517.13816	10198.3375
1520.51324	9018.5375
1523.88607	7785.1375
1527.25665	6942.9375
1530.62498	6466.6375
1533.99105	6189.0375
1537.35488	6019.3375
1540.71647	5882.1375
1544.07581	5785.1375
1547.4329	5768.4375
1550.78776	5746.1375
1554.14038	5785.0375
1557.49077	5840.5375
1560.83892	5950.3375
1564.18484	6081.0375
1567.52853	6262.9375
1570.86999	6452.7375
1574.20922	6578.8375
1577.54624	6576.2375
1580.88103	6326.1375
1584.2136	5896.8375
1587.54395	5591.5375
1590.87208	5516.9375
1594.19801	5667.0375
1597.52172	5991.7375
1600.84321	6206.6375
1604.16251	6102.6375
1607.47959	5817.7375
1610.79447	5517.1375
1614.10715	5220.2375
1617.41763	4996.1375
1620.7259	4841.8375
1624.03199	4762.0375
1627.33587	4778.2375
1630.63757	4848.0375
1633.93707	4986.4375
1637.23439	5286.3375
1640.52951	5770.7375
1643.82246	6478.6375
1647.11321	7357.8375
1650.40179	8013.0375
1653.68819	7947.6375
1656.97241	7088.3375
1660.25446	6023.0375
1663.53433	5209.7375
1666.81203	4722.7375
1670.08756	4420.4375
1673.36092	4230.1375
1676.63211	4128.9375
1679.90115	4045.8375
1683.16801	3966.9375
1686.43272	3934.7375
1689.69527	3899.0375
1692.95567	3863.6375
1696.2139	3837.5375
1699.46999	3806.3375
1702.72392	3742.2375
1705.97571	3694.8375
1709.22535	3639.0375
1712.47284	3587.2375
1715.71819	3529.3375
1718.96139	3477.6375
1722.20246	3441.2375
1725.44139	3381.8375
1728.67818	3326.3375
1731.91284	3307.5375
1735.14537	3257.2375
1738.37576	3217.7375
1741.60403	3183.4375
1744.83017	3176.0375
1748.05418	3158.4375
1751.27607	3134.0375
1754.49584	3125.8375
1757.71349	3090.6375
1760.92903	3072.7375
1764.14244	3052.0375
1767.35375	3051.5375
1770.56294	3026.1375
1773.77002	3029.9375
1776.97499	3011.7375
1780.17785	3013.5375
1783.37861	3005.3375
1786.57727	2998.4375
1789.77382	2981.8375
1792.96828	2948.7375
1796.16064	2951.3375
1799.3509	2937.8375
1802.53907	2932.8375
1805.72514	2911.8375
1808.90913	2908.4375
1812.09102	2892.5375
1815.27083	2873.6375
1818.44856	2866.1375
1821.6242	2862.3375
1824.79776	2850.3375
1827.96924	2840.6375
1831.13864	2828.3375
1834.30597	2830.7375
1837.47122	2827.7375
1840.6344	2810.2375
1843.7955	2802.1375
1846.95454	2793.1375
1850.11151	2790.8375
1853.26642	2795.4375
1856.41926	2777.3375
1859.57004	2773.7375
1862.71876	2765.2375
1865.86542	2758.6375
1869.01003	2767.9375
1872.15258	2756.6375
1875.29308	2752.8375
1878.43152	2744.1375
1881.56792	2733.9375
1884.70227	2726.2375
1887.83457	2722.6375
1890.96482	2710.8375
1894.09304	2713.3375
1897.21921	2703.4375
1900.34335	2692.7375
1903.46544	2687.8375
1906.58551	2681.7375
1909.70353	2671.1375
1912.81953	2672.0375
1915.93349	2660.7375
1919.04543	2648.8375
1922.15534	2634.8375
1925.26322	2636.9375
1928.36908	2619.3375
1931.47292	2604.1375
1934.57473	2597.9375
1937.67453	2586.6375
1940.77232	2580.3375
1943.86808	2563.8375
1946.96184	2550.0375
1950.05358	2543.9375
1953.14331	2525.6375
1956.23103	2522.7375
1959.31675	2497.4375
1962.40046	2500.0375
1965.48217	2491.5375
1968.56188	2485.4375
1971.63959	2461.4375
1974.7153	2473.4375
1977.78901	2452.5375
1980.86073	2454.4375
1983.93046	2439.1375
1986.99819	2428.5375
1990.06394	2409.2375
1993.1277	2405.4375
1996.18947	2402.0375
1999.24925	2384.3375
2002.30706	2377.9375
2005.36288	2360.7375
2008.41672	2350.8375
2011.46859	2345.4375
2014.51848	2337.2375
2017.56639	2319.9375
2020.61233	2312.7375
2023.6563	2307.8375
2026.6983	2283.3375
2029.73833	2280.3375
2032.7764	2278.2375
2035.8125	2274.8375
2038.84664	2275.8375
2041.87881	2260.0375
2044.90903	2251.6375
2047.93729	2244.0375
2050.96359	2247.9375
2053.98794	2252.8375
2057.01034	2230.7375
2060.03078	2224.2375
2063.04927	2220.9375
2066.06582	2233.5375
2069.08042	2213.0375
2072.09307	2201.0375
2075.10378	2198.3375
2078.11255	2207.0375
2081.11938	2193.5375
2084.12426	2202.0375
2087.12722	2207.2375
2090.12824	2191.3375
2093.12732	2193.4375
2096.12447	2191.2375
2099.11969	2182.1375
2102.11299	2182.3375
2105.10435	2178.1375
2108.09379	2182.6375
2111.08131	2179.6375
2114.0669	2177.3375
2117.05057	2187.5375
2120.03233	2185.6375
2123.01216	2180.6375
2125.99008	2175.4375
2128.96609	2170.3375
2131.94018	2160.4375
2134.91236	2172.3375
2137.88263	2167.7375
2140.851	2165.9375
2143.81746	2162.2375
2146.78201	2156.4375
2149.74466	2150.3375
2152.7054	2150.5375
2155.66425	2126.0375
2158.6212	2131.3375
2161.57625	2128.2375
2164.52941	2123.6375
2167.48067	2114.7375
2170.43004	2124.1375
2173.37752	2130.2375
2176.32311	2114.0375
2179.26681	2112.6375
2182.20863	2111.8375
2185.14856	2099.0375
2188.08661	2107.3375
2191.02278	2099.5375
2193.95707	2090.5375
2196.88948	2094.3375
2199.82001	2095.9375
2202.74867	2078.7375
2205.67545	2081.7375
2208.60037	2075.3375
2211.52341	2060.1375
2214.44458	2054.3375
2217.36388	2053.2375
2220.28132	2047.3375
2223.1969	2041.4375
2226.11061	2029.7375
2229.02246	2033.4375
2231.93245	2011.2375
2234.84058	2007.4375
2237.74686	2010.4375
2240.65128	2011.5375
2243.55385	1998.4375
2246.45456	1995.5375
2249.35343	1986.5375
2252.25044	1988.6375
2255.14561	1972.7375
2258.03893	1975.5375
2260.93041	1973.0375
2263.82004	1960.5375
2266.70783	1955.1375
2269.59378	1947.5375
2272.4779	1942.3375
2275.36017	1938.9375
2278.24061	1945.2375
2281.11922	1928.4375
2283.996	1930.5375
2286.87094	1910.1375
2289.74405	1913.2375
2292.61534	1907.6375
2295.4848	1883.2375
2298.35243	1888.1375
2301.21824	1891.0375
2304.08223	1874.4375
2306.94439	1876.0375
2309.80474	1870.9375
2312.66327	1881.7375
2315.51999	1875.1375
2318.37489	1870.7375
2321.22797	1861.7375
2324.07925	1850.1375
2326.92871	1858.9375
2329.77637	1846.9375
2332.62222	1852.9375
2335.46626	1834.6375
2338.3085	1829.8375
2341.14893	1829.8375
2343.98756	1822.6375
2346.8244	1822.3375
2349.65943	1820.4375
2352.49267	1828.3375
2355.32411	1818.2375
2358.15376	1826.7375
2360.98161	1828.7375
2363.80768	1828.4375
2366.63195	1840.0375
2369.45444	1834.8375
2372.27514	1839.7375
2375.09405	1823.2375
2377.91118	1816.8375
2380.72652	1805.6375
2383.54009	1800.4375
2386.35187	1793.6375
2389.16188	1774.5375
2391.97011	1774.1375
2394.77657	1748.4375
2397.58125	1751.8375
2400.38416	1750.4375
2403.18529	1740.2375
2405.98466	1738.0375
2408.78226	1738.3375
2411.57809	1726.4375
2414.37216	1718.6375
2417.16446	1724.7375
2419.955	1719.1375
2422.74378	1716.8375
2425.5308	1711.7375
2428.31606	1717.0375
2431.09956	1716.4375
2433.88131	1697.5375
2436.6613	1698.6375
2439.43954	1702.4375
2442.21603	1706.4375
2444.99077	1697.5375
2447.76377	1689.4375
2450.53501	1691.4375
2453.30451	1689.0375
2456.07226	1680.4375
2458.83827	1685.5375
2461.60254	1679.7375
2464.36507	1677.5375
2467.12586	1670.9375
2469.88492	1663.6375
2472.64224	1666.5375
2475.39782	1668.7375
2478.15167	1667.9375
2480.90379	1665.9375
2483.65417	1669.8375
2486.40283	1676.3375
2489.14976	1662.0375
2491.89497	1672.4375
2494.63845	1666.1375
2497.3802	1658.6375
2500.12024	1665.0375
2502.85855	1658.4375
2505.59514	1650.4375
2508.33002	1642.6375
2511.06318	1632.5375
2513.79462	1623.3375
2516.52435	1606.4375
2519.25237	1609.4375
2521.97867	1598.1375
2524.70327	1599.1375
2527.42616	1588.6375
2530.14734	1584.5375
2532.86681	1586.7375
2535.58458	1572.6375
2538.30065	1568.7375
2541.01501	1578.2375
2543.72768	1568.0375
2546.43864	1563.7375
2549.14791	1558.3375
2551.85548	1561.6375
2554.56136	1562.2375
2557.26554	1551.4375
2559.96803	1542.5375
2562.66883	1542.6375
2565.36794	1531.6375
2568.06536	1533.8375
2570.7611	1534.2375
2573.45514	1526.3375
2576.14751	1532.5375
2578.83819	1513.2375
2581.52719	1519.1375
2584.21451	1504.8375
2586.90015	1500.3375
2589.58411	1506.6375
2592.2664	1508.7375
2594.94701	1494.8375
2597.62594	1492.7375
2600.30321	1481.3375
2602.9788	1488.2375
2605.65273	1475.2375
2608.32498	1477.2375
2610.99557	1476.5375
2613.66449	1471.0375
2616.33175	1477.3375
2618.99734	1477.8375
2621.66128	1467.0375
2624.32355	1468.2375
2626.98416	1464.2375
2629.64311	1444.7375
2632.30041	1463.4375
2634.95605	1454.2375
2637.61004	1446.9375
2640.26238	1445.6375
2642.91306	1444.4375
2645.56209	1438.4375
2648.20948	1441.4375
2650.85521	1434.9375
2653.4993	1433.0375
2656.14175	1431.8375
2658.78255	1424.6375
2661.42171	1431.3375
2664.05923	1434.8375
2666.6951	1434.6375
2669.32934	1432.7375
2671.96194	1440.9375
2674.59291	1435.1375
2677.22224	1434.3375
2679.84993	1430.4375
2682.476	1433.5375
2685.10043	1427.6375
2687.72324	1424.6375
2690.34441	1425.9375
2692.96396	1433.9375
2695.58188	1422.8375
2698.19818	1411.5375
2700.81285	1418.5375
2703.4259	1409.9375
2706.03733	1403.8375
2708.64714	1415.0375
2711.25533	1418.6375
2713.86191	1413.1375
2716.46687	1416.3375
2719.07021	1410.5375
2721.67194	1420.6375
2724.27206	1413.9375
2726.87057	1425.5375
2729.46747	1422.1375
2732.06276	1420.2375
2734.65644	1414.6375
2737.24852	1409.7375
2739.83899	1408.0375
2742.42786	1415.7375
2745.01513	1406.9375
2747.60079	1396.5375
2750.18486	1396.7375
2752.76733	1395.4375
2755.3482	1400.0375
2757.92747	1393.3375
2760.50515	1396.4375
2763.08123	1387.3375
2765.65573	1385.2375
2768.22863	1384.9375
2770.79994	1378.4375
2773.36967	1366.0375
2775.9378	1377.2375
2778.50435	1366.3375
2781.06932	1367.6375
2783.6327	1364.7375
2786.1945	1371.5375
2788.75471	1365.6375
2791.31335	1353.2375
2793.87041	1355.8375
2796.42589	1345.5375
2798.97979	1356.7375
2801.53212	1349.3375
2804.08288	1349.9375
2806.63206	1349.5375
2809.17967	1339.2375
2811.72571	1336.3375
2814.27018	1328.3375
2816.81308	1331.4375
2819.35442	1329.6375
2821.89419	1325.8375
2824.43239	1343.0375
2826.96904	1327.4375
2829.50412	1325.8375
2832.03763	1333.7375
2834.56959	1334.0375
2837.1	1333.0375
2839.62884	1335.5375
2842.15613	1346.5375
2844.68186	1356.0375
2847.20604	1370.0375
2849.72867	1370.4375
2852.24974	1380.3375
2854.76927	1378.5375
2857.28724	1380.7375
2859.80367	1385.6375
2862.31855	1378.0375
2864.83189	1383.1375
2867.34368	1384.4375
2869.85393	1382.0375
2872.36264	1380.2375
2874.8698	1388.3375
2877.37543	1386.5375
2879.87952	1389.8375
2882.38207	1388.7375
2884.88308	1389.5375
2887.38256	1382.2375
2889.88051	1387.9375
2892.37692	1372.5375
2894.8718	1387.9375
2897.36515	1385.8375
2899.85698	1396.2375
2902.34727	1396.7375
2904.83604	1399.9375
2907.32328	1404.0375
2909.809	1417.5375
2912.29319	1421.1375
2914.77587	1405.1375
2917.25702	1417.9375
2919.73665	1429.6375
2922.21476	1423.4375
2924.69136	1425.6375
2927.16644	1419.0375
2929.64	1418.6375
2932.11205	1418.3375
2934.58258	1417.7375
2937.05161	1413.8375
2939.51912	1410.7375
2941.98513	1395.5375
2944.44962	1386.6375
2946.91261	1373.2375
2949.37409	1361.3375
2951.83407	1360.6375
2954.29254	1347.1375
2956.74951	1340.4375
2959.20498	1338.5375
2961.65895	1326.2375
2964.11142	1325.2375
2966.56239	1306.5375
2969.01186	1272.8375
2971.45984	1298.4375
2973.90632	1297.9375
2976.35131	1290.8375
2978.7948	1283.7375
2981.23681	1282.9375
2983.67732	1277.2375
2986.11635	1268.7375
2988.55388	1272.4375
2990.98993	1270.0375
2993.4245	1270.3375
2995.85758	1258.4375
2998.28917	1257.7375
3000.71928	1260.5375
3003.14791	1251.3375
3005.57506	1248.5375
3008.00073	1248.9375
3010.42493	1252.0375
3012.84764	1244.3375
3015.26888	1242.7375
3017.68865	1241.9375
3020.10694	1244.2375
3022.52376	1241.1375
3024.9391	1243.3375
3027.35298	1244.7375
3029.76539	1250.3375
3032.17632	1244.9375
3034.5858	1247.1375
3036.9938	1248.6375
3039.40034	1233.3375
3041.80542	1247.6375
3044.20903	1243.4375
3046.61118	1233.0375
3049.01187	1244.6375
3051.4111	1242.0375
3053.80888	1244.2375
3056.20519	1241.5375
3058.60005	1242.1375
3060.99345	1244.8375
3063.3854	1238.9375
3065.7759	1246.2375
3068.16494	1235.4375
3070.55254	1242.5375
3072.93868	1242.4375
3075.32338	1243.2375
3077.70662	1248.5375
3080.08842	1236.6375
3082.46878	1241.9375
3084.84769	1245.1375
3087.22515	1248.5375
3089.60118	1252.3375
3091.97576	1251.6375
3094.3489	1263.8375
3096.72061	1268.2375
3099.09087	1266.7375
3101.4597	1268.6375
3103.82709	1272.9375
3106.19305	1272.5375
3108.55757	1281.0375
3110.92066	1278.5375
3113.28232	1291.8375
3115.64255	1286.2375
3118.00134	1291.9375
3120.35871	1287.6375
3122.71466	1291.9375
3125.06917	1297.7375
