Data from AgNPs_APTES_FTO_UA_50uM_CRN_0uM_R6G_10uM_Scan_RamanShift__54__12-14-03-722.txt Node

Date: Tue Jul 05 12:14:03 BST 2022
User: TCL
Spectrometer: QEP01345
Trigger mode: 4
Integration Time (sec): 7.000000E0
Scans to average: 10
Electric dark correction enabled: true
Nonlinearity correction enabled: false
Boxcar width: 0
XAxis mode: Raman Shifts
Number of Pixels in Spectrum: 1044
>>>>>Begin Spectral Data<<<<<
46.04893	-0.9375
50.45542	-0.4375
54.85868	-1.2375
59.25871	0.8625
63.6555	66.5625
68.04907	73.0625
72.43941	81.0625
76.82654	81.2625
81.21044	83.1625
85.59113	87.0625
89.96862	92.9625
94.34289	95.3625
98.71396	95.7625
103.08183	104.0625
107.4465	98.8625
111.80798	104.5625
116.16626	106.6625
120.52136	107.1625
124.87327	110.5625
129.222	115.4625
133.56755	121.2625
137.90993	128.0625
142.24913	139.3625
146.58517	154.0625
150.91804	176.1625
155.24774	204.6625
159.57429	251.9625
163.89768	314.5625
168.21792	422.1625
172.53501	566.5625
176.84895	795.2625
181.15975	1113.6625
185.46741	1570.1625
189.77193	2167.8625
194.07331	2901.8625
198.37157	3723.9625
202.6667	4597.4625
206.9587	5454.2625
211.24758	6300.5625
215.53334	7155.3625
219.81599	8049.5625
224.09553	8997.5625
228.37195	10049.0625
232.64527	11244.9625
236.91549	12484.9625
241.18261	13815.6625
245.44663	15088.2625
249.70755	16275.3625
253.96539	17291.6625
258.22014	18073.2625
262.4718	18659.7625
266.72039	19079.5625
270.96589	19237.4625
275.20832	19141.3625
279.44768	18960.3625
283.68397	18651.6625
287.91719	18356.8625
292.14735	18109.2625
296.37445	17970.6625
300.59849	17853.3625
304.81948	17794.4625
309.03742	17768.0625
313.25231	17692.2625
317.46415	17527.0625
321.67296	17319.0625
325.87872	17177.2625
330.08145	17170.4625
334.28114	17197.4625
338.47781	17355.5625
342.67145	17582.9625
346.86207	17790.1625
351.04966	18027.5625
355.23424	18281.5625
359.4158	18567.6625
363.59435	18739.4625
367.76989	18904.6625
371.94243	19083.2625
376.11196	19178.0625
380.27849	19228.3625
384.44203	19289.5625
388.60257	19446.0625
392.76012	19555.0625
396.91468	19680.6625
401.06626	19914.0625
405.21485	20067.8625
409.36047	20134.4625
413.50311	19981.2625
417.64277	19873.9625
421.77947	19881.8625
425.9132	19976.3625
430.04396	20061.6625
434.17176	20115.3625
438.2966	20252.4625
442.41849	20471.8625
446.53742	20683.3625
450.6534	20974.2625
454.76644	21148.8625
458.87653	21328.3625
462.98368	21389.5625
467.08789	21440.8625
471.18916	21386.9625
475.2875	21329.9625
479.38291	21280.9625
483.4754	21261.6625
487.56496	21219.5625
491.6516	21181.5625
495.73531	21157.4625
499.81612	21126.4625
503.89401	21212.2625
507.96899	21306.1625
512.04106	21361.1625
516.11023	21357.7625
520.1765	21258.7625
524.23987	21183.2625
528.30034	21109.7625
532.35792	20995.1625
536.41261	20947.4625
540.46441	20848.2625
544.51333	20819.3625
548.55936	20919.1625
552.60252	21062.8625
556.64279	21354.3625
560.6802	21494.7625
564.71473	21737.3625
568.7464	21906.0625
572.7752	22246.2625
576.80114	22542.5625
580.82422	22797.7625
584.84444	23002.7625
588.86181	23257.2625
592.87633	23562.2625
596.888	23679.8625
600.89682	23547.2625
604.9028	23711.7625
608.90594	24542.8625
612.90624	25415.3625
616.90371	24629.9625
620.89834	22887.4625
624.89015	22099.2625
628.87913	21998.0625
632.86528	22115.0625
636.84862	22084.5625
640.82913	22020.9625
644.80683	21795.2625
648.78172	21590.5625
652.75379	21611.8625
656.72306	21736.7625
660.68952	21977.5625
664.65319	22018.7625
668.61405	21946.4625
672.57211	22008.2625
676.52738	22106.9625
680.47986	22144.6625
684.42955	22147.5625
688.37646	22149.9625
692.32058	22144.2625
696.26192	22216.0625
700.20048	22290.5625
704.13626	22368.6625
708.06928	22363.6625
711.99952	22358.6625
715.927	22296.4625
719.85171	22234.1625
723.77365	22201.9625
727.69284	22086.0625
731.60928	21971.8625
735.52295	21987.1625
739.43388	21991.8625
743.34206	22047.4625
747.24749	22167.7625
751.15017	22276.3625
755.05012	22424.5625
758.94733	22684.4625
762.8418	23141.7625
766.73354	23856.5625
770.62254	24525.9625
774.50882	24766.1625
778.39237	24369.1625
782.27321	23700.4625
786.15132	23063.7625
790.02671	22610.6625
793.89938	22359.4625
797.76935	22239.0625
801.6366	22238.8625
805.50115	22210.0625
809.36299	22131.6625
813.22213	22083.3625
817.07857	22074.7625
820.93231	22068.5625
824.78336	22044.5625
828.63172	22019.6625
832.47738	22045.3625
836.32036	21999.0625
840.16066	22031.1625
843.99827	22082.2625
847.8332	22114.2625
851.66546	22156.9625
855.49504	22106.2625
859.32195	22133.6625
863.1462	22143.6625
866.96777	22097.4625
870.78668	22123.7625
874.60293	22179.3625
878.41652	22216.5625
882.22745	22275.9625
886.03573	22263.9625
889.84136	22299.4625
893.64433	22282.0625
897.44466	22290.4625
901.24235	22280.2625
905.0374	22269.3625
908.8298	22241.4625
912.61957	22235.5625
916.40671	22296.9625
920.19121	22368.7625
923.97308	22370.6625
927.75233	22425.2625
931.52895	22309.4625
935.30295	22241.1625
939.07433	22053.2625
942.84309	21857.7625
946.60924	21793.8625
950.37278	21723.5625
954.13371	21706.0625
957.89203	21706.2625
961.64774	21694.5625
965.40086	21668.3625
969.15137	21644.7625
972.89929	21626.4625
976.64461	21583.9625
980.38733	21602.2625
984.12747	21536.8625
987.86502	21577.9625
991.59999	21584.4625
995.33237	21663.1625
999.06217	21784.0625
1002.78939	21910.8625
1006.51404	22081.7625
1010.23611	22292.5625
1013.95561	22419.7625
1017.67255	22416.6625
1021.38692	22315.9625
1025.09872	22171.4625
1028.80796	22052.4625
1032.51465	21963.6625
1036.21877	21961.2625
1039.92035	22021.8625
1043.61937	22064.3625
1047.31584	22102.2625
1051.00976	22158.7625
1054.70114	22235.1625
1058.38998	22320.1625
1062.07627	22428.7625
1065.76003	22577.6625
1069.44126	22618.1625
1073.11995	22797.9625
1076.79611	23011.9625
1080.46974	23150.0625
1084.14085	23153.3625
1087.80943	23180.5625
1091.47549	23277.8625
1095.13903	23278.9625
1098.80005	23181.4625
1102.45857	23039.0625
1106.11456	22896.9625
1109.76805	22744.3625
1113.41903	22700.7625
1117.06751	22697.2625
1120.71348	22791.7625
1124.35696	22885.9625
1127.99793	23032.9625
1131.63641	23131.8625
1135.2724	23105.5625
1138.90589	23013.3625
1142.5369	23046.8625
1146.16542	23016.3625
1149.79145	23004.8625
1153.415	23003.1625
1157.03607	23028.1625
1160.65467	23157.3625
1164.27079	23454.3625
1167.88443	23832.7625
1171.49561	24307.9625
1175.10432	25035.5625
1178.71056	25833.1625
1182.31434	26617.6625
1185.91565	27110.6625
1189.51451	27200.1625
1193.11091	27045.3625
1196.70485	26656.3625
1200.29634	26208.2625
1203.88538	25847.9625
1207.47197	25564.2625
1211.05612	25354.7625
1214.63782	25232.1625
1218.21708	24959.3625
1221.79391	24675.3625
1225.36829	24477.7625
1228.94024	24375.1625
1232.50976	24273.8625
1236.07685	24134.3625
1239.6415	24027.2625
1243.20374	24006.5625
1246.76355	24101.2625
1250.32093	24213.6625
1253.8759	24395.4625
1257.42845	24638.0625
1260.97859	24996.9625
1264.52631	25322.4625
1268.07163	25710.6625
1271.61453	26044.9625
1275.15503	26278.0625
1278.69312	26523.3625
1282.22882	26741.4625
1285.76211	26977.3625
1289.29301	27360.4625
1292.82151	27771.7625
1296.34761	28394.2625
1299.87133	29053.6625
1303.39266	29758.9625
1306.9116	30434.3625
1310.42815	31173.8625
1313.94233	31583.3625
1317.45412	31589.8625
1320.96354	31397.6625
1324.47058	31125.1625
1327.97525	30854.4625
1331.47754	30626.4625
1334.97747	30483.2625
1338.47502	30377.5625
1341.97022	30466.6625
1345.46305	30677.7625
1348.95352	30824.5625
1352.44163	30818.8625
1355.92738	30826.1625
1359.41078	31040.6625
1362.89183	31388.6625
1366.37053	31085.9625
1369.84688	29851.2625
1373.32088	28309.4625
1376.79254	27196.2625
1380.26186	26676.4625
1383.72883	26454.2625
1387.19347	26335.5625
1390.65578	26065.5625
1394.11575	25833.8625
1397.57339	25737.5625
1401.0287	25706.1625
1404.48168	25685.0625
1407.93234	25569.2625
1411.38068	25412.5625
1414.82669	25083.9625
1418.27039	24713.0625
1421.71177	24343.8625
1425.15083	24005.7625
1428.58758	23834.3625
1432.02203	23834.9625
1435.45416	24000.0625
1438.88399	24174.5625
1442.31151	24385.5625
1445.73673	24493.9625
1449.15965	24627.5625
1452.58027	24734.6625
1455.9986	24779.2625
1459.41463	24859.2625
1462.82837	25054.7625
1466.23982	25244.3625
1469.64898	25459.2625
1473.05586	25625.8625
1476.46045	25644.4625
1479.86276	25679.8625
1483.26279	25780.0625
1486.66054	25793.6625
1490.05602	25921.5625
1493.44922	26215.0625
1496.84016	26583.8625
1500.22882	27084.1625
1503.61521	27680.5625
1506.99934	28246.9625
1510.38121	28610.1625
1513.76081	28633.1625
1517.13816	28133.7625
1520.51324	27532.1625
1523.88607	26980.4625
1527.25665	26691.6625
1530.62498	26509.5625
1533.99105	26352.9625
1537.35488	26167.0625
1540.71647	25894.2625
1544.07581	25659.6625
1547.4329	25434.8625
1550.78776	25238.6625
1554.14038	25201.2625
1557.49077	25187.5625
1560.83892	25279.8625
1564.18484	25375.6625
1567.52853	25515.8625
1570.86999	25657.1625
1574.20922	25909.6625
1577.54624	26016.8625
1580.88103	25989.2625
1584.2136	25931.5625
1587.54395	25975.4625
1590.87208	26212.9625
1594.19801	26687.8625
1597.52172	27173.2625
1600.84321	27255.9625
1604.16251	26749.8625
1607.47959	25982.6625
1610.79447	25118.2625
1614.10715	24133.9625
1617.41763	23314.2625
1620.7259	22751.8625
1624.03199	22390.0625
1627.33587	22363.8625
1630.63757	22537.7625
1633.93707	23000.7625
1637.23439	23779.7625
1640.52951	25050.8625
1643.82246	26618.8625
1647.11321	27926.1625
1650.40179	28449.8625
1653.68819	27612.0625
1656.97241	25909.3625
1660.25446	23992.0625
1663.53433	22615.4625
1666.81203	21608.4625
1670.08756	21006.2625
1673.36092	20589.8625
1676.63211	20286.9625
1679.90115	20089.3625
1683.16801	19885.9625
1686.43272	19776.2625
1689.69527	19721.9625
1692.95567	19606.0625
1696.2139	19568.4625
1699.46999	19545.3625
1702.72392	19499.0625
1705.97571	19461.8625
1709.22535	19453.0625
1712.47284	19398.6625
1715.71819	19400.5625
1718.96139	19363.6625
1722.20246	19328.9625
1725.44139	19240.6625
1728.67818	19193.6625
1731.91284	19125.6625
1735.14537	19052.0625
1738.37576	18912.3625
1741.60403	18870.5625
1744.83017	18845.4625
1748.05418	18844.7625
1751.27607	18808.9625
1754.49584	18782.0625
1757.71349	18734.0625
1760.92903	18676.2625
1764.14244	18696.1625
1767.35375	18649.5625
1770.56294	18620.5625
1773.77002	18597.5625
1776.97499	18588.6625
1780.17785	18569.7625
1783.37861	18555.9625
1786.57727	18499.2625
1789.77382	18432.0625
1792.96828	18408.4625
1796.16064	18369.1625
1799.3509	18348.6625
1802.53907	18286.9625
1805.72514	18264.0625
1808.90913	18227.7625
1812.09102	18228.2625
1815.27083	18172.8625
1818.44856	18146.9625
1821.6242	18122.6625
1824.79776	18108.7625
1827.96924	18010.8625
1831.13864	18014.9625
1834.30597	18019.6625
1837.47122	17983.2625
1840.6344	17972.1625
1843.7955	17963.2625
1846.95454	17924.7625
1850.11151	17904.5625
1853.26642	17919.3625
1856.41926	17887.2625
1859.57004	17914.1625
1862.71876	17875.7625
1865.86542	17860.2625
1869.01003	17868.0625
1872.15258	17836.8625
1875.29308	17805.2625
1878.43152	17763.7625
1881.56792	17722.8625
1884.70227	17713.3625
1887.83457	17654.5625
1890.96482	17613.3625
1894.09304	17618.3625
1897.21921	17602.8625
1900.34335	17536.8625
1903.46544	17544.6625
1906.58551	17529.8625
1909.70353	17476.0625
1912.81953	17447.9625
1915.93349	17448.5625
1919.04543	17412.6625
1922.15534	17362.8625
1925.26322	17325.5625
1928.36908	17252.3625
1931.47292	17267.8625
1934.57473	17206.9625
1937.67453	17176.7625
1940.77232	17098.0625
1943.86808	17073.7625
1946.96184	17006.1625
1950.05358	16935.1625
1953.14331	16926.3625
1956.23103	16886.7625
1959.31675	16821.5625
1962.40046	16740.3625
1965.48217	16712.9625
1968.56188	16645.9625
1971.63959	16584.0625
1974.7153	16498.6625
1977.78901	16490.8625
1980.86073	16455.1625
1983.93046	16381.0625
1986.99819	16324.7625
1990.06394	16276.9625
1993.1277	16259.3625
1996.18947	16179.5625
1999.24925	16110.0625
2002.30706	16064.2625
2005.36288	16022.4625
2008.41672	16005.7625
2011.46859	15932.4625
2014.51848	15912.8625
2017.56639	15860.6625
2020.61233	15820.2625
2023.6563	15712.4625
2026.6983	15687.0625
2029.73833	15603.0625
2032.7764	15600.5625
2035.8125	15572.2625
2038.84664	15503.5625
2041.87881	15492.7625
2044.90903	15455.6625
2047.93729	15434.8625
2050.96359	15416.2625
2053.98794	15369.6625
2057.01034	15351.2625
2060.03078	15382.4625
2063.04927	15381.9625
2066.06582	15335.4625
2069.08042	15281.4625
2072.09307	15257.0625
2075.10378	15267.5625
2078.11255	15259.1625
2081.11938	15283.7625
2084.12426	15271.5625
2087.12722	15235.3625
2090.12824	15221.1625
2093.12732	15219.0625
2096.12447	15195.2625
2099.11969	15211.7625
2102.11299	15222.4625
2105.10435	15193.6625
2108.09379	15189.7625
2111.08131	15216.5625
2114.0669	15239.4625
2117.05057	15273.4625
2120.03233	15257.0625
2123.01216	15260.3625
2125.99008	15248.8625
2128.96609	15260.9625
2131.94018	15250.2625
2134.91236	15290.6625
2137.88263	15317.5625
2140.851	15311.6625
2143.81746	15298.6625
2146.78201	15295.1625
2149.74466	15279.5625
2152.7054	15239.6625
2155.66425	15265.7625
2158.6212	15253.2625
2161.57625	15222.4625
2164.52941	15192.6625
2167.48067	15186.3625
2170.43004	15250.0625
2173.37752	15228.9625
2176.32311	15206.9625
2179.26681	15219.4625
2182.20863	15167.8625
2185.14856	15178.7625
2188.08661	15161.8625
2191.02278	15162.0625
2193.95707	15129.0625
2196.88948	15154.3625
2199.82001	15137.1625
2202.74867	15094.7625
2205.67545	15060.6625
2208.60037	15006.4625
2211.52341	14985.0625
2214.44458	14949.2625
2217.36388	14913.8625
2220.28132	14883.1625
2223.1969	14861.4625
2226.11061	14828.4625
2229.02246	14818.6625
2231.93245	14771.8625
2234.84058	14753.5625
2237.74686	14747.5625
2240.65128	14748.0625
2243.55385	14668.0625
2246.45456	14655.7625
2249.35343	14598.5625
2252.25044	14633.9625
2255.14561	14571.4625
2258.03893	14552.3625
2260.93041	14535.8625
2263.82004	14488.3625
2266.70783	14437.4625
2269.59378	14401.8625
2272.4779	14353.3625
2275.36017	14318.8625
2278.24061	14258.3625
2281.11922	14228.1625
2283.996	14219.6625
2286.87094	14218.0625
2289.74405	14168.0625
2292.61534	14136.9625
2295.4848	14100.8625
2298.35243	14082.5625
2301.21824	14094.7625
2304.08223	14111.0625
2306.94439	14052.1625
2309.80474	14060.3625
2312.66327	14042.9625
2315.51999	14008.3625
2318.37489	14019.4625
2321.22797	13982.7625
2324.07925	13945.7625
2326.92871	13862.7625
2329.77637	13879.6625
2332.62222	13883.2625
2335.46626	13839.3625
2338.3085	13778.2625
2341.14893	13777.1625
2343.98756	13754.9625
2346.8244	13737.3625
2349.65943	13709.1625
2352.49267	13684.8625
2355.32411	13704.3625
2358.15376	13715.9625
2360.98161	13672.4625
2363.80768	13693.8625
2366.63195	13682.3625
2369.45444	13678.3625
2372.27514	13654.4625
2375.09405	13643.3625
2377.91118	13578.5625
2380.72652	13541.7625
2383.54009	13539.8625
2386.35187	13501.3625
2389.16188	13445.7625
2391.97011	13428.9625
2394.77657	13405.8625
2397.58125	13361.2625
2400.38416	13309.7625
2403.18529	13294.0625
2405.98466	13254.4625
2408.78226	13243.7625
2411.57809	13232.3625
2414.37216	13216.8625
2417.16446	13195.8625
2419.955	13181.3625
2422.74378	13206.2625
2425.5308	13188.6625
2428.31606	13185.5625
2431.09956	13163.5625
2433.88131	13083.3625
2436.6613	13091.3625
2439.43954	13091.9625
2442.21603	13068.6625
2444.99077	13053.6625
2447.76377	13029.0625
2450.53501	13016.7625
2453.30451	12981.5625
2456.07226	12943.1625
2458.83827	12956.7625
2461.60254	12925.6625
2464.36507	12894.8625
2467.12586	12894.7625
2469.88492	12870.9625
2472.64224	12852.9625
2475.39782	12861.9625
2478.15167	12864.9625
2480.90379	12845.7625
2483.65417	12833.9625
2486.40283	12839.8625
2489.14976	12826.4625
2491.89497	12813.2625
2494.63845	12781.1625
2497.3802	12742.3625
2500.12024	12765.2625
2502.85855	12739.1625
2505.59514	12732.9625
2508.33002	12715.5625
2511.06318	12698.7625
2513.79462	12662.3625
2516.52435	12623.6625
2519.25237	12603.1625
2521.97867	12610.9625
2524.70327	12592.3625
2527.42616	12555.1625
2530.14734	12537.4625
2532.86681	12498.8625
2535.58458	12502.6625
2538.30065	12480.9625
2541.01501	12447.8625
2543.72768	12423.7625
2546.43864	12387.0625
2549.14791	12353.5625
2551.85548	12350.3625
2554.56136	12329.5625
2557.26554	12319.1625
2559.96803	12320.0625
2562.66883	12254.4625
2565.36794	12217.4625
2568.06536	12175.7625
2570.7611	12156.0625
2573.45514	12150.5625
2576.14751	12147.7625
2578.83819	12113.9625
2581.52719	12064.2625
2584.21451	12051.9625
2586.90015	12043.3625
2589.58411	12012.4625
2592.2664	11999.7625
2594.94701	11937.9625
2597.62594	11953.2625
2600.30321	11884.1625
2602.9788	11853.8625
2605.65273	11845.4625
2608.32498	11857.3625
2610.99557	11826.9625
2613.66449	11839.4625
2616.33175	11821.3625
2618.99734	11791.9625
2621.66128	11769.2625
2624.32355	11739.7625
2626.98416	11735.0625
2629.64311	11713.4625
2632.30041	11683.6625
2634.95605	11688.5625
2637.61004	11679.7625
2640.26238	11647.1625
2642.91306	11624.9625
2645.56209	11622.8625
2648.20948	11584.6625
2650.85521	11600.0625
2653.4993	11571.0625
2656.14175	11576.3625
2658.78255	11576.9625
2661.42171	11566.7625
2664.05923	11548.6625
2666.6951	11561.9625
2669.32934	11571.6625
2671.96194	11532.6625
2674.59291	11518.0625
2677.22224	11515.1625
2679.84993	11531.8625
2682.476	11504.4625
2685.10043	11509.8625
2687.72324	11523.6625
2690.34441	11498.1625
2692.96396	11486.1625
2695.58188	11481.6625
2698.19818	11452.2625
2700.81285	11435.5625
2703.4259	11420.7625
2706.03733	11462.9625
2708.64714	11460.5625
2711.25533	11429.8625
2713.86191	11410.6625
2716.46687	11429.9625
2719.07021	11415.9625
2721.67194	11476.1625
2724.27206	11415.0625
2726.87057	11447.9625
2729.46747	11435.1625
2732.06276	11407.4625
2734.65644	11409.1625
2737.24852	11400.6625
2739.83899	11375.2625
2742.42786	11381.1625
2745.01513	11353.3625
2747.60079	11301.0625
2750.18486	11314.4625
2752.76733	11304.4625
2755.3482	11284.5625
2757.92747	11271.4625
2760.50515	11283.7625
2763.08123	11223.3625
2765.65573	11225.8625
2768.22863	11209.4625
2770.79994	11149.4625
2773.36967	11137.8625
2775.9378	11143.8625
2778.50435	11088.4625
2781.06932	11103.4625
2783.6327	11095.0625
2786.1945	11086.5625
2788.75471	11097.8625
2791.31335	11027.7625
2793.87041	11002.0625
2796.42589	10981.4625
2798.97979	10952.9625
2801.53212	10909.3625
2804.08288	10921.0625
2806.63206	10860.1625
2809.17967	10838.9625
2811.72571	10825.1625
2814.27018	10793.9625
2816.81308	10759.4625
2819.35442	10725.6625
2821.89419	10685.2625
2824.43239	10664.1625
2826.96904	10660.8625
2829.50412	10643.9625
2832.03763	10621.8625
2834.56959	10632.3625
2837.1	10584.6625
2839.62884	10591.8625
2842.15613	10556.8625
2844.68186	10571.1625
2847.20604	10547.0625
2849.72867	10531.0625
2852.24974	10521.1625
2854.76927	10521.6625
2857.28724	10487.1625
2859.80367	10462.7625
2862.31855	10457.0625
2864.83189	10460.9625
2867.34368	10419.6625
2869.85393	10392.3625
2872.36264	10396.1625
2874.8698	10364.5625
2877.37543	10393.8625
2879.87952	10373.3625
2882.38207	10369.0625
2884.88308	10339.2625
2887.38256	10344.9625
2889.88051	10324.7625
2892.37692	10325.6625
2894.8718	10312.3625
2897.36515	10297.2625
2899.85698	10322.9625
2902.34727	10299.6625
2904.83604	10282.0625
2907.32328	10327.6625
2909.809	10323.3625
2912.29319	10303.8625
2914.77587	10314.4625
2917.25702	10307.5625
2919.73665	10284.9625
2922.21476	10280.3625
2924.69136	10278.1625
2927.16644	10248.9625
2929.64	10211.4625
2932.11205	10235.9625
2934.58258	10203.7625
2937.05161	10223.6625
2939.51912	10220.8625
2941.98513	10187.7625
2944.44962	10173.7625
2946.91261	10138.2625
2949.37409	10138.4625
2951.83407	10143.6625
2954.29254	10119.5625
2956.74951	10124.1625
2959.20498	10096.8625
2961.65895	10098.3625
2964.11142	10117.2625
2966.56239	10104.0625
2969.01186	10105.3625
2971.45984	10089.3625
2973.90632	10099.3625
2976.35131	10073.2625
2978.7948	10022.4625
2981.23681	10009.6625
2983.67732	9994.6625
2986.11635	9959.7625
2988.55388	9946.2625
2990.98993	9965.1625
2993.4245	9931.7625
2995.85758	9920.7625
2998.28917	9909.7625
3000.71928	9867.9625
3003.14791	9842.8625
3005.57506	9821.0625
3008.00073	9807.8625
3010.42493	9794.0625
3012.84764	9752.6625
3015.26888	9775.3625
3017.68865	9718.0625
3020.10694	9711.0625
3022.52376	9702.7625
3024.9391	9696.0625
3027.35298	9671.7625
