Data from AgNPs_APTES_FTO_UA_50uM_CRN_0uM_R6G_10uM_Scan_RamanShift__52__12-11-43-719.txt Node

Date: Tue Jul 05 12:11:43 BST 2022
User: TCL
Spectrometer: QEP01345
Trigger mode: 4
Integration Time (sec): 7.000000E0
Scans to average: 10
Electric dark correction enabled: true
Nonlinearity correction enabled: false
Boxcar width: 0
XAxis mode: Raman Shifts
Number of Pixels in Spectrum: 1044
>>>>>Begin Spectral Data<<<<<
46.04893	-1.675
50.45542	-0.975
54.85868	-0.375
59.25871	0.725
63.6555	71.225
68.04907	74.025
72.43941	79.425
76.82654	82.325
81.21044	86.725
85.59113	91.425
89.96862	89.525
94.34289	94.425
98.71396	100.625
103.08183	104.125
107.4465	104.725
111.80798	108.525
116.16626	111.525
120.52136	110.825
124.87327	115.625
129.222	118.625
133.56755	126.825
137.90993	132.125
142.24913	138.925
146.58517	157.725
150.91804	179.625
155.24774	210.325
159.57429	256.425
163.89768	327.725
168.21792	435.525
172.53501	586.425
176.84895	826.225
181.15975	1153.225
185.46741	1621.825
189.77193	2243.525
194.07331	2985.925
198.37157	3853.025
202.6667	4742.225
206.9587	5652.625
211.24758	6519.725
215.53334	7406.325
219.81599	8313.525
224.09553	9304.225
228.37195	10417.125
232.64527	11642.225
236.91549	12944.925
241.18261	14262.825
245.44663	15612.425
249.70755	16842.625
253.96539	17818.525
258.22014	18661.325
262.4718	19299.025
266.72039	19664.325
270.96589	19829.225
275.20832	19752.725
279.44768	19511.125
283.68397	19175.025
287.91719	18874.325
292.14735	18640.325
296.37445	18508.725
300.59849	18418.525
304.81948	18399.825
309.03742	18322.525
313.25231	18276.125
317.46415	18125.425
321.67296	17884.825
325.87872	17714.125
330.08145	17676.325
334.28114	17707.725
338.47781	17889.425
342.67145	18072.725
346.86207	18311.625
351.04966	18604.225
355.23424	18863.525
359.4158	19147.225
363.59435	19300.625
367.76989	19509.525
371.94243	19682.125
376.11196	19763.325
380.27849	19803.725
384.44203	19894.625
388.60257	20028.125
392.76012	20134.225
396.91468	20335.225
401.06626	20502.825
405.21485	20738.125
409.36047	20722.225
413.50311	20601.925
417.64277	20488.125
421.77947	20467.625
425.9132	20540.225
430.04396	20657.525
434.17176	20748.625
438.2966	20888.925
442.41849	21094.225
446.53742	21331.425
450.6534	21619.925
454.76644	21820.225
458.87653	22010.725
462.98368	22041.825
467.08789	22082.225
471.18916	22029.625
475.2875	21919.025
479.38291	21908.125
483.4754	21846.125
487.56496	21804.825
491.6516	21798.925
495.73531	21750.725
499.81612	21696.125
503.89401	21833.025
507.96899	21960.225
512.04106	21970.825
516.11023	21979.525
520.1765	21848.325
524.23987	21745.325
528.30034	21670.225
532.35792	21569.025
536.41261	21464.525
540.46441	21370.925
544.51333	21341.625
548.55936	21435.125
552.60252	21633.325
556.64279	21835.925
560.6802	22102.825
564.71473	22263.425
568.7464	22462.425
572.7752	22836.625
576.80114	23075.025
580.82422	23346.525
584.84444	23566.025
588.86181	23958.225
592.87633	24312.125
596.888	24410.525
600.89682	24150.425
604.9028	24298.325
608.90594	25300.825
612.90624	26270.925
616.90371	25395.425
620.89834	23485.125
624.89015	22618.125
628.87913	22517.825
632.86528	22604.325
636.84862	22644.825
640.82913	22556.225
644.80683	22328.025
648.78172	22173.525
652.75379	22136.825
656.72306	22270.425
660.68952	22533.125
664.65319	22561.225
668.61405	22461.225
672.57211	22536.825
676.52738	22608.425
680.47986	22589.325
684.42955	22583.225
688.37646	22618.325
692.32058	22633.025
696.26192	22689.625
700.20048	22733.825
704.13626	22835.525
708.06928	22868.625
711.99952	22804.725
715.927	22716.425
719.85171	22730.925
723.77365	22661.825
727.69284	22521.925
731.60928	22411.725
735.52295	22430.925
739.43388	22412.625
743.34206	22526.625
747.24749	22592.925
751.15017	22714.425
755.05012	22897.625
758.94733	23200.925
762.8418	23671.625
766.73354	24433.625
770.62254	25194.825
774.50882	25365.025
778.39237	24981.325
782.27321	24238.225
786.15132	23525.125
790.02671	23037.125
793.89938	22799.425
797.76935	22707.325
801.6366	22678.825
805.50115	22676.925
809.36299	22605.125
813.22213	22550.225
817.07857	22522.425
820.93231	22494.525
824.78336	22482.725
828.63172	22424.725
832.47738	22394.525
836.32036	22391.325
840.16066	22383.025
843.99827	22459.925
847.8332	22504.425
851.66546	22503.725
855.49504	22519.925
859.32195	22522.525
863.1462	22496.325
866.96777	22496.425
870.78668	22462.325
874.60293	22569.425
878.41652	22616.025
882.22745	22639.625
886.03573	22704.925
889.84136	22714.325
893.64433	22676.225
897.44466	22702.825
901.24235	22695.025
905.0374	22657.025
908.8298	22579.125
912.61957	22597.225
916.40671	22634.625
920.19121	22748.325
923.97308	22784.825
927.75233	22796.625
931.52895	22752.825
935.30295	22595.325
939.07433	22410.225
942.84309	22210.725
946.60924	22137.025
950.37278	22109.325
954.13371	22056.625
957.89203	22096.125
961.64774	22086.925
965.40086	22002.725
969.15137	21957.925
972.89929	21975.125
976.64461	21931.425
980.38733	21902.725
984.12747	21885.325
987.86502	21922.525
991.59999	21910.825
995.33237	21996.325
999.06217	22156.425
1002.78939	22293.925
1006.51404	22480.925
1010.23611	22676.825
1013.95561	22818.125
1017.67255	22852.525
1021.38692	22770.625
1025.09872	22568.625
1028.80796	22447.525
1032.51465	22351.525
1036.21877	22379.925
1039.92035	22390.725
1043.61937	22470.525
1047.31584	22507.125
1051.00976	22557.625
1054.70114	22623.825
1058.38998	22692.425
1062.07627	22813.925
1065.76003	22981.125
1069.44126	23054.625
1073.11995	23287.625
1076.79611	23545.825
1080.46974	23681.025
1084.14085	23639.125
1087.80943	23714.725
1091.47549	23823.425
1095.13903	23831.825
1098.80005	23709.625
1102.45857	23476.825
1106.11456	23366.425
1109.76805	23184.625
1113.41903	23137.025
1117.06751	23159.125
1120.71348	23253.825
1124.35696	23373.825
1127.99793	23548.225
1131.63641	23662.725
1135.2724	23652.425
1138.90589	23604.925
1142.5369	23626.025
1146.16542	23551.325
1149.79145	23567.625
1153.415	23486.825
1157.03607	23530.025
1160.65467	23642.825
1164.27079	23968.025
1167.88443	24405.325
1171.49561	24919.225
1175.10432	25669.425
1178.71056	26566.625
1182.31434	27441.925
1185.91565	27929.425
1189.51451	28022.725
1193.11091	27836.825
1196.70485	27455.825
1200.29634	26977.725
1203.88538	26606.625
1207.47197	26318.725
1211.05612	26100.225
1214.63782	25950.925
1218.21708	25711.725
1221.79391	25332.125
1225.36829	25130.825
1228.94024	24966.525
1232.50976	24847.625
1236.07685	24713.725
1239.6415	24600.525
1243.20374	24568.825
1246.76355	24667.925
1250.32093	24800.025
1253.8759	25024.425
1257.42845	25367.025
1260.97859	25709.325
1264.52631	26050.325
1268.07163	26451.725
1271.61453	26835.625
1275.15503	27068.225
1278.69312	27304.425
1282.22882	27546.125
1285.76211	27875.225
1289.29301	28267.925
1292.82151	28794.725
1296.34761	29419.825
1299.87133	30156.825
1303.39266	30919.525
1306.9116	31672.925
1310.42815	32432.725
1313.94233	32900.525
1317.45412	32795.825
1320.96354	32531.925
1324.47058	32276.525
1327.97525	31977.525
1331.47754	31706.225
1334.97747	31489.825
1338.47502	31392.325
1341.97022	31456.625
1345.46305	31613.125
1348.95352	31886.225
1352.44163	32015.425
1355.92738	32037.225
1359.41078	32347.225
1362.89183	32779.025
1366.37053	32532.025
1369.84688	31097.725
1373.32088	29368.525
1376.79254	28104.925
1380.26186	27509.025
1383.72883	27254.925
1387.19347	27094.125
1390.65578	26891.225
1394.11575	26650.125
1397.57339	26532.725
1401.0287	26531.225
1404.48168	26507.725
1407.93234	26373.025
1411.38068	26161.925
1414.82669	25881.625
1418.27039	25445.125
1421.71177	24983.025
1425.15083	24693.625
1428.58758	24499.025
1432.02203	24563.125
1435.45416	24736.425
1438.88399	24971.325
1442.31151	25180.625
1445.73673	25301.925
1449.15965	25380.325
1452.58027	25489.925
1455.9986	25476.325
1459.41463	25545.225
1462.82837	25824.625
1466.23982	26055.925
1469.64898	26281.725
1473.05586	26402.725
1476.46045	26460.525
1479.86276	26490.325
1483.26279	26526.525
1486.66054	26574.525
1490.05602	26735.425
1493.44922	27045.025
1496.84016	27452.825
1500.22882	27937.625
1503.61521	28597.625
1506.99934	29216.725
1510.38121	29653.325
1513.76081	29711.925
1517.13816	29194.125
1520.51324	28505.025
1523.88607	27885.625
1527.25665	27571.225
1530.62498	27377.725
1533.99105	27221.225
1537.35488	27027.225
1540.71647	26744.725
1544.07581	26448.225
1547.4329	26200.825
1550.78776	26004.225
1554.14038	25950.425
1557.49077	25947.425
1560.83892	26010.225
1564.18484	26083.725
1567.52853	26253.025
1570.86999	26405.525
1574.20922	26649.225
1577.54624	26818.025
1580.88103	26770.525
1584.2136	26718.425
1587.54395	26766.225
1590.87208	27097.825
1594.19801	27589.725
1597.52172	28183.025
1600.84321	28302.325
1604.16251	27794.925
1607.47959	26914.925
1610.79447	25895.725
1614.10715	24879.025
1617.41763	23977.325
1620.7259	23405.025
1624.03199	23017.325
1627.33587	22985.725
1630.63757	23159.025
1633.93707	23655.325
1637.23439	24547.525
1640.52951	25874.225
1643.82246	27570.425
1647.11321	29007.325
1650.40179	29540.225
1653.68819	28647.625
1656.97241	26797.725
1660.25446	24732.025
1663.53433	23234.925
1666.81203	22290.925
1670.08756	21569.625
1673.36092	21121.625
1676.63211	20795.425
1679.90115	20554.425
1683.16801	20358.625
1686.43272	20229.725
1689.69527	20148.425
1692.95567	20068.025
1696.2139	19986.225
1699.46999	19954.525
1702.72392	19911.525
1705.97571	19835.225
1709.22535	19857.625
1712.47284	19829.325
1715.71819	19827.325
1718.96139	19791.325
1722.20246	19704.625
1725.44139	19658.725
1728.67818	19598.725
1731.91284	19531.425
1735.14537	19427.925
1738.37576	19341.925
1741.60403	19288.725
1744.83017	19254.325
1748.05418	19213.925
1751.27607	19216.225
1754.49584	19195.125
1757.71349	19114.425
1760.92903	19090.525
1764.14244	19081.725
1767.35375	19074.825
1770.56294	19018.725
1773.77002	18994.825
1776.97499	18982.225
1780.17785	18947.525
1783.37861	18950.625
1786.57727	18908.325
1789.77382	18850.325
1792.96828	18815.725
1796.16064	18768.325
1799.3509	18720.625
1802.53907	18706.725
1805.72514	18664.425
1808.90913	18659.525
1812.09102	18632.825
1815.27083	18576.225
1818.44856	18559.525
1821.6242	18547.425
1824.79776	18481.025
1827.96924	18447.525
1831.13864	18427.525
1834.30597	18439.525
1837.47122	18402.825
1840.6344	18367.125
1843.7955	18357.425
1846.95454	18320.725
1850.11151	18331.325
1853.26642	18316.925
1856.41926	18288.125
1859.57004	18298.725
1862.71876	18252.025
1865.86542	18242.825
1869.01003	18269.225
1872.15258	18237.125
1875.29308	18209.125
1878.43152	18153.625
1881.56792	18130.225
1884.70227	18097.625
1887.83457	18085.725
1890.96482	18005.825
1894.09304	18014.125
1897.21921	17972.825
1900.34335	17959.125
1903.46544	17955.325
1906.58551	17903.425
1909.70353	17893.425
1912.81953	17876.225
1915.93349	17806.725
1919.04543	17808.625
1922.15534	17768.825
1925.26322	17736.925
1928.36908	17724.925
1931.47292	17682.125
1934.57473	17624.625
1937.67453	17599.825
1940.77232	17524.525
1943.86808	17480.825
1946.96184	17416.625
1950.05358	17357.125
1953.14331	17309.325
1956.23103	17286.025
1959.31675	17226.325
1962.40046	17161.625
1965.48217	17096.425
1968.56188	17064.725
1971.63959	17002.825
1974.7153	16918.625
1977.78901	16882.025
1980.86073	16867.125
1983.93046	16812.225
1986.99819	16748.525
1990.06394	16697.525
1993.1277	16651.225
1996.18947	16601.925
1999.24925	16532.525
2002.30706	16509.825
2005.36288	16440.425
2008.41672	16410.825
2011.46859	16353.925
2014.51848	16310.925
2017.56639	16259.225
2020.61233	16215.425
2023.6563	16178.125
2026.6983	16092.625
2029.73833	16043.825
2032.7764	16002.725
2035.8125	15973.225
2038.84664	15938.025
2041.87881	15915.425
2044.90903	15902.425
2047.93729	15856.625
2050.96359	15828.825
2053.98794	15779.725
2057.01034	15738.925
2060.03078	15745.125
2063.04927	15775.125
2066.06582	15756.925
2069.08042	15679.825
2072.09307	15656.725
2075.10378	15647.025
2078.11255	15673.025
2081.11938	15665.425
2084.12426	15692.825
2087.12722	15634.925
2090.12824	15632.025
2093.12732	15626.125
2096.12447	15621.225
2099.11969	15605.825
2102.11299	15599.525
2105.10435	15617.325
2108.09379	15589.825
2111.08131	15612.825
2114.0669	15621.225
2117.05057	15686.825
2120.03233	15668.125
2123.01216	15687.325
2125.99008	15640.025
2128.96609	15668.625
2131.94018	15685.325
2134.91236	15747.625
2137.88263	15750.825
2140.851	15723.825
2143.81746	15720.925
2146.78201	15702.225
2149.74466	15700.925
2152.7054	15693.125
2155.66425	15665.325
2158.6212	15632.225
2161.57625	15631.725
2164.52941	15666.125
2167.48067	15645.625
2170.43004	15672.525
2173.37752	15663.625
2176.32311	15633.625
2179.26681	15636.425
2182.20863	15604.325
2185.14856	15653.125
2188.08661	15619.825
2191.02278	15609.125
2193.95707	15570.225
2196.88948	15577.425
2199.82001	15586.325
2202.74867	15537.925
2205.67545	15479.725
2208.60037	15444.625
2211.52341	15434.225
2214.44458	15406.025
2217.36388	15345.925
2220.28132	15318.825
2223.1969	15322.925
2226.11061	15299.025
2229.02246	15235.425
2231.93245	15198.125
2234.84058	15192.225
2237.74686	15178.325
2240.65128	15185.025
2243.55385	15114.325
2246.45456	15079.925
2249.35343	15050.325
2252.25044	15052.325
2255.14561	15015.125
2258.03893	15010.625
2260.93041	14967.625
2263.82004	14911.925
2266.70783	14883.825
2269.59378	14828.225
2272.4779	14786.525
2275.36017	14764.125
2278.24061	14719.125
2281.11922	14666.725
2283.996	14662.625
2286.87094	14623.925
2289.74405	14570.225
2292.61534	14578.225
2295.4848	14541.625
2298.35243	14538.225
2301.21824	14561.325
2304.08223	14541.325
2306.94439	14497.025
2309.80474	14496.025
2312.66327	14504.125
2315.51999	14452.925
2318.37489	14461.625
2321.22797	14440.525
2324.07925	14373.225
2326.92871	14359.325
2329.77637	14344.525
2332.62222	14331.025
2335.46626	14286.925
2338.3085	14285.425
2341.14893	14218.125
2343.98756	14232.225
2346.8244	14198.725
2349.65943	14172.525
2352.49267	14152.125
2355.32411	14144.225
2358.15376	14159.725
2360.98161	14140.925
2363.80768	14141.925
2366.63195	14142.325
2369.45444	14116.325
2372.27514	14118.825
2375.09405	14085.925
2377.91118	14026.925
2380.72652	13984.825
2383.54009	13985.025
2386.35187	13947.825
2389.16188	13910.225
2391.97011	13867.325
2394.77657	13807.125
2397.58125	13804.325
2400.38416	13783.125
2403.18529	13756.125
2405.98466	13711.125
2408.78226	13691.525
2411.57809	13686.525
2414.37216	13658.025
2417.16446	13647.625
2419.955	13637.725
2422.74378	13658.325
2425.5308	13627.925
2428.31606	13628.125
2431.09956	13603.125
2433.88131	13550.325
2436.6613	13560.525
2439.43954	13554.725
2442.21603	13525.525
2444.99077	13512.725
2447.76377	13510.625
2450.53501	13466.425
2453.30451	13465.025
2456.07226	13408.425
2458.83827	13432.725
2461.60254	13420.525
2464.36507	13361.425
2467.12586	13346.125
2469.88492	13322.725
2472.64224	13331.925
2475.39782	13322.725
2478.15167	13309.325
2480.90379	13304.425
2483.65417	13299.725
2486.40283	13284.525
2489.14976	13269.825
2491.89497	13237.725
2494.63845	13240.925
2497.3802	13251.625
2500.12024	13226.525
2502.85855	13224.525
2505.59514	13202.425
2508.33002	13178.225
2511.06318	13148.725
2513.79462	13118.625
2516.52435	13105.025
2519.25237	13093.225
2521.97867	13083.925
2524.70327	13059.325
2527.42616	13021.525
2530.14734	12998.325
2532.86681	12958.825
2535.58458	12970.425
2538.30065	12949.425
2541.01501	12914.325
2543.72768	12865.425
2546.43864	12839.125
2549.14791	12816.325
2551.85548	12807.625
2554.56136	12785.025
2557.26554	12774.725
2559.96803	12775.525
2562.66883	12725.125
2565.36794	12667.725
2568.06536	12645.725
2570.7611	12612.325
2573.45514	12614.525
2576.14751	12599.525
2578.83819	12544.525
2581.52719	12536.125
2584.21451	12505.825
2586.90015	12492.325
2589.58411	12463.625
2592.2664	12457.725
2594.94701	12421.825
2597.62594	12383.325
2600.30321	12336.525
2602.9788	12326.225
2605.65273	12310.225
2608.32498	12316.525
2610.99557	12281.525
2613.66449	12283.325
2616.33175	12255.125
2618.99734	12231.125
2621.66128	12207.725
2624.32355	12218.125
2626.98416	12226.725
2629.64311	12163.825
2632.30041	12144.625
2634.95605	12149.325
2637.61004	12114.125
2640.26238	12091.925
2642.91306	12105.325
2645.56209	12065.925
2648.20948	12069.225
2650.85521	12056.825
2653.4993	12038.025
2656.14175	12041.525
2658.78255	12010.225
2661.42171	12037.825
2664.05923	12022.825
2666.6951	12017.825
2669.32934	12012.325
2671.96194	12008.525
2674.59291	12019.625
2677.22224	11987.225
2679.84993	11992.425
2682.476	11970.725
2685.10043	11999.925
2687.72324	11975.925
2690.34441	11966.925
2692.96396	11962.725
2695.58188	11952.825
2698.19818	11881.125
2700.81285	11924.825
2703.4259	11899.325
2706.03733	11936.725
2708.64714	11913.625
2711.25533	11892.925
2713.86191	11907.425
2716.46687	11894.725
2719.07021	11909.125
2721.67194	11943.625
2724.27206	11910.125
2726.87057	11920.425
2729.46747	11894.225
2732.06276	11903.225
2734.65644	11886.725
2737.24852	11869.325
2739.83899	11863.625
2742.42786	11857.725
2745.01513	11832.625
2747.60079	11821.125
2750.18486	11780.125
2752.76733	11783.225
2755.3482	11747.525
2757.92747	11755.825
2760.50515	11722.525
2763.08123	11726.925
2765.65573	11682.525
2768.22863	11671.325
2770.79994	11631.825
2773.36967	11621.225
2775.9378	11601.925
2778.50435	11595.125
2781.06932	11567.225
2783.6327	11579.225
2786.1945	11563.025
2788.75471	11567.925
2791.31335	11493.725
2793.87041	11475.025
2796.42589	11448.925
2798.97979	11425.825
2801.53212	11404.725
2804.08288	11388.225
2806.63206	11326.925
2809.17967	11297.725
2811.72571	11290.325
2814.27018	11247.725
2816.81308	11218.825
2819.35442	11174.025
2821.89419	11142.625
2824.43239	11157.225
2826.96904	11142.825
2829.50412	11091.825
2832.03763	11077.825
2834.56959	11072.825
2837.1	11039.425
2839.62884	11015.725
2842.15613	11018.725
2844.68186	11061.425
2847.20604	11010.125
2849.72867	11001.025
2852.24974	10976.825
2854.76927	10975.825
2857.28724	10941.425
2859.80367	10940.225
2862.31855	10924.025
2864.83189	10908.725
2867.34368	10887.125
2869.85393	10876.825
2872.36264	10855.225
2874.8698	10847.325
2877.37543	10864.325
2879.87952	10853.625
2882.38207	10843.925
2884.88308	10804.725
2887.38256	10821.625
2889.88051	10775.625
2892.37692	10780.125
2894.8718	10767.225
2897.36515	10775.325
2899.85698	10777.625
2902.34727	10791.725
2904.83604	10767.825
2907.32328	10785.525
2909.809	10810.025
2912.29319	10792.325
2914.77587	10785.725
2917.25702	10792.625
2919.73665	10766.425
2922.21476	10763.025
2924.69136	10752.225
2927.16644	10725.825
2929.64	10711.225
2932.11205	10695.125
2934.58258	10668.125
2937.05161	10700.725
2939.51912	10672.125
2941.98513	10676.925
2944.44962	10652.625
2946.91261	10627.525
2949.37409	10621.425
2951.83407	10617.725
2954.29254	10619.525
2956.74951	10577.025
2959.20498	10573.225
2961.65895	10559.525
2964.11142	10576.425
2966.56239	10558.625
2969.01186	10544.525
2971.45984	10567.125
2973.90632	10548.125
2976.35131	10521.425
2978.7948	10490.925
2981.23681	10512.425
2983.67732	10448.725
2986.11635	10436.525
2988.55388	10391.325
2990.98993	10453.125
2993.4245	10408.225
2995.85758	10381.525
2998.28917	10339.025
3000.71928	10324.925
3003.14791	10293.725
3005.57506	10284.225
3008.00073	10249.125
3010.42493	10233.125
3012.84764	10214.225
3015.26888	10190.925
3017.68865	10151.325
3020.10694	10156.525
3022.52376	10129.125
3024.9391	10148.725
3027.35298	10120.525
3029.76539	10089.125
3032.17632	10131.325
3034.5858	10088.225
3036.9938	10060.625
3039.40034	10050.325
3041.80542	10046.725
3044.20903	10020.325
3046.61118	10008.125
3049.01187	9996.725
3051.4111	9990.125
3053.80888	9962.525
3056.20519	9954.825
3058.60005	9933.425
3060.99345	9912.325
3063.3854	9889.925
3065.7759	9848.925
3068.16494	9841.725
3070.55254	9792.225
3072.93868	9813.125
3075.32338	9754.225
3077.70662	9735.525
3080.08842	9707.525
3082.46878	9693.925
3084.84769	9675.025
3087.22515	9702.125
3089.60118	9684.625
3091.97576	9686.425
3094.3489	9668.725
3096.72061	9672.025
3099.09087	9686.125
3101.4597	9666.425
3103.82709	9652.225
3106.19305	9699.925
3108.55757	9690.225
3110.92066	9653.725
3113.28232	9639.725
3115.64255	9602.925
3118.00134	9568.725
3120.35871	9562.425
3122.71466	9541.125
3125.06917	9532.525
3127.42226	9519.825
3129.77393	9526.025
3132.12417	9494.825
3134.47299	9508.225
