Data from AgNPs_APTES_FTO_UA_50uM_CRN_0uM_R6G_10uM_Scan_RamanShift__37__11-54-13-699.txt Node

Date: Tue Jul 05 11:54:13 BST 2022
User: TCL
Spectrometer: QEP01345
Trigger mode: 4
Integration Time (sec): 7.000000E0
Scans to average: 10
Electric dark correction enabled: true
Nonlinearity correction enabled: false
Boxcar width: 0
XAxis mode: Raman Shifts
Number of Pixels in Spectrum: 1044
>>>>>Begin Spectral Data<<<<<
46.04893	0.425
50.45542	-0.575
54.85868	-0.775
59.25871	1.025
63.6555	40.425
68.04907	38.925
72.43941	42.225
76.82654	48.925
81.21044	49.925
85.59113	55.425
89.96862	53.025
94.34289	55.025
98.71396	58.425
103.08183	59.725
107.4465	60.025
111.80798	65.725
116.16626	57.825
120.52136	60.625
124.87327	64.525
129.222	60.425
133.56755	67.325
137.90993	64.425
142.24913	67.625
146.58517	72.825
150.91804	81.125
155.24774	85.925
159.57429	103.725
163.89768	125.025
168.21792	155.925
172.53501	196.025
176.84895	267.325
181.15975	354.325
185.46741	490.125
189.77193	659.125
194.07331	867.525
198.37157	1104.525
202.6667	1350.725
206.9587	1602.025
211.24758	1853.325
215.53334	2090.825
219.81599	2342.925
224.09553	2639.525
228.37195	2925.425
232.64527	3255.225
236.91549	3556.625
241.18261	3874.425
245.44663	4104.725
249.70755	4311.025
253.96539	4455.825
258.22014	4584.525
262.4718	4682.125
266.72039	4751.025
270.96589	4780.725
275.20832	4751.825
279.44768	4697.725
283.68397	4611.925
287.91719	4555.725
292.14735	4526.325
296.37445	4592.025
300.59849	4718.525
304.81948	4861.725
309.03742	4989.625
313.25231	4954.125
317.46415	4756.225
321.67296	4444.525
325.87872	4162.525
330.08145	4029.125
334.28114	3982.425
338.47781	4018.825
342.67145	4112.625
346.86207	4244.625
351.04966	4461.525
355.23424	4700.625
359.4158	4900.025
363.59435	5046.925
367.76989	5110.425
371.94243	5133.125
376.11196	5170.925
380.27849	5185.325
384.44203	5148.325
388.60257	5121.825
392.76012	5094.425
396.91468	5114.025
401.06626	5202.625
405.21485	5244.425
409.36047	5131.925
413.50311	4889.025
417.64277	4622.225
421.77947	4488.925
425.9132	4420.925
430.04396	4419.525
434.17176	4440.325
438.2966	4513.525
442.41849	4656.225
446.53742	4804.525
450.6534	4944.825
454.76644	5013.925
458.87653	4996.325
462.98368	4934.725
467.08789	4858.125
471.18916	4797.625
475.2875	4738.825
479.38291	4708.725
483.4754	4727.225
487.56496	4819.725
491.6516	4971.825
495.73531	5028.525
499.81612	4995.625
503.89401	4916.325
507.96899	4846.425
512.04106	4855.125
516.11023	4964.125
520.1765	5078.225
524.23987	5147.625
528.30034	5116.125
532.35792	5042.425
536.41261	4898.025
540.46441	4698.325
544.51333	4557.225
548.55936	4496.025
552.60252	4499.725
556.64279	4548.425
560.6802	4581.825
564.71473	4585.325
568.7464	4708.325
572.7752	4807.825
576.80114	4712.725
580.82422	4630.625
584.84444	4711.125
588.86181	4901.825
592.87633	5059.325
596.888	5136.225
600.89682	5136.625
604.9028	5538.425
608.90594	6874.125
612.90624	8592.925
616.90371	8455.025
620.89834	6678.125
624.89015	6114.325
628.87913	6418.825
632.86528	6933.525
636.84862	7241.225
640.82913	7065.025
644.80683	6513.525
648.78172	5911.025
652.75379	5420.225
656.72306	5202.525
660.68952	5120.325
664.65319	4921.125
668.61405	4638.825
672.57211	4500.425
676.52738	4491.725
680.47986	4483.425
684.42955	4448.525
688.37646	4430.725
692.32058	4421.325
696.26192	4420.925
700.20048	4427.125
704.13626	4465.325
708.06928	4447.425
711.99952	4402.025
715.927	4427.525
719.85171	4516.325
723.77365	4599.725
727.69284	4602.125
731.60928	4540.225
735.52295	4475.025
739.43388	4430.725
743.34206	4444.425
747.24749	4428.725
751.15017	4427.725
755.05012	4444.425
758.94733	4622.025
762.8418	5029.525
766.73354	5759.625
770.62254	6534.925
774.50882	6994.125
778.39237	6762.525
782.27321	5925.925
786.15132	5085.725
790.02671	4619.525
793.89938	4469.425
797.76935	4444.625
801.6366	4579.125
805.50115	4862.125
809.36299	5137.125
813.22213	5198.725
817.07857	5039.425
820.93231	4789.925
824.78336	4539.825
828.63172	4344.025
832.47738	4236.325
836.32036	4166.625
840.16066	4123.225
843.99827	4084.925
847.8332	4065.425
851.66546	4059.625
855.49504	4050.025
859.32195	4058.325
863.1462	4074.025
866.96777	4144.525
870.78668	4262.625
874.60293	4466.825
878.41652	4686.525
882.22745	4894.025
886.03573	4989.325
889.84136	4962.425
893.64433	4811.025
897.44466	4595.025
901.24235	4356.825
905.0374	4181.725
908.8298	4051.825
912.61957	3977.725
916.40671	3923.925
920.19121	3922.125
923.97308	3922.425
927.75233	3954.625
931.52895	3988.725
935.30295	3956.125
939.07433	3840.425
942.84309	3739.125
946.60924	3667.725
950.37278	3630.025
954.13371	3605.825
957.89203	3589.125
961.64774	3565.625
965.40086	3534.825
969.15137	3526.825
972.89929	3501.825
976.64461	3503.125
980.38733	3501.625
984.12747	3482.925
987.86502	3504.925
991.59999	3560.825
995.33237	3621.325
999.06217	3736.025
1002.78939	3894.625
1006.51404	4030.325
1010.23611	4172.525
1013.95561	4281.425
1017.67255	4285.525
1021.38692	4225.425
1025.09872	4093.325
1028.80796	3946.725
1032.51465	3837.225
1036.21877	3784.925
1039.92035	3749.425
1043.61937	3749.125
1047.31584	3732.025
1051.00976	3740.425
1054.70114	3762.225
1058.38998	3790.625
1062.07627	3873.725
1065.76003	3955.925
1069.44126	3997.625
1073.11995	4051.925
1076.79611	4100.825
1080.46974	4123.125
1084.14085	4146.425
1087.80943	4175.125
1091.47549	4151.325
1095.13903	4013.325
1098.80005	3850.525
1102.45857	3748.125
1106.11456	3736.125
1109.76805	3826.025
1113.41903	4001.825
1117.06751	4269.425
1120.71348	4669.525
1124.35696	5167.225
1127.99793	5761.325
1131.63641	6168.625
1135.2724	6222.625
1138.90589	6090.625
1142.5369	5775.725
1146.16542	5354.425
1149.79145	4901.425
1153.415	4492.625
1157.03607	4199.725
1160.65467	4058.425
1164.27079	4064.325
1167.88443	4181.325
1171.49561	4467.525
1175.10432	4988.025
1178.71056	5772.425
1182.31434	6435.725
1185.91565	6748.125
1189.51451	6784.825
1193.11091	6694.125
1196.70485	6583.325
1200.29634	6519.325
1203.88538	6396.025
1207.47197	6073.925
1211.05612	5646.025
1214.63782	5273.725
1218.21708	4996.825
1221.79391	4725.725
1225.36829	4530.725
1228.94024	4340.625
1232.50976	4209.625
1236.07685	4153.225
1239.6415	4158.825
1243.20374	4208.325
1246.76355	4248.925
1250.32093	4293.725
1253.8759	4381.825
1257.42845	4484.125
1260.97859	4625.225
1264.52631	4737.425
1268.07163	4854.625
1271.61453	4941.325
1275.15503	4964.825
1278.69312	4928.125
1282.22882	4897.725
1285.76211	4971.025
1289.29301	5148.725
1292.82151	5355.325
1296.34761	5593.025
1299.87133	5933.225
1303.39266	6412.725
1306.9116	7123.725
1310.42815	7957.325
1313.94233	8486.925
1317.45412	8361.125
1320.96354	7786.425
1324.47058	7083.625
1327.97525	6472.325
1331.47754	6123.825
1334.97747	6035.425
1338.47502	6156.225
1341.97022	6373.625
1345.46305	6658.725
1348.95352	7194.825
1352.44163	7927.825
1355.92738	8946.725
1359.41078	10241.225
1362.89183	11364.325
1366.37053	11218.625
1369.84688	9727.725
1373.32088	8083.625
1376.79254	6936.225
1380.26186	6305.525
1383.72883	5971.225
1387.19347	5682.125
1390.65578	5360.925
1394.11575	5076.825
1397.57339	4916.525
1401.0287	4801.725
1404.48168	4707.925
1407.93234	4643.025
1411.38068	4535.425
1414.82669	4458.025
1418.27039	4365.225
1421.71177	4277.225
1425.15083	4208.225
1428.58758	4163.525
1432.02203	4182.925
1435.45416	4243.025
1438.88399	4279.625
1442.31151	4273.825
1445.73673	4253.825
1449.15965	4249.125
1452.58027	4206.425
1455.9986	4111.525
1459.41463	4057.025
1462.82837	4091.025
1466.23982	4197.325
1469.64898	4317.625
1473.05586	4409.925
1476.46045	4502.725
1479.86276	4643.025
1483.26279	4824.825
1486.66054	5020.825
1490.05602	5230.025
1493.44922	5460.125
1496.84016	5829.125
1500.22882	6387.025
1503.61521	7168.125
1506.99934	8051.225
1510.38121	8852.525
1513.76081	9217.925
1517.13816	8773.925
1520.51324	7663.525
1523.88607	6557.525
1527.25665	5799.925
1530.62498	5438.725
1533.99105	5293.925
1537.35488	5236.525
1540.71647	5235.625
1544.07581	5283.525
1547.4329	5326.125
1550.78776	5358.525
1554.14038	5383.325
1557.49077	5379.325
1560.83892	5418.025
1564.18484	5526.825
1567.52853	5679.725
1570.86999	5854.825
1574.20922	6007.725
1577.54624	6034.225
1580.88103	5769.625
1584.2136	5383.925
1587.54395	5104.025
1590.87208	5054.625
1594.19801	5243.425
1597.52172	5611.125
1600.84321	5871.125
1604.16251	5851.025
1607.47959	5619.125
1610.79447	5296.025
1614.10715	4980.125
1617.41763	4768.425
1620.7259	4655.525
1624.03199	4645.425
1627.33587	4699.525
1630.63757	4830.125
1633.93707	5090.125
1637.23439	5471.925
1640.52951	6034.725
1643.82246	6836.125
1647.11321	7774.325
1650.40179	8398.325
1653.68819	8409.725
1656.97241	7550.125
1660.25446	6471.325
1663.53433	5562.925
1666.81203	4863.825
1670.08756	4345.125
1673.36092	3985.125
1676.63211	3723.925
1679.90115	3527.425
1683.16801	3379.225
1686.43272	3268.025
1689.69527	3146.925
1692.95567	3083.225
1696.2139	2996.725
1699.46999	2929.025
1702.72392	2846.525
1705.97571	2779.625
1709.22535	2710.125
1712.47284	2662.825
1715.71819	2642.425
1718.96139	2595.525
1722.20246	2567.225
1725.44139	2529.925
1728.67818	2511.425
1731.91284	2465.225
1735.14537	2442.125
1738.37576	2408.225
1741.60403	2396.025
1744.83017	2376.425
1748.05418	2364.525
1751.27607	2343.925
1754.49584	2336.225
1757.71349	2333.825
1760.92903	2316.525
1764.14244	2310.325
1767.35375	2299.225
1770.56294	2277.425
1773.77002	2267.625
1776.97499	2255.125
1780.17785	2254.125
1783.37861	2244.125
1786.57727	2223.325
1789.77382	2214.125
1792.96828	2191.525
1796.16064	2180.425
1799.3509	2181.725
1802.53907	2179.725
1805.72514	2156.425
1808.90913	2159.725
1812.09102	2142.525
1815.27083	2127.425
1818.44856	2126.025
1821.6242	2119.025
1824.79776	2097.725
1827.96924	2097.025
1831.13864	2097.225
1834.30597	2086.725
1837.47122	2086.925
1840.6344	2077.325
1843.7955	2073.625
1846.95454	2057.625
1850.11151	2054.525
1853.26642	2060.425
1856.41926	2049.525
1859.57004	2034.225
1862.71876	2034.725
1865.86542	2031.025
1869.01003	2026.725
1872.15258	2021.825
1875.29308	2020.925
1878.43152	2018.925
1881.56792	2014.125
1884.70227	2006.225
1887.83457	2008.625
1890.96482	1991.625
1894.09304	1977.125
1897.21921	1983.325
1900.34335	1974.525
1903.46544	1971.525
1906.58551	1972.725
1909.70353	1960.725
1912.81953	1958.725
1915.93349	1962.025
1919.04543	1954.625
1922.15534	1951.625
1925.26322	1940.525
1928.36908	1941.325
1931.47292	1928.825
1934.57473	1921.625
1937.67453	1915.525
1940.77232	1899.725
1943.86808	1890.725
1946.96184	1891.625
1950.05358	1878.425
1953.14331	1874.225
1956.23103	1866.525
1959.31675	1856.925
1962.40046	1851.625
1965.48217	1841.125
1968.56188	1847.725
1971.63959	1843.025
1974.7153	1828.525
1977.78901	1826.925
1980.86073	1819.225
1983.93046	1807.325
1986.99819	1803.425
1990.06394	1779.825
1993.1277	1794.825
1996.18947	1776.525
1999.24925	1775.825
2002.30706	1755.925
2005.36288	1744.725
2008.41672	1753.925
2011.46859	1747.825
2014.51848	1735.025
2017.56639	1721.525
2020.61233	1719.725
2023.6563	1718.825
2026.6983	1705.825
2029.73833	1703.525
2032.7764	1695.525
2035.8125	1689.025
2038.84664	1681.925
2041.87881	1692.525
2044.90903	1685.025
2047.93729	1674.325
2050.96359	1670.425
2053.98794	1673.025
2057.01034	1653.125
2060.03078	1656.225
2063.04927	1656.625
2066.06582	1660.925
2069.08042	1651.525
2072.09307	1647.025
2075.10378	1650.925
2078.11255	1647.125
2081.11938	1646.725
2084.12426	1648.925
2087.12722	1641.325
2090.12824	1632.325
2093.12732	1637.225
2096.12447	1637.325
2099.11969	1639.225
2102.11299	1632.625
2105.10435	1638.525
2108.09379	1634.425
2111.08131	1629.425
2114.0669	1622.225
2117.05057	1634.325
2120.03233	1632.725
2123.01216	1638.925
2125.99008	1635.025
2128.96609	1627.525
2131.94018	1630.125
2134.91236	1630.925
2137.88263	1628.725
2140.851	1624.325
2143.81746	1619.125
2146.78201	1619.825
2149.74466	1604.825
2152.7054	1608.225
2155.66425	1603.525
2158.6212	1603.325
2161.57625	1593.025
2164.52941	1597.125
2167.48067	1593.225
2170.43004	1602.925
2173.37752	1601.325
2176.32311	1577.425
2179.26681	1590.525
2182.20863	1593.825
2185.14856	1593.325
2188.08661	1582.625
2191.02278	1577.825
2193.95707	1567.625
2196.88948	1576.925
2199.82001	1582.625
2202.74867	1573.325
2205.67545	1558.225
2208.60037	1553.925
2211.52341	1552.425
2214.44458	1545.925
2217.36388	1540.025
2220.28132	1542.025
2223.1969	1531.425
2226.11061	1535.025
2229.02246	1523.225
2231.93245	1514.625
2234.84058	1519.025
2237.74686	1514.625
2240.65128	1515.025
2243.55385	1513.925
2246.45456	1506.725
2249.35343	1501.725
2252.25044	1509.125
2255.14561	1497.725
2258.03893	1516.825
2260.93041	1501.725
2263.82004	1497.925
2266.70783	1484.525
2269.59378	1486.325
2272.4779	1482.725
2275.36017	1489.425
2278.24061	1466.025
2281.11922	1469.525
2283.996	1466.425
2286.87094	1458.825
2289.74405	1457.325
2292.61534	1443.825
2295.4848	1435.225
2298.35243	1436.325
2301.21824	1440.125
2304.08223	1433.825
2306.94439	1426.025
2309.80474	1424.825
2312.66327	1422.725
2315.51999	1421.925
2318.37489	1421.525
2321.22797	1420.325
2324.07925	1409.725
2326.92871	1410.325
2329.77637	1409.725
2332.62222	1410.625
2335.46626	1400.725
2338.3085	1391.825
2341.14893	1385.125
2343.98756	1389.825
2346.8244	1389.325
2349.65943	1385.725
2352.49267	1393.425
2355.32411	1396.525
2358.15376	1392.425
2360.98161	1396.125
2363.80768	1390.725
2366.63195	1411.325
2369.45444	1405.725
2372.27514	1405.125
2375.09405	1408.625
2377.91118	1398.725
2380.72652	1393.325
2383.54009	1387.525
2386.35187	1384.925
2389.16188	1378.325
2391.97011	1368.825
2394.77657	1360.325
2397.58125	1357.725
2400.38416	1356.625
2403.18529	1345.925
2405.98466	1343.025
2408.78226	1330.525
2411.57809	1328.925
2414.37216	1344.125
2417.16446	1336.625
2419.955	1329.125
2422.74378	1331.225
2425.5308	1317.525
2428.31606	1320.325
2431.09956	1317.325
2433.88131	1308.525
2436.6613	1311.425
2439.43954	1311.225
2442.21603	1309.925
2444.99077	1308.825
2447.76377	1310.425
2450.53501	1313.525
2453.30451	1302.725
2456.07226	1308.625
2458.83827	1298.525
2461.60254	1300.725
2464.36507	1300.425
2467.12586	1295.925
2469.88492	1296.225
2472.64224	1294.025
2475.39782	1298.225
2478.15167	1298.525
2480.90379	1296.325
2483.65417	1300.625
2486.40283	1303.125
2489.14976	1308.825
2491.89497	1315.125
2494.63845	1309.625
2497.3802	1310.725
2500.12024	1308.225
2502.85855	1301.725
2505.59514	1298.325
2508.33002	1293.525
2511.06318	1288.825
2513.79462	1262.025
2516.52435	1261.625
2519.25237	1262.525
2521.97867	1260.025
2524.70327	1254.225
2527.42616	1235.125
2530.14734	1234.725
2532.86681	1231.125
2535.58458	1238.525
2538.30065	1241.525
2541.01501	1241.125
2543.72768	1236.825
2546.43864	1234.925
2549.14791	1227.925
2551.85548	1232.525
2554.56136	1236.025
2557.26554	1229.325
2559.96803	1220.925
2562.66883	1222.025
2565.36794	1218.325
2568.06536	1223.325
2570.7611	1211.325
2573.45514	1205.825
2576.14751	1216.125
2578.83819	1210.725
2581.52719	1203.125
2584.21451	1200.925
2586.90015	1194.225
2589.58411	1188.625
2592.2664	1200.825
2594.94701	1188.125
2597.62594	1181.325
2600.30321	1181.825
2602.9788	1175.425
2605.65273	1188.025
2608.32498	1174.525
2610.99557	1172.725
2613.66449	1174.925
2616.33175	1182.725
2618.99734	1175.625
2621.66128	1172.925
2624.32355	1173.025
2626.98416	1178.025
2629.64311	1160.125
2632.30041	1154.725
2634.95605	1155.525
2637.61004	1162.825
2640.26238	1155.025
2642.91306	1148.825
2645.56209	1147.525
2648.20948	1147.425
2650.85521	1149.325
2653.4993	1148.525
2656.14175	1147.425
2658.78255	1150.025
2661.42171	1160.225
2664.05923	1152.225
2666.6951	1155.225
2669.32934	1156.625
2671.96194	1153.625
2674.59291	1164.125
2677.22224	1159.225
2679.84993	1162.625
2682.476	1157.025
2685.10043	1161.225
2687.72324	1156.825
2690.34441	1155.425
2692.96396	1159.825
2695.58188	1161.725
2698.19818	1161.725
2700.81285	1169.825
2703.4259	1181.825
2706.03733	1179.825
2708.64714	1186.425
2711.25533	1179.625
2713.86191	1176.425
2716.46687	1178.425
2719.07021	1192.125
2721.67194	1191.925
2724.27206	1190.525
2726.87057	1183.325
2729.46747	1192.425
2732.06276	1183.325
2734.65644	1183.725
2737.24852	1184.125
2739.83899	1174.725
2742.42786	1173.925
2745.01513	1178.025
2747.60079	1175.025
2750.18486	1168.425
2752.76733	1170.725
2755.3482	1160.225
2757.92747	1164.025
2760.50515	1156.625
2763.08123	1159.225
2765.65573	1162.325
2768.22863	1166.325
2770.79994	1155.725
2773.36967	1161.525
2775.9378	1162.025
2778.50435	1171.325
2781.06932	1170.025
2783.6327	1165.325
2786.1945	1179.925
2788.75471	1188.225
2791.31335	1179.725
2793.87041	1183.225
2796.42589	1188.525
2798.97979	1192.825
2801.53212	1190.225
2804.08288	1194.225
2806.63206	1195.525
2809.17967	1191.025
2811.72571	1195.825
2814.27018	1203.725
2816.81308	1208.525
2819.35442	1223.925
2821.89419	1200.225
2824.43239	1201.725
2826.96904	1204.925
2829.50412	1202.025
2832.03763	1201.225
2834.56959	1220.925
2837.1	1226.125
2839.62884	1227.425
2842.15613	1244.825
2844.68186	1265.825
2847.20604	1281.225
2849.72867	1294.425
2852.24974	1302.625
2854.76927	1313.225
2857.28724	1303.225
2859.80367	1299.825
2862.31855	1298.325
2864.83189	1292.725
2867.34368	1289.625
2869.85393	1288.625
2872.36264	1287.025
2874.8698	1286.025
2877.37543	1286.925
2879.87952	1282.425
2882.38207	1283.325
2884.88308	1278.725
2887.38256	1270.125
2889.88051	1281.325
2892.37692	1278.425
2894.8718	1278.825
2897.36515	1277.325
2899.85698	1280.525
2902.34727	1281.325
2904.83604	1288.725
2907.32328	1290.125
2909.809	1288.125
2912.29319	1289.225
2914.77587	1293.225
2917.25702	1296.325
2919.73665	1286.825
2922.21476	1294.525
2924.69136	1278.625
2927.16644	1277.525
2929.64	1268.225
2932.11205	1256.525
2934.58258	1247.325
2937.05161	1253.125
2939.51912	1241.125
2941.98513	1227.125
2944.44962	1214.425
2946.91261	1206.225
2949.37409	1190.425
2951.83407	1175.025
2954.29254	1170.225
2956.74951	1161.925
2959.20498	1151.825
2961.65895	1150.725
2964.11142	1159.025
2966.56239	1136.825
2969.01186	1101.325
2971.45984	1127.825
2973.90632	1126.625
2976.35131	1119.625
2978.7948	1119.325
2981.23681	1117.925
2983.67732	1113.725
2986.11635	1108.325
2988.55388	1108.525
2990.98993	1115.025
2993.4245	1102.125
2995.85758	1096.525
2998.28917	1103.925
3000.71928	1099.925
3003.14791	1094.325
3005.57506	1104.125
3008.00073	1102.425
3010.42493	1096.125
3012.84764	1110.125
3015.26888	1099.325
3017.68865	1111.625
3020.10694	1107.025
3022.52376	1104.025
3024.9391	1106.125
3027.35298	1114.425
3029.76539	1106.425
3032.17632	1112.125
3034.5858	1116.225
3036.9938	1114.925
3039.40034	1115.925
3041.80542	1117.925
3044.20903	1111.325
3046.61118	1123.825
3049.01187	1120.525
3051.4111	1115.925
3053.80888	1124.525
3056.20519	1130.325
3058.60005	1130.425
3060.99345	1131.425
3063.3854	1133.825
3065.7759	1136.825
3068.16494	1140.025
3070.55254	1146.925
3072.93868	1141.125
3075.32338	1151.725
3077.70662	1150.525
3080.08842	1137.425
3082.46878	1148.425
3084.84769	1143.725
3087.22515	1146.125
3089.60118	1155.225
3091.97576	1160.625
3094.3489	1157.125
3096.72061	1167.325
3099.09087	1172.625
3101.4597	1178.325
3103.82709	1181.625
3106.19305	1197.425
3108.55757	1194.925
3110.92066	1197.825
3113.28232	1209.525
3115.64255	1213.325
3118.00134	1208.425
3120.35871	1211.925
3122.71466	1219.025
3125.06917	1228.725
3127.42226	1236.425
3129.77393	1252.025
3132.12417	1251.325
3134.47299	1259.625
3136.82039	1272.925
3139.16636	1274.725
3141.51092	1279.925
3143.85406	1294.525
3146.19579	1299.225
3148.53609	1309.125
3150.87499	1312.325
3153.21246	1320.025
3155.54853	1332.325
3157.88318	1336.625
3160.21642	1335.925
3162.54826	1366.025
3164.87868	1364.425
3167.2077	1371.325
3169.5353	1377.825
3171.86151	1399.325
3174.18631	1406.225
3176.5097	1397.825
3178.83169	1415.025
3181.15228	1419.725
3183.47147	1416.925
3185.78926	1430.125
3188.10565	1431.825
3190.42065	1439.525
3192.73424	1448.825
3195.04645	1458.725
3197.35725	1457.925
3199.66667	1474.725
3201.97469	1477.525
3204.28132	1481.025
3206.58656	1489.825
3208.8904	1493.025
3211.19287	1499.725
3213.49394	1517.725
3215.79363	1512.625
3218.09193	1515.825
3220.38884	1520.225
3222.68438	1526.025
3224.97853	1527.625
3227.2713	1534.725
3229.56269	1537.225
3231.8527	1537.825
3234.14133	1545.825
3236.42858	1540.525
