Data from AgNPs_APTES_FTO_UA_50uM_CRN_0uM_R6G_10uM_Scan_RamanShift__71__12-33-53-745.txt Node

Date: Tue Jul 05 12:33:53 BST 2022
User: TCL
Spectrometer: QEP01345
Trigger mode: 4
Integration Time (sec): 7.000000E0
Scans to average: 10
Electric dark correction enabled: true
Nonlinearity correction enabled: false
Boxcar width: 0
XAxis mode: Raman Shifts
Number of Pixels in Spectrum: 1044
>>>>>Begin Spectral Data<<<<<
46.04893	0.7875
50.45542	-0.4125
54.85868	-0.9125
59.25871	0.6875
63.6555	38.9875
68.04907	62.7875
72.43941	49.3875
76.82654	46.0875
81.21044	46.7875
85.59113	48.8875
89.96862	49.9875
94.34289	49.4875
98.71396	54.9875
103.08183	56.0875
107.4465	52.8875
111.80798	57.2875
116.16626	56.7875
120.52136	54.0875
124.87327	60.3875
129.222	59.2875
133.56755	61.3875
137.90993	61.4875
142.24913	63.7875
146.58517	71.4875
150.91804	78.4875
155.24774	86.0875
159.57429	96.7875
163.89768	123.9875
168.21792	156.4875
172.53501	207.1875
176.84895	280.9875
181.15975	393.4875
185.46741	551.3875
189.77193	750.7875
194.07331	1007.5875
198.37157	1297.2875
202.6667	1596.7875
206.9587	1894.0875
211.24758	2182.8875
215.53334	2462.6875
219.81599	2765.6875
224.09553	3082.0875
228.37195	3430.7875
232.64527	3821.8875
236.91549	4230.4875
241.18261	4695.7875
245.44663	5173.1875
249.70755	5585.2875
253.96539	5983.6875
258.22014	6295.9875
262.4718	6547.5875
266.72039	6705.6875
270.96589	6782.9875
275.20832	6782.9875
279.44768	6706.0875
283.68397	6603.2875
287.91719	6524.2875
292.14735	6429.7875
296.37445	6334.0875
300.59849	6268.7875
304.81948	6203.2875
309.03742	6187.4875
313.25231	6155.9875
317.46415	6150.0875
321.67296	6149.6875
325.87872	6140.1875
330.08145	6183.5875
334.28114	6237.3875
338.47781	6301.1875
342.67145	6387.7875
346.86207	6454.9875
351.04966	6549.6875
355.23424	6629.0875
359.4158	6710.1875
363.59435	6784.8875
367.76989	6868.6875
371.94243	6964.7875
376.11196	7044.2875
380.27849	7091.7875
384.44203	7168.3875
388.60257	7234.2875
392.76012	7306.0875
396.91468	7345.9875
401.06626	7420.0875
405.21485	7477.5875
409.36047	7536.6875
413.50311	7530.4875
417.64277	7556.3875
421.77947	7582.4875
425.9132	7623.5875
430.04396	7673.5875
434.17176	7748.1875
438.2966	7799.1875
442.41849	7868.9875
446.53742	7922.0875
450.6534	8014.4875
454.76644	8077.7875
458.87653	8151.7875
462.98368	8192.3875
467.08789	8217.8875
471.18916	8244.0875
475.2875	8254.3875
479.38291	8255.0875
483.4754	8243.4875
487.56496	8289.0875
491.6516	8293.8875
495.73531	8319.7875
499.81612	8310.6875
503.89401	8342.4875
507.96899	8399.4875
512.04106	8412.2875
516.11023	8451.8875
520.1765	8459.5875
524.23987	8472.1875
528.30034	8554.4875
532.35792	8586.8875
536.41261	8591.7875
540.46441	8587.0875
544.51333	8593.1875
548.55936	8634.8875
552.60252	8669.7875
556.64279	8731.9875
560.6802	8816.0875
564.71473	8815.8875
568.7464	8814.5875
572.7752	8845.0875
576.80114	8851.7875
580.82422	8867.7875
584.84444	8895.5875
588.86181	8956.3875
592.87633	9029.0875
596.888	9030.4875
600.89682	9099.3875
604.9028	9175.5875
608.90594	9347.7875
612.90624	9535.2875
616.90371	9462.5875
620.89834	9233.7875
624.89015	9151.4875
628.87913	9166.0875
632.86528	9173.0875
636.84862	9220.9875
640.82913	9218.0875
644.80683	9175.6875
648.78172	9187.1875
652.75379	9190.1875
656.72306	9253.0875
660.68952	9329.5875
664.65319	9361.7875
668.61405	9390.7875
672.57211	9423.2875
676.52738	9497.3875
680.47986	9510.9875
684.42955	9566.4875
688.37646	9634.7875
692.32058	9681.8875
696.26192	9753.1875
700.20048	9769.8875
704.13626	9791.2875
708.06928	9805.1875
711.99952	9816.9875
715.927	9842.9875
719.85171	9829.4875
723.77365	9809.3875
727.69284	9762.1875
731.60928	9722.8875
735.52295	9717.0875
739.43388	9735.2875
743.34206	9755.8875
747.24749	9780.6875
751.15017	9813.5875
755.05012	9827.1875
758.94733	9870.8875
762.8418	9947.7875
766.73354	10035.9875
770.62254	10136.9875
774.50882	10222.4875
778.39237	10234.2875
782.27321	10179.2875
786.15132	10075.6875
790.02671	10004.3875
793.89938	9995.8875
797.76935	9959.8875
801.6366	9962.7875
805.50115	9964.7875
809.36299	9965.9875
813.22213	9933.1875
817.07857	9944.3875
820.93231	9960.7875
824.78336	9982.8875
828.63172	10012.2875
832.47738	10010.9875
836.32036	10035.8875
840.16066	10056.4875
843.99827	10093.1875
847.8332	10123.2875
851.66546	10150.0875
855.49504	10135.2875
859.32195	10159.9875
863.1462	10183.9875
866.96777	10185.8875
870.78668	10204.3875
874.60293	10243.0875
878.41652	10279.7875
882.22745	10275.6875
886.03573	10292.5875
889.84136	10329.1875
893.64433	10334.9875
897.44466	10361.6875
901.24235	10371.3875
905.0374	10395.2875
908.8298	10441.1875
912.61957	10440.8875
916.40671	10474.4875
920.19121	10467.2875
923.97308	10464.4875
927.75233	10429.5875
931.52895	10444.7875
935.30295	10426.5875
939.07433	10375.8875
942.84309	10342.6875
946.60924	10341.5875
950.37278	10324.2875
954.13371	10311.9875
957.89203	10325.2875
961.64774	10296.8875
965.40086	10278.0875
969.15137	10275.0875
972.89929	10256.7875
976.64461	10282.7875
980.38733	10282.2875
984.12747	10277.5875
987.86502	10277.2875
991.59999	10315.3875
995.33237	10319.3875
999.06217	10391.4875
1002.78939	10423.8875
1006.51404	10447.1875
1010.23611	10490.6875
1013.95561	10527.8875
1017.67255	10545.7875
1021.38692	10526.0875
1025.09872	10509.6875
1028.80796	10504.1875
1032.51465	10461.5875
1036.21877	10456.2875
1039.92035	10512.8875
1043.61937	10505.4875
1047.31584	10527.1875
1051.00976	10535.1875
1054.70114	10577.8875
1058.38998	10581.9875
1062.07627	10623.2875
1065.76003	10626.6875
1069.44126	10636.8875
1073.11995	10668.3875
1076.79611	10737.2875
1080.46974	10761.1875
1084.14085	10738.5875
1087.80943	10755.1875
1091.47549	10766.7875
1095.13903	10747.6875
1098.80005	10780.5875
1102.45857	10754.8875
1106.11456	10755.8875
1109.76805	10707.7875
1113.41903	10672.1875
1117.06751	10658.4875
1120.71348	10667.4875
1124.35696	10672.4875
1127.99793	10669.2875
1131.63641	10688.7875
1135.2724	10673.1875
1138.90589	10686.9875
1142.5369	10684.7875
1146.16542	10676.8875
1149.79145	10644.9875
1153.415	10610.9875
1157.03607	10571.9875
1160.65467	10573.9875
1164.27079	10613.3875
1167.88443	10657.4875
1171.49561	10730.2875
1175.10432	10788.6875
1178.71056	10896.3875
1182.31434	11005.4875
1185.91565	11108.0875
1189.51451	11165.6875
1193.11091	11226.1875
1196.70485	11240.1875
1200.29634	11226.4875
1203.88538	11162.6875
1207.47197	11087.7875
1211.05612	11015.2875
1214.63782	11000.7875
1218.21708	10951.0875
1221.79391	10914.6875
1225.36829	10879.6875
1228.94024	10853.6875
1232.50976	10835.2875
1236.07685	10868.6875
1239.6415	10816.9875
1243.20374	10860.6875
1246.76355	10888.0875
1250.32093	10899.3875
1253.8759	10953.6875
1257.42845	11007.7875
1260.97859	11060.4875
1264.52631	11088.5875
1268.07163	11121.9875
1271.61453	11177.5875
1275.15503	11189.0875
1278.69312	11211.5875
1282.22882	11198.9875
1285.76211	11187.5875
1289.29301	11223.2875
1292.82151	11229.8875
1296.34761	11286.4875
1299.87133	11364.5875
1303.39266	11443.8875
1306.9116	11512.2875
1310.42815	11639.1875
1313.94233	11701.8875
1317.45412	11765.0875
1320.96354	11755.5875
1324.47058	11699.4875
1327.97525	11623.1875
1331.47754	11537.0875
1334.97747	11500.1875
1338.47502	11532.1875
1341.97022	11623.9875
1345.46305	11715.1875
1348.95352	11901.0875
1352.44163	11905.9875
1355.92738	11887.2875
1359.41078	11835.9875
1362.89183	11803.6875
1366.37053	11667.7875
1369.84688	11471.4875
1373.32088	11282.6875
1376.79254	11139.9875
1380.26186	11011.8875
1383.72883	10936.1875
1387.19347	10837.9875
1390.65578	10759.5875
1394.11575	10697.3875
1397.57339	10662.0875
1401.0287	10609.3875
1404.48168	10587.8875
1407.93234	10565.8875
1411.38068	10577.9875
1414.82669	10534.3875
1418.27039	10490.3875
1421.71177	10438.4875
1425.15083	10414.0875
1428.58758	10383.9875
1432.02203	10361.3875
1435.45416	10369.0875
1438.88399	10362.2875
1442.31151	10366.6875
1445.73673	10363.9875
1449.15965	10342.7875
1452.58027	10362.8875
1455.9986	10348.1875
1459.41463	10362.9875
1462.82837	10422.4875
1466.23982	10464.5875
1469.64898	10516.9875
1473.05586	10563.3875
1476.46045	10567.4875
1479.86276	10603.0875
1483.26279	10625.5875
1486.66054	10619.0875
1490.05602	10657.6875
1493.44922	10696.8875
1496.84016	10779.4875
1500.22882	10855.1875
1503.61521	10954.1875
1506.99934	11020.8875
1510.38121	11061.4875
1513.76081	11023.6875
1517.13816	10970.9875
1520.51324	10887.1875
1523.88607	10866.1875
1527.25665	10841.3875
1530.62498	10800.4875
1533.99105	10804.1875
1537.35488	10806.8875
1540.71647	10799.0875
1544.07581	10803.3875
1547.4329	10805.8875
1550.78776	10790.6875
1554.14038	10805.0875
1557.49077	10781.9875
1560.83892	10768.4875
1564.18484	10801.7875
1567.52853	10799.7875
1570.86999	10803.0875
1574.20922	10816.5875
1577.54624	10827.6875
1580.88103	10775.8875
1584.2136	10761.8875
1587.54395	10759.0875
1590.87208	10763.3875
1594.19801	10822.2875
1597.52172	10909.4875
1600.84321	10985.8875
1604.16251	10944.0875
1607.47959	10927.4875
1610.79447	10810.9875
1614.10715	10655.2875
1617.41763	10469.4875
1620.7259	10366.4875
1624.03199	10281.8875
1627.33587	10271.2875
1630.63757	10252.8875
1633.93707	10273.6875
1637.23439	10330.4875
1640.52951	10464.7875
1643.82246	10633.3875
1647.11321	10754.0875
1650.40179	10761.1875
1653.68819	10640.8875
1656.97241	10472.2875
1660.25446	10264.9875
1663.53433	10141.2875
1666.81203	9974.8875
1670.08756	9929.8875
1673.36092	9860.2875
1676.63211	9850.0875
1679.90115	9797.2875
1683.16801	9779.0875
1686.43272	9751.3875
1689.69527	9725.2875
1692.95567	9702.7875
1696.2139	9674.2875
1699.46999	9648.2875
1702.72392	9666.6875
1705.97571	9680.4875
1709.22535	9696.2875
1712.47284	9677.2875
1715.71819	9713.3875
1718.96139	9688.5875
1722.20246	9690.4875
1725.44139	9650.4875
1728.67818	9645.8875
1731.91284	9611.6875
1735.14537	9568.7875
1738.37576	9536.2875
1741.60403	9496.4875
1744.83017	9498.4875
1748.05418	9487.6875
1751.27607	9459.9875
1754.49584	9454.6875
1757.71349	9411.5875
1760.92903	9384.5875
1764.14244	9363.5875
1767.35375	9379.4875
1770.56294	9352.4875
1773.77002	9338.4875
1776.97499	9379.4875
1780.17785	9350.8875
1783.37861	9372.0875
1786.57727	9374.9875
1789.77382	9341.7875
1792.96828	9325.7875
1796.16064	9312.8875
1799.3509	9276.7875
1802.53907	9280.2875
1805.72514	9259.7875
1808.90913	9239.4875
1812.09102	9260.0875
1815.27083	9218.3875
1818.44856	9215.2875
1821.6242	9194.0875
1824.79776	9192.3875
1827.96924	9157.8875
1831.13864	9165.1875
1834.30597	9166.9875
1837.47122	9152.3875
1840.6344	9123.2875
1843.7955	9096.1875
1846.95454	9113.5875
1850.11151	9113.1875
1853.26642	9111.8875
1856.41926	9126.0875
1859.57004	9116.0875
1862.71876	9097.1875
1865.86542	9090.0875
1869.01003	9100.4875
1872.15258	9072.1875
1875.29308	9065.6875
1878.43152	9046.1875
1881.56792	9030.9875
1884.70227	9026.5875
1887.83457	8992.7875
1890.96482	8973.9875
1894.09304	8999.8875
1897.21921	8939.9875
1900.34335	8941.9875
1903.46544	8943.7875
1906.58551	8917.5875
1909.70353	8926.8875
1912.81953	8902.0875
1915.93349	8905.8875
1919.04543	8902.5875
1922.15534	8866.1875
1925.26322	8853.3875
1928.36908	8844.5875
1931.47292	8833.8875
1934.57473	8815.3875
1937.67453	8783.9875
1940.77232	8775.9875
1943.86808	8759.2875
1946.96184	8711.5875
1950.05358	8684.6875
1953.14331	8674.7875
1956.23103	8656.0875
1959.31675	8617.8875
1962.40046	8589.6875
1965.48217	8560.5875
1968.56188	8545.6875
1971.63959	8509.2875
1974.7153	8481.6875
1977.78901	8457.1875
1980.86073	8450.8875
1983.93046	8423.6875
1986.99819	8379.9875
1990.06394	8358.8875
1993.1277	8362.1875
1996.18947	8334.1875
1999.24925	8299.1875
2002.30706	8275.9875
2005.36288	8213.0875
2008.41672	8222.1875
2011.46859	8221.3875
2014.51848	8181.1875
2017.56639	8161.1875
2020.61233	8125.6875
2023.6563	8096.2875
2026.6983	8063.7875
2029.73833	8048.5875
2032.7764	8043.0875
2035.8125	8002.2875
2038.84664	7977.4875
2041.87881	7986.5875
2044.90903	7950.5875
2047.93729	7953.9875
2050.96359	7937.2875
2053.98794	7922.0875
2057.01034	7911.2875
2060.03078	7904.0875
2063.04927	7886.8875
2066.06582	7894.6875
2069.08042	7867.0875
2072.09307	7837.7875
2075.10378	7837.1875
2078.11255	7871.9875
2081.11938	7873.7875
2084.12426	7856.5875
2087.12722	7852.4875
2090.12824	7840.5875
2093.12732	7843.9875
2096.12447	7828.4875
2099.11969	7840.8875
2102.11299	7833.1875
2105.10435	7830.0875
2108.09379	7830.3875
2111.08131	7843.3875
2114.0669	7845.6875
2117.05057	7885.9875
2120.03233	7869.9875
2123.01216	7854.2875
2125.99008	7873.2875
2128.96609	7874.3875
2131.94018	7868.3875
2134.91236	7899.4875
2137.88263	7918.1875
2140.851	7916.1875
2143.81746	7917.5875
2146.78201	7906.0875
2149.74466	7893.6875
2152.7054	7918.6875
2155.66425	7869.7875
2158.6212	7876.2875
2161.57625	7880.3875
2164.52941	7858.7875
2167.48067	7867.8875
2170.43004	7865.9875
2173.37752	7886.1875
2176.32311	7878.1875
2179.26681	7865.1875
2182.20863	7866.6875
2185.14856	7868.9875
2188.08661	7837.3875
2191.02278	7834.2875
2193.95707	7814.3875
2196.88948	7849.2875
2199.82001	7836.1875
2202.74867	7793.6875
2205.67545	7780.3875
2208.60037	7772.7875
2211.52341	7761.1875
2214.44458	7760.0875
2217.36388	7723.9875
2220.28132	7713.8875
2223.1969	7719.6875
2226.11061	7692.0875
2229.02246	7647.6875
2231.93245	7639.2875
2234.84058	7633.1875
2237.74686	7632.3875
2240.65128	7631.3875
2243.55385	7622.9875
2246.45456	7582.1875
2249.35343	7571.0875
2252.25044	7557.2875
2255.14561	7558.8875
2258.03893	7571.9875
2260.93041	7544.8875
2263.82004	7508.7875
2266.70783	7494.5875
2269.59378	7477.8875
2272.4779	7438.0875
2275.36017	7417.9875
2278.24061	7405.4875
2281.11922	7373.4875
2283.996	7380.8875
2286.87094	7368.6875
2289.74405	7359.1875
2292.61534	7342.7875
2295.4848	7325.5875
2298.35243	7312.0875
2301.21824	7328.9875
2304.08223	7316.6875
2306.94439	7285.8875
2309.80474	7297.9875
2312.66327	7303.1875
2315.51999	7285.3875
2318.37489	7251.8875
2321.22797	7252.8875
2324.07925	7233.2875
2326.92871	7207.7875
2329.77637	7206.8875
2332.62222	7178.2875
2335.46626	7173.1875
2338.3085	7169.8875
2341.14893	7142.7875
2343.98756	7142.3875
2346.8244	7117.6875
2349.65943	7105.9875
2352.49267	7093.6875
2355.32411	7101.4875
2358.15376	7115.0875
2360.98161	7085.3875
2363.80768	7093.2875
2366.63195	7081.7875
2369.45444	7083.7875
2372.27514	7074.1875
2375.09405	7065.1875
2377.91118	7048.1875
2380.72652	7015.8875
2383.54009	6995.4875
2386.35187	6996.8875
2389.16188	6959.3875
2391.97011	6964.7875
2394.77657	6937.5875
2397.58125	6907.8875
2400.38416	6910.2875
2403.18529	6883.4875
2405.98466	6873.5875
2408.78226	6879.2875
2411.57809	6858.8875
2414.37216	6859.5875
2417.16446	6840.5875
2419.955	6826.8875
2422.74378	6844.6875
2425.5308	6839.0875
2428.31606	6828.5875
2431.09956	6824.0875
2433.88131	6786.2875
2436.6613	6796.3875
2439.43954	6788.3875
2442.21603	6786.1875
2444.99077	6734.5875
2447.76377	6731.0875
2450.53501	6744.8875
2453.30451	6743.7875
2456.07226	6701.5875
2458.83827	6688.4875
2461.60254	6672.1875
2464.36507	6671.5875
2467.12586	6665.4875
2469.88492	6654.9875
2472.64224	6638.0875
2475.39782	6650.2875
2478.15167	6661.4875
2480.90379	6638.2875
2483.65417	6625.3875
2486.40283	6597.8875
2489.14976	6625.6875
2491.89497	6612.5875
2494.63845	6583.9875
2497.3802	6582.7875
2500.12024	6560.7875
2502.85855	6532.8875
2505.59514	6568.9875
2508.33002	6577.8875
2511.06318	6543.6875
2513.79462	6545.9875
2516.52435	6515.0875
2519.25237	6512.6875
2521.97867	6503.8875
2524.70327	6492.8875
2527.42616	6479.2875
2530.14734	6467.3875
2532.86681	6449.6875
2535.58458	6444.9875
2538.30065	6448.9875
2541.01501	6411.3875
2543.72768	6403.5875
2546.43864	6365.6875
2549.14791	6366.6875
2551.85548	6355.3875
2554.56136	6349.4875
2557.26554	6335.2875
2559.96803	6327.8875
2562.66883	6307.4875
2565.36794	6292.8875
2568.06536	6285.4875
2570.7611	6261.9875
2573.45514	6243.5875
2576.14751	6254.9875
2578.83819	6228.3875
2581.52719	6217.3875
2584.21451	6206.0875
2586.90015	6189.1875
2589.58411	6166.1875
2592.2664	6176.6875
2594.94701	6138.5875
2597.62594	6133.7875
2600.30321	6090.1875
2602.9788	6110.0875
2605.65273	6068.6875
2608.32498	6076.4875
2610.99557	6061.5875
2613.66449	6056.9875
2616.33175	6037.8875
2618.99734	6044.9875
2621.66128	6039.3875
2624.32355	6038.3875
2626.98416	6018.6875
2629.64311	6000.2875
2632.30041	5990.6875
2634.95605	5971.8875
2637.61004	5968.6875
2640.26238	5964.4875
2642.91306	5942.9875
2645.56209	5947.9875
2648.20948	5949.8875
2650.85521	5940.0875
2653.4993	5930.1875
2656.14175	5925.6875
2658.78255	5908.3875
2661.42171	5916.1875
2664.05923	5902.2875
2666.6951	5917.7875
2669.32934	5902.9875
2671.96194	5886.7875
2674.59291	5893.9875
2677.22224	5876.9875
2679.84993	5871.5875
2682.476	5858.3875
2685.10043	5884.4875
2687.72324	5866.6875
2690.34441	5878.3875
2692.96396	5858.0875
2695.58188	5851.5875
2698.19818	5842.8875
2700.81285	5826.3875
2703.4259	5830.7875
2706.03733	5810.6875
2708.64714	5810.2875
2711.25533	5818.7875
2713.86191	5817.6875
2716.46687	5834.0875
2719.07021	5819.6875
2721.67194	5825.8875
2724.27206	5830.8875
2726.87057	5827.9875
2729.46747	5827.7875
2732.06276	5827.0875
2734.65644	5818.7875
2737.24852	5803.7875
2739.83899	5797.2875
2742.42786	5791.8875
2745.01513	5781.4875
2747.60079	5782.1875
2750.18486	5749.8875
2752.76733	5753.5875
2755.3482	5731.2875
2757.92747	5743.2875
2760.50515	5735.9875
2763.08123	5746.2875
2765.65573	5710.5875
2768.22863	5704.5875
2770.79994	5679.7875
2773.36967	5667.5875
2775.9378	5658.3875
2778.50435	5650.7875
2781.06932	5623.8875
2783.6327	5637.3875
2786.1945	5625.3875
2788.75471	5623.8875
2791.31335	5593.5875
2793.87041	5597.3875
2796.42589	5567.7875
2798.97979	5564.7875
2801.53212	5527.8875
2804.08288	5522.4875
2806.63206	5505.5875
2809.17967	5482.8875
2811.72571	5498.6875
2814.27018	5481.2875
2816.81308	5459.5875
2819.35442	5419.0875
2821.89419	5413.0875
2824.43239	5404.7875
2826.96904	5405.7875
2829.50412	5376.9875
2832.03763	5370.2875
2834.56959	5395.9875
2837.1	5360.8875
2839.62884	5357.6875
2842.15613	5336.2875
2844.68186	5343.8875
2847.20604	5343.7875
2849.72867	5334.0875
2852.24974	5323.2875
2854.76927	5298.6875
2857.28724	5278.2875
2859.80367	5284.5875
2862.31855	5295.4875
2864.83189	5264.7875
2867.34368	5270.3875
2869.85393	5253.0875
2872.36264	5254.8875
2874.8698	5235.9875
2877.37543	5241.2875
2879.87952	5242.2875
2882.38207	5250.1875
2884.88308	5225.0875
2887.38256	5234.9875
2889.88051	5218.9875
2892.37692	5213.4875
2894.8718	5201.2875
2897.36515	5221.1875
2899.85698	5213.6875
2902.34727	5207.5875
2904.83604	5209.2875
2907.32328	5200.0875
2909.809	5204.8875
2912.29319	5216.4875
2914.77587	5210.1875
2917.25702	5226.3875
2919.73665	5198.9875
2922.21476	5185.9875
2924.69136	5178.6875
2927.16644	5185.4875
2929.64	5163.5875
2932.11205	5167.6875
2934.58258	5142.5875
2937.05161	5165.5875
2939.51912	5159.4875
2941.98513	5153.6875
2944.44962	5155.9875
2946.91261	5127.4875
2949.37409	5139.5875
2951.83407	5127.9875
2954.29254	5118.8875
2956.74951	5127.6875
2959.20498	5117.5875
2961.65895	5126.3875
2964.11142	5117.8875
2966.56239	5106.4875
2969.01186	5087.1875
2971.45984	5104.0875
2973.90632	5144.3875
2976.35131	5097.5875
2978.7948	5105.8875
2981.23681	5082.5875
2983.67732	5079.7875
2986.11635	5063.7875
2988.55388	5059.6875
2990.98993	5046.3875
2993.4245	5049.5875
2995.85758	5031.3875
2998.28917	5009.5875
3000.71928	5021.8875
3003.14791	5008.4875
3005.57506	4998.6875
3008.00073	4978.9875
3010.42493	4979.4875
3012.84764	4963.0875
3015.26888	4958.8875
3017.68865	4949.2875
3020.10694	4936.0875
3022.52376	4965.4875
3024.9391	4942.6875
3027.35298	4949.2875
3029.76539	4934.8875
3032.17632	4919.7875
3034.5858	4921.3875
3036.9938	4923.2875
3039.40034	4898.2875
3041.80542	4910.6875
3044.20903	4890.2875
3046.61118	4889.7875
3049.01187	4882.7875
3051.4111	4878.5875
3053.80888	4881.2875
3056.20519	4874.8875
3058.60005	4870.8875
3060.99345	4851.9875
3063.3854	4834.3875
3065.7759	4818.5875
3068.16494	4807.8875
3070.55254	4794.5875
3072.93868	4797.7875
3075.32338	4795.4875
3077.70662	4778.7875
3080.08842	4750.7875
3082.46878	4768.5875
3084.84769	4768.5875
3087.22515	4766.1875
3089.60118	4771.0875
3091.97576	4783.6875
3094.3489	4774.7875
3096.72061	4763.2875
3099.09087	4780.5875
