Data from AgNPs_APTES_FTO_UA_50uM_CRN_0uM_R6G_10uM_Scan_RamanShift__15__11-28-33-667.txt Node

Date: Tue Jul 05 11:28:33 BST 2022
User: TCL
Spectrometer: QEP01345
Trigger mode: 4
Integration Time (sec): 7.000000E0
Scans to average: 10
Electric dark correction enabled: true
Nonlinearity correction enabled: false
Boxcar width: 0
XAxis mode: Raman Shifts
Number of Pixels in Spectrum: 1044
>>>>>Begin Spectral Data<<<<<
46.04893	-1.025
50.45542	-0.025
54.85868	-0.825
59.25871	1.875
63.6555	39.275
68.04907	43.575
72.43941	49.575
76.82654	51.475
81.21044	53.275
85.59113	55.775
89.96862	61.075
94.34289	59.375
98.71396	65.475
103.08183	66.075
107.4465	64.375
111.80798	69.175
116.16626	64.775
120.52136	64.275
124.87327	69.375
129.222	67.375
133.56755	71.175
137.90993	68.975
142.24913	76.675
146.58517	77.275
150.91804	84.775
155.24774	95.475
159.57429	109.475
163.89768	132.375
168.21792	167.175
172.53501	218.275
176.84895	295.775
181.15975	404.175
185.46741	559.575
189.77193	765.775
194.07331	1019.975
198.37157	1289.475
202.6667	1607.575
206.9587	1912.675
211.24758	2210.875
215.53334	2533.075
219.81599	2848.975
224.09553	3231.375
228.37195	3646.775
232.64527	4104.475
236.91549	4557.875
241.18261	4985.075
245.44663	5385.075
249.70755	5653.275
253.96539	5905.675
258.22014	6085.275
262.4718	6268.275
266.72039	6359.875
270.96589	6431.075
275.20832	6368.075
279.44768	6254.075
283.68397	6119.475
287.91719	5993.575
292.14735	5909.375
296.37445	5923.975
300.59849	6034.075
304.81948	6171.975
309.03742	6271.275
313.25231	6306.775
317.46415	6140.975
321.67296	5866.175
325.87872	5618.875
330.08145	5472.175
334.28114	5415.575
338.47781	5451.475
342.67145	5547.675
346.86207	5692.275
351.04966	5896.875
355.23424	6107.475
359.4158	6276.775
363.59435	6374.775
367.76989	6409.475
371.94243	6415.575
376.11196	6429.875
380.27849	6435.575
384.44203	6435.475
388.60257	6426.075
392.76012	6394.575
396.91468	6431.175
401.06626	6517.775
405.21485	6557.375
409.36047	6478.875
413.50311	6248.075
417.64277	6060.075
421.77947	5961.475
425.9132	5866.075
430.04396	5836.175
434.17176	5848.575
438.2966	5890.075
442.41849	6011.775
446.53742	6125.275
450.6534	6273.875
454.76644	6323.475
458.87653	6285.875
462.98368	6217.975
467.08789	6131.375
471.18916	6067.075
475.2875	5972.675
479.38291	5894.675
483.4754	5850.775
487.56496	5846.375
491.6516	5894.775
495.73531	5926.475
499.81612	5962.175
503.89401	6009.075
507.96899	6072.675
512.04106	6130.475
516.11023	6208.275
520.1765	6254.375
524.23987	6244.275
528.30034	6217.275
532.35792	6166.575
536.41261	6051.175
540.46441	5953.975
544.51333	5896.575
548.55936	5875.575
552.60252	5970.975
556.64279	6070.775
560.6802	6134.975
564.71473	6154.975
568.7464	6260.575
572.7752	6346.275
576.80114	6246.875
580.82422	6178.775
584.84444	6213.175
588.86181	6331.575
592.87633	6494.775
596.888	6637.175
600.89682	6710.675
604.9028	7171.675
608.90594	8562.075
612.90624	10404.975
616.90371	10120.675
620.89834	7807.175
624.89015	6595.175
628.87913	6374.075
632.86528	6458.475
636.84862	6583.875
640.82913	6517.275
644.80683	6253.175
648.78172	6033.375
652.75379	5980.775
656.72306	6076.175
660.68952	6214.175
664.65319	6160.075
668.61405	5933.775
672.57211	5825.275
676.52738	5912.175
680.47986	6058.175
684.42955	6182.375
688.37646	6200.075
692.32058	6166.775
696.26192	6038.575
700.20048	5960.575
704.13626	5939.175
708.06928	5920.075
711.99952	5868.475
715.927	5843.975
719.85171	5874.275
723.77365	5875.875
727.69284	5857.675
731.60928	5823.075
735.52295	5778.775
739.43388	5796.075
743.34206	5797.775
747.24749	5801.775
751.15017	5810.175
755.05012	5855.875
758.94733	6039.775
762.8418	6512.075
766.73354	7341.875
770.62254	8299.375
774.50882	8764.075
778.39237	8365.575
782.27321	7448.375
786.15132	6625.375
790.02671	6118.975
793.89938	5903.075
797.76935	5800.275
801.6366	5803.375
805.50115	5818.775
809.36299	5838.675
813.22213	5838.875
817.07857	5793.775
820.93231	5750.775
824.78336	5676.375
828.63172	5665.975
832.47738	5637.275
836.32036	5618.475
840.16066	5618.275
843.99827	5606.275
847.8332	5617.875
851.66546	5625.175
855.49504	5595.775
859.32195	5588.975
863.1462	5589.275
866.96777	5571.375
870.78668	5601.675
874.60293	5640.575
878.41652	5676.375
882.22745	5739.475
886.03573	5780.375
889.84136	5805.475
893.64433	5822.775
897.44466	5837.275
901.24235	5809.675
905.0374	5788.875
908.8298	5810.175
912.61957	5847.475
916.40671	5921.275
920.19121	6023.875
923.97308	6160.175
927.75233	6254.275
931.52895	6328.875
935.30295	6238.875
939.07433	6029.275
942.84309	5819.475
946.60924	5646.375
950.37278	5504.375
954.13371	5423.875
957.89203	5361.775
961.64774	5263.475
965.40086	5196.375
969.15137	5141.375
972.89929	5111.275
976.64461	5042.175
980.38733	5037.875
984.12747	4991.175
987.86502	4975.675
991.59999	4987.975
995.33237	5029.975
999.06217	5058.675
1002.78939	5122.975
1006.51404	5208.875
1010.23611	5290.975
1013.95561	5355.675
1017.67255	5389.775
1021.38692	5333.275
1025.09872	5250.275
1028.80796	5187.175
1032.51465	5100.075
1036.21877	5075.575
1039.92035	5071.975
1043.61937	5090.375
1047.31584	5106.175
1051.00976	5127.975
1054.70114	5144.475
1058.38998	5149.175
1062.07627	5156.675
1065.76003	5168.675
1069.44126	5165.175
1073.11995	5183.075
1076.79611	5231.175
1080.46974	5266.175
1084.14085	5344.475
1087.80943	5443.175
1091.47549	5481.075
1095.13903	5392.775
1098.80005	5234.475
1102.45857	5106.875
1106.11456	5050.575
1109.76805	5055.475
1113.41903	5162.575
1117.06751	5332.975
1120.71348	5531.375
1124.35696	5790.575
1127.99793	6044.975
1131.63641	6170.775
1135.2724	6004.175
1138.90589	5784.675
1142.5369	5563.875
1146.16542	5375.975
1149.79145	5257.375
1153.415	5148.375
1157.03607	5123.575
1160.65467	5154.175
1164.27079	5278.875
1167.88443	5515.075
1171.49561	5899.975
1175.10432	6532.475
1178.71056	7392.075
1182.31434	8139.275
1185.91565	8284.175
1189.51451	8015.075
1193.11091	7512.675
1196.70485	6998.975
1200.29634	6581.875
1203.88538	6263.275
1207.47197	5917.275
1211.05612	5609.875
1214.63782	5401.675
1218.21708	5308.275
1221.79391	5269.175
1225.36829	5321.175
1228.94024	5319.975
1232.50976	5284.175
1236.07685	5218.475
1239.6415	5171.975
1243.20374	5164.975
1246.76355	5172.275
1250.32093	5229.275
1253.8759	5307.875
1257.42845	5427.575
1260.97859	5593.175
1264.52631	5792.675
1268.07163	6007.175
1271.61453	6173.775
1275.15503	6265.875
1278.69312	6312.675
1282.22882	6352.675
1285.76211	6493.975
1289.29301	6706.775
1292.82151	6983.375
1296.34761	7296.175
1299.87133	7660.175
1303.39266	8247.875
1306.9116	9062.275
1310.42815	10026.475
1313.94233	10697.975
1317.45412	10534.475
1320.96354	9839.975
1324.47058	8980.775
1327.97525	8235.575
1331.47754	7699.875
1334.97747	7388.575
1338.47502	7308.975
1341.97022	7354.975
1345.46305	7663.975
1348.95352	8258.775
1352.44163	9119.475
1355.92738	10228.075
1359.41078	11797.375
1362.89183	13427.175
1366.37053	13692.575
1369.84688	11961.875
1373.32088	9740.375
1376.79254	8231.175
1380.26186	7536.475
1383.72883	7205.975
1387.19347	6944.575
1390.65578	6671.675
1394.11575	6492.875
1397.57339	6380.975
1401.0287	6312.975
1404.48168	6246.075
1407.93234	6134.375
1411.38068	6023.775
1414.82669	5931.075
1418.27039	5822.875
1421.71177	5782.575
1425.15083	5645.375
1428.58758	5544.475
1432.02203	5523.875
1435.45416	5573.075
1438.88399	5616.175
1442.31151	5632.875
1445.73673	5609.375
1449.15965	5603.875
1452.58027	5610.275
1455.9986	5524.575
1459.41463	5475.575
1462.82837	5515.075
1466.23982	5611.975
1469.64898	5740.975
1473.05586	5815.475
1476.46045	5874.875
1479.86276	5931.475
1483.26279	6027.475
1486.66054	6132.875
1490.05602	6315.175
1493.44922	6597.575
1496.84016	7031.175
1500.22882	7724.475
1503.61521	8736.975
1506.99934	9968.275
1510.38121	11201.175
1513.76081	11725.675
1517.13816	11191.275
1520.51324	9788.175
1523.88607	8347.075
1527.25665	7345.475
1530.62498	6765.775
1533.99105	6423.275
1537.35488	6201.975
1540.71647	6027.075
1544.07581	5911.475
1547.4329	5871.975
1550.78776	5837.175
1554.14038	5872.875
1557.49077	5919.875
1560.83892	6030.575
1564.18484	6222.775
1567.52853	6438.775
1570.86999	6661.075
1574.20922	6819.675
1577.54624	6838.075
1580.88103	6527.475
1584.2136	6048.175
1587.54395	5681.775
1590.87208	5602.275
1594.19801	5780.575
1597.52172	6139.475
1600.84321	6367.475
1604.16251	6212.175
1607.47959	5879.775
1610.79447	5545.975
1614.10715	5216.975
1617.41763	4947.975
1620.7259	4776.975
1624.03199	4697.475
1627.33587	4703.275
1630.63757	4789.275
1633.93707	4979.175
1637.23439	5313.375
1640.52951	5839.075
1643.82246	6685.075
1647.11321	7688.375
1650.40179	8463.875
1653.68819	8418.375
1656.97241	7464.075
1660.25446	6222.675
1663.53433	5279.575
1666.81203	4695.375
1670.08756	4342.275
1673.36092	4161.175
1676.63211	4027.075
1679.90115	3958.475
1683.16801	3882.675
1686.43272	3840.075
1689.69527	3813.275
1692.95567	3785.975
1696.2139	3764.175
1699.46999	3735.275
1702.72392	3694.375
1705.97571	3660.775
1709.22535	3593.775
1712.47284	3572.775
1715.71819	3519.875
1718.96139	3463.175
1722.20246	3404.875
1725.44139	3357.675
1728.67818	3319.375
1731.91284	3266.275
1735.14537	3214.375
1738.37576	3177.375
1741.60403	3158.675
1744.83017	3148.775
1748.05418	3116.175
1751.27607	3104.675
1754.49584	3098.375
1757.71349	3060.675
1760.92903	3048.975
1764.14244	3031.775
1767.35375	3033.975
1770.56294	3016.375
1773.77002	2986.875
1776.97499	2978.775
1780.17785	2974.175
1783.37861	2959.875
1786.57727	2952.375
1789.77382	2931.475
1792.96828	2920.175
1796.16064	2912.675
1799.3509	2896.275
1802.53907	2897.175
1805.72514	2871.675
1808.90913	2855.275
1812.09102	2856.775
1815.27083	2842.575
1818.44856	2834.375
1821.6242	2820.575
1824.79776	2811.375
1827.96924	2803.875
1831.13864	2787.775
1834.30597	2792.875
1837.47122	2799.375
1840.6344	2769.975
1843.7955	2775.275
1846.95454	2758.775
1850.11151	2747.275
1853.26642	2750.975
1856.41926	2734.075
1859.57004	2733.175
1862.71876	2728.875
1865.86542	2726.575
1869.01003	2719.275
1872.15258	2713.775
1875.29308	2712.075
1878.43152	2697.175
1881.56792	2692.575
1884.70227	2673.975
1887.83457	2676.075
1890.96482	2672.875
1894.09304	2660.175
1897.21921	2655.575
1900.34335	2651.275
1903.46544	2658.575
1906.58551	2639.975
1909.70353	2641.175
1912.81953	2634.475
1915.93349	2618.475
1919.04543	2617.275
1922.15534	2608.775
1925.26322	2593.575
1928.36908	2578.175
1931.47292	2586.475
1934.57473	2562.775
1937.67453	2554.475
1940.77232	2538.075
1943.86808	2524.775
1946.96184	2513.875
1950.05358	2500.075
1953.14331	2491.375
1956.23103	2490.075
1959.31675	2479.975
1962.40046	2462.175
1965.48217	2456.775
1968.56188	2443.075
1971.63959	2442.375
1974.7153	2436.175
1977.78901	2420.975
1980.86073	2423.675
1983.93046	2405.975
1986.99819	2394.075
1990.06394	2375.075
1993.1277	2365.275
1996.18947	2373.175
1999.24925	2360.575
2002.30706	2344.775
2005.36288	2333.075
2008.41672	2325.675
2011.46859	2317.775
2014.51848	2307.775
2017.56639	2305.675
2020.61233	2296.775
2023.6563	2288.875
2026.6983	2273.075
2029.73833	2260.375
2032.7764	2251.575
2035.8125	2251.675
2038.84664	2234.775
2041.87881	2232.475
2044.90903	2228.575
2047.93729	2227.275
2050.96359	2223.175
2053.98794	2225.175
2057.01034	2208.275
2060.03078	2207.475
2063.04927	2209.975
2066.06582	2212.175
2069.08042	2191.275
2072.09307	2187.975
2075.10378	2189.075
2078.11255	2184.675
2081.11938	2190.675
2084.12426	2187.575
2087.12722	2182.875
2090.12824	2172.375
2093.12732	2171.375
2096.12447	2171.175
2099.11969	2163.875
2102.11299	2171.275
2105.10435	2166.375
2108.09379	2160.975
2111.08131	2171.575
2114.0669	2161.275
2117.05057	2164.675
2120.03233	2169.775
2123.01216	2161.275
2125.99008	2168.275
2128.96609	2158.075
2131.94018	2149.275
2134.91236	2143.875
2137.88263	2156.275
2140.851	2140.475
2143.81746	2145.175
2146.78201	2136.075
2149.74466	2133.275
2152.7054	2122.275
2155.66425	2116.775
2158.6212	2101.175
2161.57625	2107.775
2164.52941	2103.975
2167.48067	2095.275
2170.43004	2101.675
2173.37752	2101.475
2176.32311	2080.275
2179.26681	2090.975
2182.20863	2094.475
2185.14856	2091.175
2188.08661	2076.975
2191.02278	2072.075
2193.95707	2079.275
2196.88948	2066.675
2199.82001	2070.075
2202.74867	2055.275
2205.67545	2052.175
2208.60037	2038.975
2211.52341	2043.875
2214.44458	2028.475
2217.36388	2036.475
2220.28132	2016.475
2223.1969	2017.875
2226.11061	2016.375
2229.02246	1996.475
2231.93245	1995.775
2234.84058	1980.675
2237.74686	1998.175
2240.65128	1993.775
2243.55385	1981.275
2246.45456	1972.875
2249.35343	1966.375
2252.25044	1966.775
2255.14561	1962.775
2258.03893	1958.575
2260.93041	1947.975
2263.82004	1948.275
2266.70783	1949.175
2269.59378	1933.175
2272.4779	1933.575
2275.36017	1916.875
2278.24061	1922.375
2281.11922	1909.375
2283.996	1915.075
2286.87094	1898.975
2289.74405	1892.675
2292.61534	1881.475
2295.4848	1876.175
2298.35243	1868.075
2301.21824	1875.675
2304.08223	1864.775
2306.94439	1862.975
2309.80474	1857.475
2312.66327	1861.975
2315.51999	1859.375
2318.37489	1858.375
2321.22797	1841.375
2324.07925	1834.775
2326.92871	1832.275
2329.77637	1831.875
2332.62222	1834.475
2335.46626	1810.975
2338.3085	1811.175
2341.14893	1813.175
2343.98756	1805.475
2346.8244	1821.175
2349.65943	1799.375
2352.49267	1809.575
2355.32411	1814.975
2358.15376	1821.875
2360.98161	1828.075
2363.80768	1818.475
2366.63195	1832.875
2369.45444	1829.075
2372.27514	1826.175
2375.09405	1819.475
2377.91118	1810.175
2380.72652	1800.375
2383.54009	1787.975
2386.35187	1779.975
2389.16188	1771.875
2391.97011	1766.475
2394.77657	1745.875
2397.58125	1737.475
2400.38416	1734.075
2403.18529	1726.075
2405.98466	1725.475
2408.78226	1717.475
2411.57809	1710.875
2414.37216	1718.375
2417.16446	1710.075
2419.955	1707.375
2422.74378	1707.575
2425.5308	1705.675
2428.31606	1699.375
2431.09956	1708.175
2433.88131	1691.975
2436.6613	1691.075
2439.43954	1688.175
2442.21603	1688.575
2444.99077	1682.975
2447.76377	1679.075
2450.53501	1685.175
2453.30451	1687.475
2456.07226	1672.375
2458.83827	1668.875
2461.60254	1678.675
2464.36507	1673.275
2467.12586	1670.475
2469.88492	1662.175
2472.64224	1652.975
2475.39782	1651.775
2478.15167	1657.775
2480.90379	1668.075
2483.65417	1665.275
2486.40283	1669.575
2489.14976	1660.375
2491.89497	1668.575
2494.63845	1660.475
2497.3802	1665.675
2500.12024	1662.475
2502.85855	1646.175
2505.59514	1647.675
2508.33002	1642.675
2511.06318	1622.375
2513.79462	1614.475
2516.52435	1614.675
2519.25237	1601.175
2521.97867	1589.375
2524.70327	1581.375
2527.42616	1577.875
2530.14734	1576.275
2532.86681	1579.675
2535.58458	1562.175
2538.30065	1560.975
2541.01501	1565.575
2543.72768	1558.275
2546.43864	1549.875
2549.14791	1548.475
2551.85548	1558.175
2554.56136	1565.675
2557.26554	1557.775
2559.96803	1539.475
2562.66883	1540.475
2565.36794	1540.675
2568.06536	1530.175
2570.7611	1532.175
2573.45514	1535.775
2576.14751	1517.975
2578.83819	1509.175
2581.52719	1505.675
2584.21451	1508.175
2586.90015	1500.875
2589.58411	1498.575
2592.2664	1494.575
2594.94701	1489.575
2597.62594	1485.575
2600.30321	1481.675
2602.9788	1486.475
2605.65273	1483.975
2608.32498	1479.175
2610.99557	1480.475
2613.66449	1478.175
2616.33175	1470.475
2618.99734	1466.875
2621.66128	1462.375
2624.32355	1469.875
2626.98416	1462.575
2629.64311	1452.875
2632.30041	1445.975
2634.95605	1454.175
2637.61004	1447.775
2640.26238	1437.675
2642.91306	1443.275
2645.56209	1438.475
2648.20948	1438.675
2650.85521	1428.875
2653.4993	1432.575
2656.14175	1431.875
2658.78255	1447.675
2661.42171	1439.975
2664.05923	1438.575
2666.6951	1435.675
2669.32934	1440.775
2671.96194	1436.475
2674.59291	1439.575
2677.22224	1431.875
2679.84993	1433.475
2682.476	1436.275
2685.10043	1440.275
2687.72324	1437.275
2690.34441	1429.175
2692.96396	1434.275
2695.58188	1421.375
2698.19818	1418.075
2700.81285	1422.875
2703.4259	1411.175
2706.03733	1414.375
2708.64714	1415.475
2711.25533	1422.575
2713.86191	1415.175
2716.46687	1428.775
2719.07021	1420.275
2721.67194	1427.575
2724.27206	1423.875
2726.87057	1428.575
2729.46747	1426.475
2732.06276	1420.975
2734.65644	1423.075
2737.24852	1420.175
2739.83899	1411.075
2742.42786	1412.075
2745.01513	1406.975
2747.60079	1412.275
2750.18486	1403.075
2752.76733	1400.775
2755.3482	1402.875
2757.92747	1398.475
2760.50515	1388.075
2763.08123	1390.775
2765.65573	1385.375
2768.22863	1380.775
2770.79994	1382.475
2773.36967	1375.775
2775.9378	1378.275
2778.50435	1367.075
2781.06932	1370.675
2783.6327	1376.975
2786.1945	1371.075
2788.75471	1366.875
2791.31335	1364.075
2793.87041	1362.275
2796.42589	1364.775
2798.97979	1353.975
2801.53212	1352.575
2804.08288	1350.175
2806.63206	1344.975
2809.17967	1346.975
2811.72571	1340.375
2814.27018	1346.275
2816.81308	1336.075
2819.35442	1343.975
2821.89419	1333.375
2824.43239	1339.575
2826.96904	1335.175
2829.50412	1331.675
2832.03763	1336.275
2834.56959	1344.075
2837.1	1345.875
2839.62884	1336.475
2842.15613	1344.575
2844.68186	1367.275
2847.20604	1375.075
2849.72867	1375.675
2852.24974	1380.375
2854.76927	1382.975
2857.28724	1380.575
2859.80367	1387.575
2862.31855	1382.875
2864.83189	1388.475
2867.34368	1392.175
2869.85393	1398.575
2872.36264	1398.475
2874.8698	1393.875
2877.37543	1394.775
2879.87952	1395.875
2882.38207	1400.475
2884.88308	1396.275
2887.38256	1386.175
2889.88051	1393.475
2892.37692	1390.575
2894.8718	1395.475
2897.36515	1397.075
2899.85698	1403.775
2902.34727	1413.375
2904.83604	1418.475
2907.32328	1417.575
2909.809	1437.575
2912.29319	1433.275
2914.77587	1427.375
2917.25702	1449.775
2919.73665	1451.975
2922.21476	1451.275
2924.69136	1456.375
2927.16644	1458.075
2929.64	1444.375
2932.11205	1448.275
2934.58258	1444.075
2937.05161	1446.875
2939.51912	1429.475
2941.98513	1424.575
2944.44962	1409.675
2946.91261	1396.175
2949.37409	1388.275
2951.83407	1383.975
2954.29254	1363.475
2956.74951	1351.475
2959.20498	1352.975
2961.65895	1350.975
2964.11142	1335.875
2966.56239	1331.575
2969.01186	1292.075
2971.45984	1309.675
2973.90632	1317.975
2976.35131	1309.675
2978.7948	1302.975
2981.23681	1297.175
2983.67732	1295.175
2986.11635	1281.375
2988.55388	1279.275
2990.98993	1283.675
2993.4245	1272.175
2995.85758	1274.875
2998.28917	1267.075
3000.71928	1269.875
3003.14791	1268.675
3005.57506	1262.475
3008.00073	1263.075
3010.42493	1259.875
3012.84764	1269.775
3015.26888	1257.975
3017.68865	1259.375
3020.10694	1264.475
3022.52376	1254.175
3024.9391	1242.475
3027.35298	1263.375
3029.76539	1249.775
3032.17632	1248.775
3034.5858	1257.175
3036.9938	1248.875
3039.40034	1252.675
3041.80542	1255.875
3044.20903	1250.275
3046.61118	1247.575
3049.01187	1239.375
3051.4111	1249.875
3053.80888	1241.875
3056.20519	1250.875
3058.60005	1238.075
3060.99345	1248.775
3063.3854	1238.075
3065.7759	1248.075
3068.16494	1239.775
3070.55254	1238.475
3072.93868	1244.275
3075.32338	1246.375
3077.70662	1250.275
3080.08842	1238.675
3082.46878	1245.475
3084.84769	1246.775
3087.22515	1254.075
3089.60118	1253.475
3091.97576	1254.975
3094.3489	1264.675
3096.72061	1258.475
3099.09087	1266.275
3101.4597	1274.775
3103.82709	1283.375
3106.19305	1281.575
3108.55757	1280.275
3110.92066	1282.975
3113.28232	1293.075
3115.64255	1282.775
3118.00134	1280.675
3120.35871	1281.675
3122.71466	1286.975
3125.06917	1303.175
3127.42226	1302.675
3129.77393	1311.975
3132.12417	1302.175
3134.47299	1319.175
3136.82039	1323.675
3139.16636	1333.375
3141.51092	1327.075
3143.85406	1340.875
3146.19579	1338.375
3148.53609	1352.675
3150.87499	1355.975
3153.21246	1368.275
3155.54853	1370.075
3157.88318	1361.475
3160.21642	1385.075
3162.54826	1392.375
3164.87868	1400.575
3167.2077	1402.475
3169.5353	1409.875
3171.86151	1413.975
3174.18631	1423.275
3176.5097	1413.475
3178.83169	1422.675
3181.15228	1422.375
3183.47147	1424.175
3185.78926	1429.875
3188.10565	1427.575
3190.42065	1433.875
3192.73424	1444.575
3195.04645	1454.175
3197.35725	1460.375
3199.66667	1460.975
3201.97469	1459.075
3204.28132	1468.775
3206.58656	1470.975
3208.8904	1475.975
3211.19287	1476.275
3213.49394	1491.775
3215.79363	1499.275
3218.09193	1494.975
3220.38884	1500.475
3222.68438	1495.875
3224.97853	1503.875
3227.2713	1500.175
3229.56269	1511.375
3231.8527	1513.575
3234.14133	1509.375
3236.42858	1503.775
