Data from AgNPs_APTES_FTO_UA_50uM_CRN_0uM_R6G_10uM_Scan_RamanShift__33__11-49-33-693.txt Node

Date: Tue Jul 05 11:49:33 BST 2022
User: TCL
Spectrometer: QEP01345
Trigger mode: 4
Integration Time (sec): 7.000000E0
Scans to average: 10
Electric dark correction enabled: true
Nonlinearity correction enabled: false
Boxcar width: 0
XAxis mode: Raman Shifts
Number of Pixels in Spectrum: 1044
>>>>>Begin Spectral Data<<<<<
46.04893	-0.025
50.45542	1.275
54.85868	0.075
59.25871	0.575
63.6555	34.975
68.04907	39.175
72.43941	45.675
76.82654	46.675
81.21044	46.275
85.59113	53.675
89.96862	53.175
94.34289	54.375
98.71396	55.975
103.08183	61.275
107.4465	56.675
111.80798	62.175
116.16626	60.775
120.52136	56.575
124.87327	61.975
129.222	61.075
133.56755	64.375
137.90993	63.775
142.24913	65.575
146.58517	71.375
150.91804	80.775
155.24774	92.675
159.57429	106.975
163.89768	132.975
168.21792	166.175
172.53501	222.975
176.84895	295.475
181.15975	406.575
185.46741	560.075
189.77193	762.575
194.07331	1005.275
198.37157	1290.975
202.6667	1582.875
206.9587	1876.875
211.24758	2156.275
215.53334	2453.975
219.81599	2756.675
224.09553	3083.975
228.37195	3439.275
232.64527	3818.775
236.91549	4203.975
241.18261	4566.275
245.44663	4907.375
249.70755	5170.875
253.96539	5385.475
258.22014	5577.875
262.4718	5731.575
266.72039	5827.075
270.96589	5880.075
275.20832	5848.675
279.44768	5775.775
283.68397	5692.875
287.91719	5609.675
292.14735	5566.675
296.37445	5627.275
300.59849	5706.075
304.81948	5822.375
309.03742	5919.575
313.25231	5889.175
317.46415	5723.375
321.67296	5461.775
325.87872	5207.775
330.08145	5079.975
334.28114	5041.275
338.47781	5083.975
342.67145	5166.175
346.86207	5295.375
351.04966	5483.275
355.23424	5726.375
359.4158	5938.775
363.59435	6069.475
367.76989	6132.875
371.94243	6180.075
376.11196	6213.075
380.27849	6243.675
384.44203	6254.875
388.60257	6228.975
392.76012	6236.375
396.91468	6234.775
401.06626	6323.475
405.21485	6385.375
409.36047	6281.175
413.50311	6050.675
417.64277	5846.175
421.77947	5709.675
425.9132	5657.575
430.04396	5653.775
434.17176	5674.075
438.2966	5755.775
442.41849	5888.375
446.53742	6040.175
450.6534	6183.275
454.76644	6333.475
458.87653	6246.875
462.98368	6151.475
467.08789	6115.275
471.18916	6054.975
475.2875	5976.475
479.38291	5953.275
483.4754	6012.075
487.56496	6109.675
491.6516	6240.275
495.73531	6316.875
499.81612	6300.175
503.89401	6235.975
507.96899	6171.775
512.04106	6171.175
516.11023	6229.375
520.1765	6343.775
524.23987	6397.075
528.30034	6401.175
532.35792	6341.575
536.41261	6207.375
540.46441	6021.675
544.51333	5924.475
548.55936	5870.775
552.60252	5856.675
556.64279	5915.975
560.6802	5935.575
564.71473	5957.675
568.7464	6032.775
572.7752	6129.675
576.80114	6045.775
580.82422	5964.375
584.84444	6048.575
588.86181	6216.775
592.87633	6386.675
596.888	6470.575
600.89682	6497.475
604.9028	6854.975
608.90594	8099.975
612.90624	9729.675
616.90371	9581.275
620.89834	7905.175
624.89015	7304.075
628.87913	7639.275
632.86528	8136.875
636.84862	8457.975
640.82913	8327.475
644.80683	7809.675
648.78172	7208.175
652.75379	6765.175
656.72306	6561.475
660.68952	6486.675
664.65319	6290.575
668.61405	6017.475
672.57211	5900.775
676.52738	5906.675
680.47986	5895.375
684.42955	5875.275
688.37646	5818.875
692.32058	5805.475
696.26192	5775.175
700.20048	5798.175
704.13626	5800.175
708.06928	5778.175
711.99952	5744.075
715.927	5784.075
719.85171	5861.075
723.77365	5953.875
727.69284	5947.575
731.60928	5902.575
735.52295	5823.875
739.43388	5773.775
743.34206	5754.875
747.24749	5779.475
751.15017	5745.875
755.05012	5772.075
758.94733	5921.775
762.8418	6292.275
766.73354	6959.375
770.62254	7713.875
774.50882	8192.775
778.39237	7945.575
782.27321	7123.675
786.15132	6347.875
790.02671	5931.475
793.89938	5752.375
797.76935	5714.275
801.6366	5851.875
805.50115	6063.075
809.36299	6298.275
813.22213	6385.075
817.07857	6267.075
820.93231	6053.775
824.78336	5792.075
828.63172	5605.075
832.47738	5501.575
836.32036	5445.675
840.16066	5417.775
843.99827	5387.675
847.8332	5381.575
851.66546	5361.875
855.49504	5337.675
859.32195	5363.575
863.1462	5384.575
866.96777	5421.975
870.78668	5549.475
874.60293	5718.675
878.41652	5916.375
882.22745	6102.275
886.03573	6217.175
889.84136	6211.975
893.64433	6060.675
897.44466	5850.175
901.24235	5617.875
905.0374	5447.375
908.8298	5312.375
912.61957	5244.075
916.40671	5198.675
920.19121	5194.975
923.97308	5199.075
927.75233	5231.375
931.52895	5256.475
935.30295	5209.775
939.07433	5100.275
942.84309	4986.875
946.60924	4931.075
950.37278	4868.975
954.13371	4824.375
957.89203	4814.675
961.64774	4782.475
965.40086	4753.875
969.15137	4742.775
972.89929	4729.675
976.64461	4701.275
980.38733	4682.175
984.12747	4678.975
987.86502	4693.675
991.59999	4702.875
995.33237	4776.175
999.06217	4866.075
1002.78939	4989.675
1006.51404	5133.175
1010.23611	5243.875
1013.95561	5328.175
1017.67255	5360.775
1021.38692	5297.275
1025.09872	5186.875
1028.80796	5045.475
1032.51465	4941.675
1036.21877	4869.375
1039.92035	4845.075
1043.61937	4814.875
1047.31584	4818.875
1051.00976	4827.675
1054.70114	4834.775
1058.38998	4875.875
1062.07627	4949.875
1065.76003	5022.675
1069.44126	5042.175
1073.11995	5084.675
1076.79611	5108.575
1080.46974	5148.075
1084.14085	5179.675
1087.80943	5207.675
1091.47549	5177.175
1095.13903	5072.575
1098.80005	4916.575
1102.45857	4793.875
1106.11456	4788.675
1109.76805	4842.375
1113.41903	5003.175
1117.06751	5251.275
1120.71348	5625.275
1124.35696	6117.275
1127.99793	6663.175
1131.63641	7086.475
1135.2724	7172.075
1138.90589	7027.375
1142.5369	6718.375
1146.16542	6312.675
1149.79145	5898.275
1153.415	5469.375
1157.03607	5183.475
1160.65467	5039.075
1164.27079	5017.475
1167.88443	5116.075
1171.49561	5391.175
1175.10432	5851.075
1178.71056	6558.775
1182.31434	7216.575
1185.91565	7475.975
1189.51451	7450.175
1193.11091	7280.375
1196.70485	7162.575
1200.29634	7071.875
1203.88538	6987.175
1207.47197	6688.075
1211.05612	6324.375
1214.63782	6018.075
1218.21708	5724.075
1221.79391	5554.975
1225.36829	5364.275
1228.94024	5200.175
1232.50976	5104.775
1236.07685	5028.975
1239.6415	5006.175
1243.20374	5043.975
1246.76355	5078.475
1250.32093	5118.475
1253.8759	5167.775
1257.42845	5288.175
1260.97859	5404.575
1264.52631	5528.075
1268.07163	5644.475
1271.61453	5724.375
1275.15503	5743.275
1278.69312	5719.375
1282.22882	5704.575
1285.76211	5749.075
1289.29301	5884.675
1292.82151	6092.975
1296.34761	6318.375
1299.87133	6599.675
1303.39266	7044.175
1306.9116	7695.775
1310.42815	8504.375
1313.94233	9051.275
1317.45412	8956.275
1320.96354	8393.675
1324.47058	7733.475
1327.97525	7146.875
1331.47754	6774.875
1334.97747	6678.175
1338.47502	6760.975
1341.97022	6913.775
1345.46305	7177.675
1348.95352	7680.675
1352.44163	8386.075
1355.92738	9323.975
1359.41078	10573.475
1362.89183	11716.575
1366.37053	11714.075
1369.84688	10252.375
1373.32088	8666.675
1376.79254	7571.175
1380.26186	6958.575
1383.72883	6650.475
1387.19347	6385.375
1390.65578	6089.475
1394.11575	5828.475
1397.57339	5644.375
1401.0287	5548.975
1404.48168	5469.875
1407.93234	5367.075
1411.38068	5260.675
1414.82669	5169.475
1418.27039	5086.575
1421.71177	4971.775
1425.15083	4898.375
1428.58758	4820.875
1432.02203	4842.275
1435.45416	4891.575
1438.88399	4915.875
1442.31151	4921.075
1445.73673	4900.675
1449.15965	4914.175
1452.58027	4888.375
1455.9986	4795.975
1459.41463	4736.675
1462.82837	4746.575
1466.23982	4839.775
1469.64898	4939.075
1473.05586	5030.675
1476.46045	5112.975
1479.86276	5225.875
1483.26279	5370.575
1486.66054	5536.075
1490.05602	5730.975
1493.44922	5953.775
1496.84016	6317.675
1500.22882	6835.975
1503.61521	7591.375
1506.99934	8490.875
1510.38121	9321.575
1513.76081	9699.175
1517.13816	9264.175
1520.51324	8238.875
1523.88607	7147.675
1527.25665	6417.675
1530.62498	6038.275
1533.99105	5867.775
1537.35488	5791.275
1540.71647	5767.775
1544.07581	5782.975
1547.4329	5809.775
1550.78776	5840.375
1554.14038	5893.275
1557.49077	5929.675
1560.83892	5970.775
1564.18484	6076.475
1567.52853	6244.175
1570.86999	6381.475
1574.20922	6524.575
1577.54624	6525.375
1580.88103	6294.775
1584.2136	5912.775
1587.54395	5645.075
1590.87208	5602.975
1594.19801	5771.375
1597.52172	6085.075
1600.84321	6310.775
1604.16251	6318.375
1607.47959	6120.375
1610.79447	5827.775
1614.10715	5574.575
1617.41763	5370.675
1620.7259	5260.775
1624.03199	5237.075
1627.33587	5284.875
1630.63757	5401.675
1633.93707	5602.175
1637.23439	5937.175
1640.52951	6455.975
1643.82246	7199.575
1647.11321	8030.175
1650.40179	8678.775
1653.68819	8676.375
1656.97241	7887.375
1660.25446	6882.475
1663.53433	6021.175
1666.81203	5404.675
1670.08756	4953.075
1673.36092	4636.975
1676.63211	4408.175
1679.90115	4222.575
1683.16801	4075.575
1686.43272	3964.675
1689.69527	3860.975
1692.95567	3771.775
1696.2139	3683.375
1699.46999	3601.475
1702.72392	3525.575
1705.97571	3432.275
1709.22535	3356.475
1712.47284	3289.575
1715.71819	3244.075
1718.96139	3205.575
1722.20246	3166.575
1725.44139	3123.475
1728.67818	3091.975
1731.91284	3043.075
1735.14537	3021.875
1738.37576	2974.475
1741.60403	2965.175
1744.83017	2935.975
1748.05418	2917.075
1751.27607	2916.475
1754.49584	2903.375
1757.71349	2885.875
1760.92903	2875.075
1764.14244	2843.675
1767.35375	2841.075
1770.56294	2836.375
1773.77002	2838.375
1776.97499	2810.875
1780.17785	2799.175
1783.37861	2782.775
1786.57727	2761.675
1789.77382	2758.775
1792.96828	2746.775
1796.16064	2744.175
1799.3509	2733.475
1802.53907	2719.475
1805.72514	2695.275
1808.90913	2690.975
1812.09102	2681.575
1815.27083	2668.375
1818.44856	2661.575
1821.6242	2647.075
1824.79776	2641.975
1827.96924	2629.475
1831.13864	2622.675
1834.30597	2614.875
1837.47122	2621.075
1840.6344	2594.775
1843.7955	2598.275
1846.95454	2582.075
1850.11151	2579.875
1853.26642	2581.175
1856.41926	2575.875
1859.57004	2567.875
1862.71876	2560.275
1865.86542	2560.075
1869.01003	2536.675
1872.15258	2541.075
1875.29308	2527.675
1878.43152	2523.975
1881.56792	2514.175
1884.70227	2505.075
1887.83457	2499.075
1890.96482	2497.875
1894.09304	2481.975
1897.21921	2490.775
1900.34335	2477.075
1903.46544	2478.675
1906.58551	2476.775
1909.70353	2460.575
1912.81953	2452.375
1915.93349	2448.075
1919.04543	2444.075
1922.15534	2437.675
1925.26322	2419.875
1928.36908	2416.475
1931.47292	2411.875
1934.57473	2408.675
1937.67453	2395.075
1940.77232	2379.875
1943.86808	2365.675
1946.96184	2346.975
1950.05358	2348.975
1953.14331	2349.775
1956.23103	2341.875
1959.31675	2320.075
1962.40046	2304.975
1965.48217	2297.675
1968.56188	2302.775
1971.63959	2294.675
1974.7153	2276.275
1977.78901	2282.675
1980.86073	2272.675
1983.93046	2248.475
1986.99819	2238.375
1990.06394	2226.375
1993.1277	2230.375
1996.18947	2212.775
1999.24925	2204.675
2002.30706	2191.975
2005.36288	2180.075
2008.41672	2178.075
2011.46859	2163.575
2014.51848	2156.675
2017.56639	2160.275
2020.61233	2135.875
2023.6563	2134.075
2026.6983	2122.275
2029.73833	2121.275
2032.7764	2106.575
2035.8125	2098.875
2038.84664	2099.075
2041.87881	2089.275
2044.90903	2086.375
2047.93729	2085.375
2050.96359	2088.375
2053.98794	2075.275
2057.01034	2063.475
2060.03078	2063.175
2063.04927	2063.575
2066.06582	2056.675
2069.08042	2056.275
2072.09307	2046.375
2075.10378	2035.975
2078.11255	2047.175
2081.11938	2045.675
2084.12426	2036.375
2087.12722	2033.575
2090.12824	2029.175
2093.12732	2019.775
2096.12447	2025.175
2099.11969	2022.575
2102.11299	2018.875
2105.10435	2025.575
2108.09379	2013.875
2111.08131	2014.975
2114.0669	2016.175
2117.05057	2012.275
2120.03233	2016.575
2123.01216	2017.275
2125.99008	2017.675
2128.96609	2009.075
2131.94018	2009.775
2134.91236	2013.275
2137.88263	2022.275
2140.851	2015.575
2143.81746	2012.575
2146.78201	1995.675
2149.74466	2004.975
2152.7054	1994.475
2155.66425	1987.575
2158.6212	1978.175
2161.57625	1984.675
2164.52941	1979.875
2167.48067	1976.375
2170.43004	1969.275
2173.37752	1977.875
2176.32311	1961.575
2179.26681	1971.475
2182.20863	1962.475
2185.14856	1962.075
2188.08661	1970.375
2191.02278	1954.975
2193.95707	1950.475
2196.88948	1943.675
2199.82001	1944.575
2202.74867	1940.975
2205.67545	1930.075
2208.60037	1923.575
2211.52341	1911.075
2214.44458	1904.275
2217.36388	1902.675
2220.28132	1902.975
2223.1969	1892.575
2226.11061	1893.375
2229.02246	1880.075
2231.93245	1869.975
2234.84058	1866.775
2237.74686	1866.775
2240.65128	1875.275
2243.55385	1862.575
2246.45456	1857.175
2249.35343	1840.475
2252.25044	1839.775
2255.14561	1848.675
2258.03893	1839.775
2260.93041	1850.475
2263.82004	1832.975
2266.70783	1827.175
2269.59378	1822.575
2272.4779	1819.675
2275.36017	1804.975
2278.24061	1806.775
2281.11922	1804.975
2283.996	1798.275
2286.87094	1780.975
2289.74405	1776.775
2292.61534	1781.875
2295.4848	1752.575
2298.35243	1763.875
2301.21824	1762.375
2304.08223	1754.775
2306.94439	1753.475
2309.80474	1752.275
2312.66327	1739.575
2315.51999	1744.775
2318.37489	1734.075
2321.22797	1726.175
2324.07925	1731.675
2326.92871	1721.075
2329.77637	1723.875
2332.62222	1716.675
2335.46626	1697.775
2338.3085	1703.775
2341.14893	1704.175
2343.98756	1698.875
2346.8244	1694.975
2349.65943	1684.775
2352.49267	1690.975
2355.32411	1694.475
2358.15376	1693.175
2360.98161	1697.675
2363.80768	1695.875
2366.63195	1704.475
2369.45444	1705.375
2372.27514	1712.275
2375.09405	1702.975
2377.91118	1692.175
2380.72652	1682.775
2383.54009	1681.575
2386.35187	1667.575
2389.16188	1664.875
2391.97011	1661.975
2394.77657	1648.175
2397.58125	1641.875
2400.38416	1638.175
2403.18529	1628.075
2405.98466	1632.375
2408.78226	1623.375
2411.57809	1615.075
2414.37216	1616.875
2417.16446	1613.575
2419.955	1603.675
2422.74378	1602.675
2425.5308	1603.575
2428.31606	1593.375
2431.09956	1588.975
2433.88131	1585.775
2436.6613	1581.175
2439.43954	1581.775
2442.21603	1591.175
2444.99077	1577.075
2447.76377	1581.675
2450.53501	1578.075
2453.30451	1586.575
2456.07226	1555.475
2458.83827	1572.175
2461.60254	1566.175
2464.36507	1565.975
2467.12586	1563.775
2469.88492	1564.875
2472.64224	1558.275
2475.39782	1565.075
2478.15167	1559.375
2480.90379	1563.475
2483.65417	1556.875
2486.40283	1567.575
2489.14976	1561.775
2491.89497	1559.075
2494.63845	1568.075
2497.3802	1560.875
2500.12024	1560.275
2502.85855	1547.875
2505.59514	1549.775
2508.33002	1544.175
2511.06318	1527.175
2513.79462	1520.975
2516.52435	1502.275
2519.25237	1510.275
2521.97867	1496.075
2524.70327	1491.575
2527.42616	1488.375
2530.14734	1489.375
2532.86681	1479.375
2535.58458	1475.575
2538.30065	1472.375
2541.01501	1479.375
2543.72768	1473.775
2546.43864	1466.975
2549.14791	1459.775
2551.85548	1461.675
2554.56136	1464.575
2557.26554	1462.475
2559.96803	1461.575
2562.66883	1452.275
2565.36794	1442.575
2568.06536	1437.875
2570.7611	1438.575
2573.45514	1434.875
2576.14751	1433.375
2578.83819	1428.975
2581.52719	1430.775
2584.21451	1413.575
2586.90015	1415.375
2589.58411	1416.575
2592.2664	1415.675
2594.94701	1401.975
2597.62594	1400.775
2600.30321	1395.375
2602.9788	1398.275
2605.65273	1392.775
2608.32498	1392.375
2610.99557	1395.775
2613.66449	1387.275
2616.33175	1389.875
2618.99734	1389.275
2621.66128	1379.975
2624.32355	1386.775
2626.98416	1377.475
2629.64311	1377.875
2632.30041	1368.075
2634.95605	1364.775
2637.61004	1362.275
2640.26238	1356.475
2642.91306	1355.575
2645.56209	1359.075
2648.20948	1354.675
2650.85521	1355.275
2653.4993	1352.875
2656.14175	1356.775
2658.78255	1355.075
2661.42171	1359.875
2664.05923	1357.075
2666.6951	1360.075
2669.32934	1359.875
2671.96194	1354.875
2674.59291	1351.575
2677.22224	1352.475
2679.84993	1357.575
2682.476	1348.975
2685.10043	1351.975
2687.72324	1349.775
2690.34441	1354.575
2692.96396	1355.975
2695.58188	1354.375
2698.19818	1346.075
2700.81285	1355.775
2703.4259	1360.875
2706.03733	1360.075
2708.64714	1361.075
2711.25533	1361.675
2713.86191	1364.475
2716.46687	1370.375
2719.07021	1356.875
2721.67194	1373.675
2724.27206	1361.075
2726.87057	1367.575
2729.46747	1365.375
2732.06276	1371.375
2734.65644	1361.775
2737.24852	1358.975
2739.83899	1362.275
2742.42786	1355.175
2745.01513	1346.075
2747.60079	1355.675
2750.18486	1347.375
2752.76733	1341.875
2755.3482	1331.575
2757.92747	1337.575
2760.50515	1336.675
2763.08123	1337.975
2765.65573	1335.375
2768.22863	1329.875
2770.79994	1332.275
2773.36967	1325.275
2775.9378	1334.375
2778.50435	1330.275
2781.06932	1337.675
2783.6327	1328.475
2786.1945	1334.475
2788.75471	1330.975
2791.31335	1335.175
2793.87041	1336.275
2796.42589	1334.475
2798.97979	1328.775
2801.53212	1334.475
2804.08288	1338.175
2806.63206	1333.575
2809.17967	1327.075
2811.72571	1331.675
2814.27018	1329.675
2816.81308	1329.675
2819.35442	1320.775
2821.89419	1323.175
2824.43239	1335.975
2826.96904	1333.775
2829.50412	1339.175
2832.03763	1342.175
2834.56959	1338.975
2837.1	1339.175
2839.62884	1340.275
2842.15613	1351.575
2844.68186	1367.475
2847.20604	1376.375
2849.72867	1392.775
2852.24974	1401.475
2854.76927	1396.975
2857.28724	1399.375
2859.80367	1402.675
2862.31855	1395.975
2864.83189	1397.975
2867.34368	1387.275
2869.85393	1388.375
2872.36264	1393.775
2874.8698	1388.075
2877.37543	1391.275
2879.87952	1393.675
2882.38207	1393.275
2884.88308	1391.375
2887.38256	1382.775
2889.88051	1380.575
2892.37692	1377.875
2894.8718	1392.575
2897.36515	1391.675
2899.85698	1383.175
2902.34727	1394.675
2904.83604	1389.475
2907.32328	1396.175
2909.809	1408.275
2912.29319	1409.575
2914.77587	1398.675
2917.25702	1400.275
2919.73665	1399.075
2922.21476	1403.775
2924.69136	1391.175
2927.16644	1395.775
2929.64	1387.975
2932.11205	1388.075
2934.58258	1381.175
2937.05161	1368.675
2939.51912	1366.575
2941.98513	1361.275
2944.44962	1346.475
2946.91261	1332.875
2949.37409	1320.675
2951.83407	1308.075
2954.29254	1296.075
2956.74951	1287.975
2959.20498	1289.275
2961.65895	1291.575
2964.11142	1285.975
2966.56239	1273.875
2969.01186	1239.475
2971.45984	1254.175
2973.90632	1271.575
2976.35131	1270.175
2978.7948	1255.975
2981.23681	1245.275
2983.67732	1251.775
2986.11635	1231.475
2988.55388	1238.675
2990.98993	1240.775
2993.4245	1237.175
2995.85758	1230.875
2998.28917	1230.175
3000.71928	1242.775
3003.14791	1228.875
3005.57506	1232.875
3008.00073	1228.075
3010.42493	1233.475
3012.84764	1232.875
3015.26888	1233.075
3017.68865	1233.775
3020.10694	1233.775
3022.52376	1237.075
3024.9391	1237.575
3027.35298	1242.675
3029.76539	1223.975
3032.17632	1238.375
3034.5858	1236.575
3036.9938	1233.575
3039.40034	1233.275
3041.80542	1242.575
3044.20903	1234.775
3046.61118	1242.475
3049.01187	1223.175
3051.4111	1234.075
3053.80888	1236.675
3056.20519	1242.375
3058.60005	1243.275
3060.99345	1255.875
3063.3854	1253.975
3065.7759	1249.175
3068.16494	1245.475
3070.55254	1257.975
3072.93868	1252.575
3075.32338	1247.675
3077.70662	1246.775
3080.08842	1249.975
3082.46878	1255.775
3084.84769	1256.475
3087.22515	1254.175
3089.60118	1265.475
3091.97576	1275.175
3094.3489	1286.875
3096.72061	1281.375
3099.09087	1285.475
3101.4597	1291.575
3103.82709	1300.875
3106.19305	1299.975
3108.55757	1313.075
3110.92066	1299.575
3113.28232	1306.675
3115.64255	1319.275
3118.00134	1316.575
3120.35871	1321.975
3122.71466	1325.175
3125.06917	1343.375
3127.42226	1335.375
3129.77393	1349.675
3132.12417	1363.075
3134.47299	1357.775
3136.82039	1370.875
3139.16636	1376.875
3141.51092	1372.975
3143.85406	1386.675
3146.19579	1395.175
3148.53609	1412.975
3150.87499	1414.575
3153.21246	1424.075
3155.54853	1426.575
3157.88318	1436.675
3160.21642	1444.675
3162.54826	1458.775
3164.87868	1455.575
3167.2077	1475.475
3169.5353	1480.575
3171.86151	1483.075
3174.18631	1492.275
3176.5097	1496.675
3178.83169	1498.775
3181.15228	1512.575
3183.47147	1504.975
3185.78926	1513.075
3188.10565	1519.675
3190.42065	1524.975
3192.73424	1534.475
3195.04645	1545.075
3197.35725	1557.975
3199.66667	1557.275
3201.97469	1560.375
3204.28132	1573.075
3206.58656	1571.175
3208.8904	1570.475
3211.19287	1576.375
3213.49394	1592.275
3215.79363	1595.575
3218.09193	1604.475
3220.38884	1597.575
3222.68438	1616.675
3224.97853	1613.775
3227.2713	1612.875
3229.56269	1615.975
3231.8527	1623.975
3234.14133	1619.275
3236.42858	1612.375
