Data from AgNPs_APTES_FTO_UA_50uM_CRN_0uM_R6G_10uM_Scan_RamanShift__3__11-14-33-650.txt Node

Date: Tue Jul 05 11:14:33 BST 2022
User: TCL
Spectrometer: QEP01345
Trigger mode: 4
Integration Time (sec): 7.000000E0
Scans to average: 10
Electric dark correction enabled: true
Nonlinearity correction enabled: false
Boxcar width: 0
XAxis mode: Raman Shifts
Number of Pixels in Spectrum: 1044
>>>>>Begin Spectral Data<<<<<
46.04893	-0.825
50.45542	-0.525
54.85868	-1.325
59.25871	1.575
63.6555	44.475
68.04907	47.375
72.43941	54.375
76.82654	54.375
81.21044	59.575
85.59113	61.875
89.96862	64.075
94.34289	63.975
98.71396	67.775
103.08183	76.075
107.4465	68.575
111.80798	70.975
116.16626	70.075
120.52136	71.175
124.87327	73.475
129.222	74.175
133.56755	72.075
137.90993	72.775
142.24913	78.575
146.58517	86.075
150.91804	90.875
155.24774	100.375
159.57429	122.175
163.89768	146.975
168.21792	178.475
172.53501	228.475
176.84895	309.475
181.15975	421.175
185.46741	589.075
189.77193	809.375
194.07331	1087.775
198.37157	1415.175
202.6667	1772.375
206.9587	2148.875
211.24758	2528.475
215.53334	2909.775
219.81599	3344.375
224.09553	3812.975
228.37195	4335.175
232.64527	4869.575
236.91549	5414.275
241.18261	5906.375
245.44663	6383.875
249.70755	6745.875
253.96539	7064.075
258.22014	7285.175
262.4718	7414.375
266.72039	7435.875
270.96589	7343.075
275.20832	7150.175
279.44768	6849.675
283.68397	6494.775
287.91719	6184.075
292.14735	5970.075
296.37445	5837.775
300.59849	5816.175
304.81948	5891.675
309.03742	6000.175
313.25231	6000.775
317.46415	5753.375
321.67296	5296.075
325.87872	4832.775
330.08145	4580.875
334.28114	4494.375
338.47781	4532.775
342.67145	4628.375
346.86207	4815.275
351.04966	5085.275
355.23424	5370.675
359.4158	5519.075
363.59435	5458.575
367.76989	5353.875
371.94243	5227.775
376.11196	5115.875
380.27849	5033.675
384.44203	4929.375
388.60257	4845.875
392.76012	4802.275
396.91468	4827.375
401.06626	4927.775
405.21485	4967.975
409.36047	4852.575
413.50311	4573.375
417.64277	4303.075
421.77947	4146.175
425.9132	4075.175
430.04396	4047.775
434.17176	4078.075
438.2966	4110.175
442.41849	4189.775
446.53742	4263.875
450.6534	4328.775
454.76644	4351.575
458.87653	4339.875
462.98368	4317.875
467.08789	4291.975
471.18916	4241.575
475.2875	4161.375
479.38291	4098.275
483.4754	4045.975
487.56496	4030.875
491.6516	4023.775
495.73531	4042.875
499.81612	4059.775
503.89401	4127.675
507.96899	4182.475
512.04106	4250.275
516.11023	4350.975
520.1765	4425.375
524.23987	4437.975
528.30034	4400.075
532.35792	4341.075
536.41261	4274.375
540.46441	4185.375
544.51333	4139.275
548.55936	4158.675
552.60252	4211.775
556.64279	4294.675
560.6802	4367.875
564.71473	4516.875
568.7464	4735.075
572.7752	4791.575
576.80114	4515.975
580.82422	4270.675
584.84444	4165.475
588.86181	4166.775
592.87633	4236.775
596.888	4339.775
600.89682	4648.575
604.9028	5372.775
608.90594	7143.075
612.90624	9497.275
616.90371	9591.175
620.89834	7077.975
624.89015	5660.375
628.87913	5281.275
632.86528	5172.475
636.84862	5075.575
640.82913	4850.175
644.80683	4488.675
648.78172	4274.975
652.75379	4255.475
656.72306	4426.675
660.68952	4654.075
664.65319	4670.775
668.61405	4503.075
672.57211	4479.175
676.52738	4606.375
680.47986	4833.075
684.42955	5069.775
688.37646	5253.475
692.32058	5200.275
696.26192	4999.375
700.20048	4837.875
704.13626	4763.075
708.06928	4706.375
711.99952	4652.075
715.927	4566.375
719.85171	4520.075
723.77365	4488.775
727.69284	4419.375
731.60928	4351.675
735.52295	4324.175
739.43388	4305.975
743.34206	4301.875
747.24749	4298.475
751.15017	4294.175
755.05012	4344.775
758.94733	4562.375
762.8418	5143.475
766.73354	6142.375
770.62254	7007.575
774.50882	7303.375
778.39237	6948.475
782.27321	6182.075
786.15132	5320.575
790.02671	4749.475
793.89938	4507.275
797.76935	4412.075
801.6366	4389.275
805.50115	4382.275
809.36299	4392.175
813.22213	4411.575
817.07857	4407.575
820.93231	4409.675
824.78336	4412.175
828.63172	4424.275
832.47738	4430.375
836.32036	4404.075
840.16066	4385.775
843.99827	4392.275
847.8332	4404.075
851.66546	4381.275
855.49504	4373.375
859.32195	4396.475
863.1462	4396.675
866.96777	4425.475
870.78668	4481.375
874.60293	4500.475
878.41652	4570.275
882.22745	4645.975
886.03573	4745.775
889.84136	4823.375
893.64433	4928.375
897.44466	5063.075
901.24235	5175.575
905.0374	5267.575
908.8298	5344.475
912.61957	5464.775
916.40671	5618.575
920.19121	5804.575
923.97308	5985.075
927.75233	6148.075
931.52895	6237.475
935.30295	6140.875
939.07433	5890.375
942.84309	5576.875
946.60924	5344.075
950.37278	5122.075
954.13371	4996.275
957.89203	4869.775
961.64774	4767.275
965.40086	4662.075
969.15137	4586.675
972.89929	4507.275
976.64461	4446.875
980.38733	4385.275
984.12747	4343.975
987.86502	4316.775
991.59999	4313.775
995.33237	4300.075
999.06217	4298.575
1002.78939	4332.575
1006.51404	4396.775
1010.23611	4430.575
1013.95561	4441.075
1017.67255	4404.975
1021.38692	4382.475
1025.09872	4363.275
1028.80796	4334.175
1032.51465	4350.375
1036.21877	4379.875
1039.92035	4435.575
1043.61937	4498.775
1047.31584	4539.175
1051.00976	4572.575
1054.70114	4571.775
1058.38998	4538.875
1062.07627	4489.475
1065.76003	4435.675
1069.44126	4365.075
1073.11995	4302.375
1076.79611	4308.075
1080.46974	4368.075
1084.14085	4505.475
1087.80943	4648.775
1091.47549	4665.875
1095.13903	4533.175
1098.80005	4333.675
1102.45857	4205.075
1106.11456	4164.575
1109.76805	4207.075
1113.41903	4317.675
1117.06751	4468.875
1120.71348	4697.275
1124.35696	5011.775
1127.99793	5326.875
1131.63641	5352.175
1135.2724	5021.475
1138.90589	4725.675
1142.5369	4519.475
1146.16542	4380.775
1149.79145	4293.775
1153.415	4228.175
1157.03607	4207.075
1160.65467	4242.175
1164.27079	4343.475
1167.88443	4490.775
1171.49561	4775.975
1175.10432	5277.075
1178.71056	6070.075
1182.31434	6712.575
1185.91565	6821.175
1189.51451	6441.675
1193.11091	5924.875
1196.70485	5484.575
1200.29634	5202.275
1203.88538	5031.375
1207.47197	4747.575
1211.05612	4470.975
1214.63782	4295.875
1218.21708	4220.775
1221.79391	4167.275
1225.36829	4189.675
1228.94024	4205.975
1232.50976	4208.675
1236.07685	4212.475
1239.6415	4240.175
1243.20374	4292.775
1246.76355	4357.675
1250.32093	4398.875
1253.8759	4448.375
1257.42845	4594.375
1260.97859	4713.275
1264.52631	4875.675
1268.07163	5052.475
1271.61453	5206.075
1275.15503	5267.875
1278.69312	5270.375
1282.22882	5271.675
1285.76211	5414.675
1289.29301	5686.875
1292.82151	5940.575
1296.34761	6167.175
1299.87133	6442.975
1303.39266	7011.675
1306.9116	8027.475
1310.42815	9263.975
1313.94233	9821.475
1317.45412	9243.875
1320.96354	8131.475
1324.47058	7106.475
1327.97525	6357.675
1331.47754	5913.675
1334.97747	5753.275
1338.47502	5784.875
1341.97022	6014.575
1345.46305	6513.775
1348.95352	7309.375
1352.44163	8183.675
1355.92738	9254.775
1359.41078	10847.475
1362.89183	12841.975
1366.37053	13130.575
1369.84688	10961.375
1373.32088	8561.775
1376.79254	7275.975
1380.26186	6703.675
1383.72883	6389.575
1387.19347	6124.275
1390.65578	5898.775
1394.11575	5708.075
1397.57339	5597.575
1401.0287	5525.075
1404.48168	5436.475
1407.93234	5323.275
1411.38068	5239.575
1414.82669	5232.575
1418.27039	5276.975
1421.71177	5304.575
1425.15083	5233.575
1428.58758	5141.375
1432.02203	5102.775
1435.45416	5126.875
1438.88399	5107.975
1442.31151	5033.175
1445.73673	4964.275
1449.15965	4936.375
1452.58027	4896.175
1455.9986	4821.075
1459.41463	4793.375
1462.82837	4798.575
1466.23982	4841.075
1469.64898	4921.975
1473.05586	4991.875
1476.46045	5013.675
1479.86276	5034.275
1483.26279	5108.175
1486.66054	5266.875
1490.05602	5496.075
1493.44922	5854.575
1496.84016	6444.075
1500.22882	7413.375
1503.61521	8803.875
1506.99934	10501.375
1510.38121	12057.775
1513.76081	12638.575
1517.13816	11634.675
1520.51324	9724.975
1523.88607	7919.175
1527.25665	6731.375
1530.62498	6038.575
1533.99105	5676.075
1537.35488	5437.675
1540.71647	5266.975
1544.07581	5185.675
1547.4329	5166.375
1550.78776	5206.675
1554.14038	5288.375
1557.49077	5362.675
1560.83892	5491.475
1564.18484	5722.975
1567.52853	6048.175
1570.86999	6370.575
1574.20922	6582.275
1577.54624	6539.375
1580.88103	6170.975
1584.2136	5521.875
1587.54395	5053.075
1590.87208	4839.875
1594.19801	4888.075
1597.52172	5077.075
1600.84321	5113.875
1604.16251	4954.275
1607.47959	4783.875
1610.79447	4649.275
1614.10715	4532.675
1617.41763	4420.375
1620.7259	4335.975
1624.03199	4322.675
1627.33587	4355.275
1630.63757	4409.975
1633.93707	4526.475
1637.23439	4708.375
1640.52951	5065.175
1643.82246	5727.075
1647.11321	6674.975
1650.40179	7613.075
1653.68819	7773.375
1656.97241	6918.575
1660.25446	5739.575
1663.53433	4859.875
1666.81203	4360.075
1670.08756	4081.075
1673.36092	3889.875
1676.63211	3782.775
1679.90115	3710.675
1683.16801	3675.175
1686.43272	3625.875
1689.69527	3596.275
1692.95567	3567.175
1696.2139	3542.875
1699.46999	3510.575
1702.72392	3485.975
1705.97571	3463.475
1709.22535	3443.575
1712.47284	3426.075
1715.71819	3411.975
1718.96139	3394.575
1722.20246	3373.075
1725.44139	3341.775
1728.67818	3329.775
1731.91284	3301.275
1735.14537	3269.975
1738.37576	3242.775
1741.60403	3239.075
1744.83017	3225.275
1748.05418	3226.475
1751.27607	3242.375
1754.49584	3219.675
1757.71349	3213.375
1760.92903	3205.575
1764.14244	3207.275
1767.35375	3221.675
1770.56294	3197.375
1773.77002	3201.075
1776.97499	3176.075
1780.17785	3183.375
1783.37861	3179.675
1786.57727	3142.175
1789.77382	3135.775
1792.96828	3110.275
1796.16064	3108.175
1799.3509	3085.075
1802.53907	3053.175
1805.72514	3036.075
1808.90913	3021.875
1812.09102	3006.775
1815.27083	2980.475
1818.44856	2955.975
1821.6242	2953.175
1824.79776	2926.075
1827.96924	2928.075
1831.13864	2910.175
1834.30597	2895.275
1837.47122	2895.275
1840.6344	2892.675
1843.7955	2878.575
1846.95454	2860.475
1850.11151	2851.675
1853.26642	2867.175
1856.41926	2852.275
1859.57004	2858.875
1862.71876	2861.075
1865.86542	2853.975
1869.01003	2851.075
1872.15258	2848.175
1875.29308	2844.975
1878.43152	2835.575
1881.56792	2835.275
1884.70227	2815.575
1887.83457	2822.575
1890.96482	2823.375
1894.09304	2822.675
1897.21921	2812.775
1900.34335	2804.775
1903.46544	2806.675
1906.58551	2808.275
1909.70353	2800.975
1912.81953	2812.975
1915.93349	2805.275
1919.04543	2802.175
1922.15534	2804.575
1925.26322	2793.875
1928.36908	2798.375
1931.47292	2796.975
1934.57473	2789.675
1937.67453	2781.875
1940.77232	2777.075
1943.86808	2759.275
1946.96184	2759.575
1950.05358	2747.375
1953.14331	2746.475
1956.23103	2750.575
1959.31675	2739.975
1962.40046	2714.575
1965.48217	2700.975
1968.56188	2709.775
1971.63959	2703.475
1974.7153	2698.575
1977.78901	2684.075
1980.86073	2668.275
1983.93046	2669.875
1986.99819	2644.975
1990.06394	2645.675
1993.1277	2636.075
1996.18947	2625.575
1999.24925	2611.675
2002.30706	2605.575
2005.36288	2588.275
2008.41672	2566.975
2011.46859	2574.875
2014.51848	2566.375
2017.56639	2548.475
2020.61233	2561.175
2023.6563	2541.575
2026.6983	2537.975
2029.73833	2534.375
2032.7764	2530.675
2035.8125	2540.475
2038.84664	2521.175
2041.87881	2535.875
2044.90903	2533.075
2047.93729	2546.275
2050.96359	2547.975
2053.98794	2563.475
2057.01034	2564.475
2060.03078	2580.475
2063.04927	2606.575
2066.06582	2627.475
2069.08042	2640.875
2072.09307	2648.275
2075.10378	2665.175
2078.11255	2705.375
2081.11938	2722.075
2084.12426	2745.575
2087.12722	2769.875
2090.12824	2771.075
2093.12732	2790.675
2096.12447	2784.675
2099.11969	2783.975
2102.11299	2790.575
2105.10435	2782.175
2108.09379	2781.975
2111.08131	2762.975
2114.0669	2752.875
2117.05057	2742.075
2120.03233	2729.375
2123.01216	2711.675
2125.99008	2696.975
2128.96609	2679.075
2131.94018	2662.775
2134.91236	2644.175
2137.88263	2629.475
2140.851	2611.475
2143.81746	2597.075
2146.78201	2572.475
2149.74466	2549.275
2152.7054	2529.675
2155.66425	2502.675
2158.6212	2493.775
2161.57625	2472.575
2164.52941	2472.975
2167.48067	2451.275
2170.43004	2445.475
2173.37752	2454.675
2176.32311	2433.675
2179.26681	2427.675
2182.20863	2409.675
2185.14856	2427.375
2188.08661	2414.975
2191.02278	2423.375
2193.95707	2401.175
2196.88948	2413.575
2199.82001	2417.675
2202.74867	2398.375
2205.67545	2398.375
2208.60037	2393.575
2211.52341	2384.175
2214.44458	2371.575
2217.36388	2370.675
2220.28132	2365.475
2223.1969	2368.775
2226.11061	2349.775
2229.02246	2343.275
2231.93245	2335.975
2234.84058	2330.875
2237.74686	2340.375
2240.65128	2338.875
2243.55385	2328.475
2246.45456	2319.675
2249.35343	2322.375
2252.25044	2321.275
2255.14561	2310.475
2258.03893	2326.675
2260.93041	2302.375
2263.82004	2306.875
2266.70783	2300.775
2269.59378	2295.675
2272.4779	2288.075
2275.36017	2288.475
2278.24061	2278.275
2281.11922	2276.975
2283.996	2280.475
2286.87094	2264.975
2289.74405	2253.775
2292.61534	2254.675
2295.4848	2247.675
2298.35243	2241.875
2301.21824	2236.175
2304.08223	2238.375
2306.94439	2230.275
2309.80474	2227.675
2312.66327	2237.075
2315.51999	2238.075
2318.37489	2231.375
2321.22797	2220.875
2324.07925	2214.375
2326.92871	2217.775
2329.77637	2213.275
2332.62222	2209.675
2335.46626	2200.475
2338.3085	2199.875
2341.14893	2189.575
2343.98756	2188.275
2346.8244	2186.475
2349.65943	2184.075
2352.49267	2189.975
2355.32411	2196.275
2358.15376	2201.075
2360.98161	2203.375
2363.80768	2207.475
2366.63195	2212.775
2369.45444	2216.475
2372.27514	2201.275
2375.09405	2207.275
2377.91118	2202.075
2380.72652	2196.475
2383.54009	2176.075
2386.35187	2166.575
2389.16188	2151.875
2391.97011	2156.775
2394.77657	2137.775
2397.58125	2134.075
2400.38416	2135.775
2403.18529	2121.075
2405.98466	2122.475
2408.78226	2117.275
2411.57809	2102.175
2414.37216	2119.175
2417.16446	2105.975
2419.955	2105.475
2422.74378	2107.475
2425.5308	2106.675
2428.31606	2103.975
2431.09956	2100.175
2433.88131	2087.975
2436.6613	2094.375
2439.43954	2094.875
2442.21603	2086.975
2444.99077	2082.475
2447.76377	2095.375
2450.53501	2083.975
2453.30451	2091.775
2456.07226	2090.375
2458.83827	2081.075
2461.60254	2079.475
2464.36507	2073.975
2467.12586	2075.075
2469.88492	2062.775
2472.64224	2072.575
2475.39782	2079.275
2478.15167	2072.175
2480.90379	2083.775
2483.65417	2087.775
2486.40283	2092.675
2489.14976	2074.275
2491.89497	2085.975
2494.63845	2082.675
2497.3802	2084.975
2500.12024	2080.475
2502.85855	2074.975
2505.59514	2061.775
2508.33002	2068.575
2511.06318	2044.575
2513.79462	2034.075
2516.52435	2029.175
2519.25237	2021.275
2521.97867	2009.075
2524.70327	2000.075
2527.42616	1992.675
2530.14734	1992.375
2532.86681	1980.475
2535.58458	1987.275
2538.30065	1975.975
2541.01501	1973.275
2543.72768	1978.475
2546.43864	1982.675
2549.14791	1969.375
2551.85548	1962.675
2554.56136	1971.075
2557.26554	1966.475
2559.96803	1968.175
2562.66883	1967.975
2565.36794	1954.975
2568.06536	1963.275
2570.7611	1950.375
2573.45514	1944.675
2576.14751	1955.175
2578.83819	1941.175
2581.52719	1935.775
2584.21451	1934.675
2586.90015	1926.975
2589.58411	1930.775
2592.2664	1921.175
2594.94701	1914.875
2597.62594	1912.975
2600.30321	1900.175
2602.9788	1898.575
2605.65273	1893.675
2608.32498	1909.675
2610.99557	1896.975
2613.66449	1903.475
2616.33175	1889.775
2618.99734	1887.175
2621.66128	1887.575
2624.32355	1879.175
2626.98416	1882.975
2629.64311	1878.575
2632.30041	1860.575
2634.95605	1875.075
2637.61004	1864.775
2640.26238	1865.475
2642.91306	1851.975
2645.56209	1859.675
2648.20948	1864.375
2650.85521	1858.475
2653.4993	1854.275
2656.14175	1865.975
2658.78255	1868.875
2661.42171	1857.175
2664.05923	1855.475
2666.6951	1870.375
2669.32934	1861.175
2671.96194	1869.275
2674.59291	1872.975
2677.22224	1866.375
2679.84993	1869.275
2682.476	1852.975
2685.10043	1867.475
2687.72324	1860.775
2690.34441	1855.875
2692.96396	1855.875
2695.58188	1857.575
2698.19818	1854.075
2700.81285	1861.575
2703.4259	1853.075
2706.03733	1865.875
2708.64714	1860.175
2711.25533	1861.375
2713.86191	1855.675
2716.46687	1857.475
2719.07021	1851.375
2721.67194	1860.675
2724.27206	1871.775
2726.87057	1865.675
2729.46747	1867.375
2732.06276	1871.275
2734.65644	1854.175
2737.24852	1861.975
2739.83899	1854.075
2742.42786	1841.975
2745.01513	1852.475
2747.60079	1844.275
2750.18486	1838.175
2752.76733	1831.275
2755.3482	1818.375
2757.92747	1826.775
2760.50515	1823.575
2763.08123	1824.075
2765.65573	1815.375
2768.22863	1813.575
2770.79994	1806.275
2773.36967	1800.875
2775.9378	1804.375
2778.50435	1796.075
2781.06932	1789.475
2783.6327	1793.575
2786.1945	1796.075
2788.75471	1784.875
2791.31335	1780.375
2793.87041	1777.775
2796.42589	1775.875
2798.97979	1774.675
2801.53212	1770.275
2804.08288	1770.675
2806.63206	1757.675
2809.17967	1764.275
2811.72571	1761.175
2814.27018	1747.275
2816.81308	1751.575
2819.35442	1750.375
2821.89419	1749.775
2824.43239	1749.675
2826.96904	1758.175
2829.50412	1748.375
2832.03763	1745.975
2834.56959	1745.675
2837.1	1743.775
2839.62884	1746.675
2842.15613	1742.275
2844.68186	1760.075
2847.20604	1768.175
2849.72867	1773.575
2852.24974	1777.575
2854.76927	1770.975
2857.28724	1771.775
2859.80367	1781.775
2862.31855	1788.375
2864.83189	1782.275
2867.34368	1791.675
2869.85393	1785.175
2872.36264	1780.675
2874.8698	1784.275
2877.37543	1787.375
2879.87952	1790.575
2882.38207	1794.675
2884.88308	1795.075
2887.38256	1782.675
2889.88051	1787.375
2892.37692	1799.075
2894.8718	1802.275
2897.36515	1811.675
2899.85698	1817.375
2902.34727	1823.975
2904.83604	1835.475
2907.32328	1854.475
2909.809	1864.175
2912.29319	1861.375
2914.77587	1881.875
2917.25702	1880.475
2919.73665	1878.475
2922.21476	1885.375
2924.69136	1887.675
2927.16644	1887.675
2929.64	1878.775
2932.11205	1884.875
2934.58258	1879.675
2937.05161	1878.675
2939.51912	1867.275
2941.98513	1862.475
2944.44962	1849.275
2946.91261	1832.375
2949.37409	1817.575
2951.83407	1831.275
2954.29254	1811.375
2956.74951	1791.575
2959.20498	1782.875
2961.65895	1782.675
2964.11142	1781.375
2966.56239	1759.375
2969.01186	1719.975
2971.45984	1743.375
2973.90632	1752.475
2976.35131	1739.575
2978.7948	1742.275
2981.23681	1724.675
2983.67732	1730.575
2986.11635	1722.875
2988.55388	1714.275
2990.98993	1714.775
2993.4245	1714.175
2995.85758	1706.475
2998.28917	1717.275
3000.71928	1710.075
3003.14791	1701.675
3005.57506	1709.075
3008.00073	1687.075
3010.42493	1696.975
3012.84764	1701.575
3015.26888	1695.675
3017.68865	1690.975
3020.10694	1697.175
3022.52376	1688.875
3024.9391	1693.475
3027.35298	1679.775
3029.76539	1689.575
3032.17632	1689.275
3034.5858	1681.275
3036.9938	1679.475
3039.40034	1677.675
3041.80542	1681.475
3044.20903	1677.575
3046.61118	1674.375
3049.01187	1667.375
3051.4111	1658.875
3053.80888	1673.175
3056.20519	1660.175
3058.60005	1674.875
3060.99345	1665.175
3063.3854	1669.775
3065.7759	1667.075
3068.16494	1663.475
3070.55254	1672.575
3072.93868	1659.675
3075.32338	1664.275
3077.70662	1674.375
3080.08842	1664.875
3082.46878	1662.175
3084.84769	1658.475
3087.22515	1664.675
3089.60118	1673.275
3091.97576	1666.675
3094.3489	1680.775
3096.72061	1679.975
3099.09087	1685.775
3101.4597	1680.575
3103.82709	1696.375
3106.19305	1704.175
3108.55757	1696.875
3110.92066	1705.275
3113.28232	1713.475
3115.64255	1712.775
3118.00134	1712.475
3120.35871	1715.175
3122.71466	1712.575
3125.06917	1726.975
3127.42226	1719.875
3129.77393	1731.875
3132.12417	1728.875
3134.47299	1734.075
3136.82039	1745.975
3139.16636	1750.475
3141.51092	1750.675
3143.85406	1758.075
3146.19579	1759.975
3148.53609	1776.975
3150.87499	1785.175
3153.21246	1785.975
3155.54853	1793.775
3157.88318	1800.275
3160.21642	1808.075
3162.54826	1813.575
3164.87868	1826.175
3167.2077	1826.175
3169.5353	1833.375
3171.86151	1835.175
3174.18631	1855.475
3176.5097	1846.475
3178.83169	1843.675
3181.15228	1857.975
3183.47147	1850.175
3185.78926	1858.575
3188.10565	1864.275
3190.42065	1849.475
3192.73424	1869.775
3195.04645	1875.375
3197.35725	1877.275
3199.66667	1892.675
3201.97469	1880.275
3204.28132	1893.375
3206.58656	1900.075
3208.8904	1898.375
3211.19287	1911.675
3213.49394	1911.675
3215.79363	1925.675
3218.09193	1927.775
3220.38884	1920.975
3222.68438	1933.375
3224.97853	1926.575
3227.2713	1933.775
3229.56269	1932.375
3231.8527	1942.175
3234.14133	1935.975
3236.42858	1929.675
