#Wave		#Intensity
2001.182617	37943.351563
2000.212891	37938.335938
1999.243164	37931.714844
1998.273438	37890.015625
1997.303711	38128.906250
1996.333008	37904.335938
1995.363281	37992.882813
1994.392578	37683.281250
1993.421875	38004.652344
1992.451172	38158.207031
1991.479492	38181.574219
1990.508789	38232.453125
1989.537109	38430.917969
1988.566406	38134.058594
1987.594727	38074.882813
1986.622070	38443.289063
1985.650391	38141.578125
1984.677734	38317.378906
1983.706055	38110.761719
1982.733398	37889.218750
1981.760742	37987.523438
1980.788086	38310.589844
1979.814453	38089.128906
1978.841797	38277.226563
1977.868164	38295.503906
1976.894531	38353.707031
1975.920898	38464.296875
1974.947266	38402.679688
1973.972656	38513.218750
1972.999023	38142.324219
1972.024414	38429.929688
1971.049805	38086.605469
1970.075195	38638.367188
1969.099609	37938.691406
1968.125000	38290.917969
1967.149414	38513.457031
1966.173828	38424.511719
1965.198242	38813.828125
1964.222656	38286.558594
1963.247070	38551.261719
1962.270508	38467.347656
1961.294922	38234.117188
1960.318359	38640.535156
1959.341797	38551.667969
1958.364258	38766.332031
1957.387695	38600.363281
1956.410156	38598.585938
1955.433594	38544.589844
1954.456055	38637.285156
1953.478516	39055.554688
1952.500000	38700.804688
1951.522461	38708.941406
1950.543945	39136.910156
1949.565430	38983.519531
1948.586914	39018.914063
1947.608398	39039.394531
1946.629883	38781.828125
1945.650391	38561.582031
1944.671875	38830.292969
1943.692383	38763.949219
1942.712891	39389.761719
1941.733398	39114.988281
1940.752930	38976.703125
1939.773438	38377.285156
1938.792969	39012.636719
1937.812500	38790.167969
1936.832031	39043.582031
1935.851563	38917.812500
1934.870117	39262.773438
1933.888672	39384.695313
1932.908203	39055.859375
1931.926758	39311.476563
1930.945313	39190.714844
1929.962891	38889.308594
1928.981445	38704.316406
1927.999023	39048.878906
1927.016602	39279.527344
1926.034180	39374.054688
1925.051758	39369.628906
1924.069336	39098.167969
1923.085938	39187.730469
1922.102539	39111.656250
1921.119141	39038.078125
1920.135742	39004.054688
1919.152344	39404.832031
1918.168945	39222.558594
1917.184570	39326.808594
1916.200195	39650.769531
1915.215820	39431.515625
1914.231445	39298.726563
1913.247070	39156.109375
1912.261719	38998.734375
1911.276367	39250.921875
1910.291992	39305.703125
1909.306641	39464.035156
1908.320313	39533.546875
1907.334961	39689.316406
1906.348633	39867.210938
1905.363281	39382.140625
1904.376953	39754.671875
1903.390625	39348.617188
1902.403320	39427.921875
1901.416992	39337.277344
1900.429688	39586.437500
1899.443359	39133.921875
1898.456055	39343.648438
1897.467773	39710.796875
1896.480469	39782.558594
1895.493164	40028.957031
1894.504883	39638.242188
1893.516602	39832.933594
1892.528320	40202.125000
1891.540039	39460.046875
1890.550781	40256.832031
1889.562500	40104.777344
1888.573242	39770.960938
1887.583984	39749.238281
1886.594727	40017.343750
1885.605469	39894.902344
1884.615234	40140.785156
1883.625000	40060.093750
1882.635742	40016.242188
1881.645508	40149.093750
1880.654297	40105.238281
1879.664063	40350.863281
1878.673828	39772.304688
1877.682617	40277.835938
1876.691406	40292.828125
1875.700195	39802.832031
1874.708984	40629.156250
1873.716797	40519.097656
1872.725586	40918.691406
1871.733398	40911.500000
1870.741211	40490.394531
1869.749023	40522.460938
1868.755859	40064.843750
1867.763672	40447.023438
1866.770508	40567.183594
1865.777344	40780.289063
1864.784180	40753.550781
1863.791016	40964.097656
1862.797852	40795.476563
1861.803711	41030.394531
1860.809570	40720.011719
1859.815430	40751.964844
1858.821289	40942.769531
1857.827148	40869.589844
1856.832031	40833.085938
1855.837891	41035.984375
1854.842773	41436.636719
1853.847656	41087.484375
1852.852539	41094.906250
1851.856445	41517.304688
1850.861328	41309.871094
1849.865234	40807.246094
1848.869141	41334.375000
1847.873047	41490.539063
1846.876953	41800.296875
1845.879883	41366.210938
1844.883789	41761.210938
1843.886719	41600.292969
1842.889648	41512.546875
1841.892578	41902.429688
1840.895508	42126.507813
1839.897461	41571.019531
1838.899414	41834.039063
1837.901367	42165.144531
1836.903320	42028.691406
1835.905273	42444.839844
1834.907227	41957.917969
1833.908203	42622.128906
1832.909180	41789.875000
1831.910156	42490.367188
1830.911133	42531.527344
1829.912109	42626.164063
1828.912109	42514.117188
1827.913086	42103.125000
1826.913086	42691.140625
1825.913086	42353.156250
1824.913086	42515.761719
1823.912109	42041.894531
1822.912109	42437.640625
1821.911133	42403.457031
1820.910156	42405.695313
1819.909180	42420.074219
1818.908203	42708.683594
1817.906250	42667.187500
1816.904297	42829.492188
1815.903320	43314.347656
1814.900391	42707.691406
1813.898438	42627.421875
1812.896484	43085.382813
1811.893555	42714.203125
1810.891602	43138.054688
1809.888672	42958.414063
1808.885742	42924.195313
1807.881836	43117.671875
1806.878906	43202.097656
1805.875000	43317.968750
1804.871094	43545.164063
1803.867188	43481.812500
1802.863281	44096.105469
1801.859375	43623.757813
1800.854492	43710.414063
1799.849609	43441.476563
1798.844727	43445.906250
1797.839844	43493.859375
1796.834961	43909.250000
1795.830078	43746.812500
1794.824219	44091.929688
1793.818359	43902.933594
1792.812500	44243.062500
1791.806641	44083.089844
1790.799805	43766.199219
1789.793945	44055.464844
1788.787109	43992.164063
1787.780273	44146.117188
1786.773438	44012.839844
1785.766602	44330.804688
1784.758789	44405.000000
1783.751953	44696.250000
1782.744141	44531.609375
1781.736328	44762.449219
1780.728516	44855.796875
1779.719727	44486.339844
1778.711914	44765.257813
1777.703125	44591.101563
1776.694336	44583.230469
1775.685547	44924.601563
1774.676758	44776.996094
1773.666992	45132.652344
1772.657227	45187.273438
1771.648438	44721.988281
1770.638672	45556.343750
1769.627930	45389.500000
1768.618164	45653.316406
1767.607422	45796.777344
1766.597656	45649.210938
1765.586914	45189.136719
1764.576172	45541.738281
1763.564453	45937.472656
1762.553711	45770.753906
1761.541992	45553.640625
1760.530273	45999.605469
1759.518555	46647.160156
1758.506836	46470.820313
1757.495117	46575.453125
1756.482422	47030.515625
1755.469727	46388.585938
1754.457031	46927.503906
1753.444336	46643.296875
1752.431641	46999.671875
1751.417969	46648.394531
1750.405273	47210.859375
1749.391602	47049.070313
1748.377930	47232.519531
1747.364258	47837.718750
1746.349609	47467.421875
1745.335938	47823.195313
1744.321289	47745.269531
1743.306641	47760.777344
1742.291992	47807.402344
1741.276367	48268.199219
1740.261719	48274.023438
1739.246094	48227.191406
1738.230469	48048.765625
1737.214844	48229.269531
1736.199219	48648.906250
1735.182617	49010.996094
1734.166992	49124.273438
1733.150391	48909.976563
1732.133789	49429.582031
1731.117188	49915.546875
1730.099609	50224.511719
1729.083008	50229.957031
1728.065430	50574.585938
1727.047852	50954.910156
1726.030273	50907.687500
1725.012695	51044.304688
1723.994141	51932.757813
1722.976563	51797.078125
1721.958008	52055.152344
1720.939453	52377.542969
1719.920898	52642.574219
1718.901367	52948.046875
1717.882813	52848.062500
1716.863281	53224.910156
1715.843750	52922.304688
1714.824219	53406.242188
1713.803711	53351.511719
1712.784180	53327.765625
1711.763672	53768.492188
1710.743164	53080.253906
1709.722656	53620.867188
1708.702148	53323.312500
1707.681641	53511.421875
1706.660156	54058.804688
1705.638672	53651.875000
1704.617188	53573.378906
1703.595703	53794.597656
1702.574219	53483.046875
1701.551758	53766.019531
1700.529297	53361.867188
1699.507813	53216.929688
1698.484375	53454.640625
1697.461914	53784.929688
1696.439453	53411.933594
1695.416016	53568.722656
1694.392578	53568.722656
1693.369141	53435.761719
1692.345703	53694.535156
1691.322266	53725.359375
1690.297852	53718.207031
1689.273438	53843.917969
1688.249023	53153.550781
1687.224609	53945.777344
1686.200195	53765.472656
1685.174805	53917.156250
1684.150391	54253.687500
1683.125000	54222.730469
1682.099609	54457.183594
1681.073242	54080.289063
1680.047852	54371.535156
1679.021484	54335.832031
1677.995117	54645.867188
1676.968750	54685.890625
1675.942383	55341.347656
1674.916016	54993.085938
1673.888672	55283.843750
1672.862305	55274.031250
1671.834961	55422.707031
1670.806641	55947.367188
1669.779297	55873.589844
1668.751953	55587.058594
1667.723633	55664.648438
1666.695313	56299.960938
1665.666992	55911.890625
1664.638672	56152.390625
1663.609375	56444.765625
1662.581055	56640.210938
1661.551758	56368.050781
1660.522461	56499.687500
1659.493164	56756.378906
1658.462891	56902.058594
1657.433594	56887.230469
1656.403320	57396.140625
1655.373047	57034.488281
1654.342773	57371.031250
1653.312500	57464.582031
1652.281250	57362.429688
1651.250977	57592.656250
1650.219727	58501.515625
1649.188477	58234.289063
1648.156250	57934.175781
1647.125000	58446.773438
1646.092773	58436.386719
1645.060547	58159.933594
1644.028320	58709.878906
1642.996094	58680.613281
1641.963867	58281.882813
1640.930664	58779.746094
1639.898438	59510.320313
1638.865234	59050.496094
1637.832031	59594.980469
1636.797852	59313.992188
1635.764648	59705.429688
1634.730469	59859.335938
1633.696289	59813.441406
1632.662109	60401.933594
1631.627930	60156.277344
1630.592773	60735.097656
1629.558594	60952.078125
1628.523438	61373.242188
1627.488281	61543.074219
1626.453125	62787.785156
1625.416992	62724.988281
1624.381836	63176.027344
1623.345703	64032.722656
1622.309570	64541.996094
1621.273438	65304.339844
1620.237305	66922.164063
1619.200195	67700.210938
1618.163086	68520.171875
1617.125977	70176.390625
1616.088867	71754.695313
1615.051758	73065.398438
1614.014648	74696.492188
1612.976563	76083.468750
1611.938477	77034.492188
1610.900391	77318.054688
1609.862305	77931.500000
1608.823242	77096.296875
1607.785156	75940.882813
1606.746094	75270.070313
1605.707031	73750.546875
1604.667969	71520.726563
1603.628906	70710.773438
1602.588867	69419.601563
1601.548828	68334.539063
1600.508789	67696.148438
1599.468750	67219.187500
1598.428711	66300.929688
1597.387695	65987.851563
1596.347656	65205.562500
1595.306641	65284.988281
1594.265625	65240.675781
1593.224609	64855.656250
1592.182617	64958.425781
1591.140625	64382.292969
1590.099609	63470.492188
1589.057617	63676.054688
1588.014648	63639.054688
1586.972656	63238.398438
1585.929688	63157.199219
1584.887695	63127.292969
1583.844727	63260.492188
1582.800781	63381.996094
1581.757813	63100.511719
1580.714844	63012.410156
1579.670898	63080.332031
1578.626953	63143.574219
1577.583008	63593.148438
1576.538086	63556.203125
1575.494141	63872.921875
1574.449219	64105.777344
1573.404297	64343.199219
1572.359375	64468.914063
1571.314453	64852.656250
1570.269531	64378.496094
1569.223633	64920.152344
1568.177734	65057.285156
1567.131836	64292.921875
1566.085938	64077.031250
1565.040039	63589.484375
1563.993164	63448.097656
1562.946289	63255.679688
1561.899414	63144.574219
1560.852539	62327.976563
1559.805664	62244.914063
1558.757813	61885.800781
1557.709961	61712.378906
1556.662109	61634.105469
1555.614258	62297.851563
1554.566406	61855.515625
1553.517578	61457.375000
1552.469727	61761.578125
1551.420898	60967.367188
1550.372070	61246.062500
1549.322266	61499.175781
1548.273438	60860.593750
1547.223633	61109.046875
1546.173828	61091.183594
1545.124023	61503.839844
1544.074219	61293.828125
1543.024414	61204.207031
1541.973633	60545.527344
1540.922852	60932.531250
1539.872070	60362.007813
1538.821289	60529.250000
1537.770508	60939.164063
1536.718750	60387.425781
1535.666992	60510.660156
1534.615234	60278.035156
1533.563477	60336.562500
1532.511719	59900.796875
1531.458984	59770.003906
1530.407227	59773.171875
1529.354492	60074.117188
1528.300781	60061.062500
1527.248047	59902.636719
1526.195313	59601.218750
1525.141602	59650.535156
1524.087891	59506.093750
1523.034180	59292.527344
1521.980469	58544.152344
1520.925781	59584.808594
1519.871094	59569.539063
1518.817383	58786.941406
1517.762695	59154.257813
1516.707031	58325.945313
1515.652344	58631.023438
1514.596680	58767.898438
1513.541016	58980.695313
1512.485352	58509.777344
1511.429688	58013.707031
1510.374023	58599.281250
1509.317383	58710.718750
1508.260742	58695.609375
1507.204102	58319.437500
1506.147461	58279.105469
1505.090820	58654.890625
1504.033203	58901.820313
1502.975586	58560.343750
1501.917969	58405.101563
1500.860352	58851.800781
1499.802734	58714.933594
1498.744141	58449.507813
1497.686523	58232.394531
1496.627930	58295.421875
1495.569336	57793.800781
1494.509766	58556.800781
1493.451172	58521.070313
1492.391602	58728.511719
1491.332031	58568.906250
1490.272461	58209.847656
1489.212891	58758.851563
1488.152344	58752.906250
1487.092773	58792.796875
1486.032227	58452.281250
1484.971680	58698.406250
1483.910156	58154.152344
1482.849609	58631.558594
1481.788086	58735.542969
1480.726563	59116.511719
1479.665039	58870.136719
1478.603516	59127.355469
1477.541992	58997.761719
1476.479492	59460.765625
1475.416992	59557.609375
1474.354492	58897.417969
1473.291992	59357.894531
1472.229492	59459.269531
1471.166016	59012.019531
1470.102539	58841.457031
1469.039063	59150.796875
1467.975586	59115.054688
1466.912109	59481.332031
1465.847656	59986.781250
1464.783203	59624.386719
1463.718750	60280.296875
1462.654297	59815.261719
1461.589844	60096.636719
1460.524414	60320.863281
1459.458984	60006.625000
1458.393555	60260.437500
1457.328125	60126.472656
1456.262695	60309.484375
1455.196289	60549.417969
1454.130859	60397.234375
1453.064453	60643.898438
1451.998047	60621.617188
1450.930664	60392.042969
1449.864258	60515.574219
1448.796875	61014.796875
1447.729492	61365.843750
1446.662109	60658.253906
1445.594727	61507.671875
1444.526367	61180.320313
1443.458008	61421.871094
1442.390625	62020.464844
1441.321289	62077.550781
1440.252930	62550.742188
1439.184570	62216.664063
1438.115234	62525.992188
1437.045898	63389.738281
1435.976563	62905.714844
1434.907227	64073.507813
1433.836914	63410.085938
1432.767578	63952.824219
1431.697266	64107.085938
1430.626953	64511.015625
1429.555664	64217.960938
1428.485352	65277.582031
1427.414063	64927.761719
1426.342773	65803.109375
1425.271484	65818.500000
1424.200195	66047.046875
1423.128906	66250.570313
1422.056641	66444.953125
1420.984375	66677.789063
1419.912109	65999.546875
1418.839844	67265.562500
1417.767578	66558.000000
1416.694336	66398.804688
1415.621094	66260.046875
1414.547852	66393.031250
1413.474609	65862.695313
1412.400391	65434.398438
1411.327148	64949.679688
1410.252930	65562.437500
1409.178711	64564.371094
1408.104492	64837.722656
1407.029297	64733.339844
1405.955078	64789.515625
1404.879883	65250.289063
1403.804688	65206.902344
1402.729492	65077.664063
1401.653320	65874.750000
1400.578125	65865.148438
1399.501953	65821.671875
1398.425781	66033.367188
1397.349609	65849.898438
1396.272461	65860.609375
1395.196289	66295.593750
1394.119141	66455.140625
1393.041992	67356.843750
1391.964844	67074.039063
1390.886719	68083.554688
1389.809570	68326.078125
1388.731445	69064.468750
1387.653320	68914.531250
1386.575195	69298.742188
1385.497070	69585.921875
1384.417969	68825.476563
1383.338867	69013.531250
1382.259766	69244.304688
1381.180664	69335.390625
1380.101563	69311.640625
1379.021484	68835.500000
1377.941406	68807.343750
1376.861328	68988.429688
1375.781250	68233.664063
1374.701172	68929.820313
1373.620117	69016.335938
1372.539063	68378.875000
1371.458008	67651.718750
1370.376953	68005.859375
1369.295898	67593.617188
1368.213867	68059.960938
1367.132813	67802.851563
1366.050781	67862.484375
1364.967773	68517.140625
1363.885742	67954.750000
1362.802734	68395.906250
1361.720703	69077.031250
1360.637695	68452.007813
1359.554688	68607.906250
1358.470703	68297.210938
1357.387695	68625.757813
1356.303711	68976.609375
1355.219727	68000.195313
1354.135742	67882.578125
1353.050781	67249.570313
1351.966797	66630.242188
1350.881836	66752.625000
1349.796875	66265.742188
1348.711914	65989.531250
1347.626953	65673.125000
1346.541016	65885.117188
1345.455078	65320.402344
1344.369141	65299.656250
1343.283203	65495.937500
1342.197266	65195.542969
1341.110352	65543.851563
1340.023438	65534.250000
1338.936523	65274.246094
1337.849609	65620.109375
1336.762695	65728.937500
1335.674805	65451.156250
1334.586914	65334.332031
1333.499023	65076.816406
1332.411133	65469.289063
1331.323242	65971.023438
1330.234375	65608.601563
1329.145508	65911.468750
1328.056641	66299.031250
1326.967773	66206.718750
1325.878906	66484.773438
1324.789063	67063.828125
1323.699219	66975.882813
1322.609375	67646.054688
1321.519531	68367.257813
1320.429688	68682.539063
1319.338867	69430.031250
1318.248047	70039.101563
1317.157227	70962.054688
1316.066406	71947.031250
1314.975586	72372.710938
1313.883789	73840.210938
1312.791992	74285.421875
1311.700195	73711.125000
1310.608398	73748.968750
1309.516602	73355.179688
1308.423828	72879.226563
1307.331055	72561.351563
1306.238281	71316.328125
1305.145508	70763.179688
1304.051758	70512.531250
1302.958984	70310.867188
1301.865234	69751.523438
1300.771484	69901.078125
1299.677734	69866.210938
1298.583008	70508.710938
1297.489258	70193.968750
1296.394531	70774.007813
1295.299805	71555.812500
1294.204102	71114.554688
1293.109375	71132.742188
1292.013672	71312.859375
1290.917969	71013.828125
1289.822266	71198.335938
1288.726563	71059.054688
1287.630859	70363.414063
1286.534180	70069.187500
1285.437500	69721.882813
1284.340820	69726.976563
1283.244141	69577.000000
1282.146484	69495.742188
1281.048828	68730.257813
1279.951172	68790.867188
1278.853516	68616.812500
1277.755859	67623.937500
1276.658203	67773.210938
1275.559570	66962.257813
1274.460938	67602.656250
1273.362305	67428.960938
1272.262695	67089.484375
1271.164063	66763.390625
1270.064453	66130.171875
1268.964844	65917.078125
1267.865234	66196.789063
1266.765625	65683.304688
1265.665039	65768.585938
1264.564453	65341.480469
1263.463867	65378.207031
1262.363281	65116.894531
1261.262695	65195.582031
1260.161133	65080.039063
1259.059570	64461.480469
1257.958008	65096.136719
1256.856445	64647.625000
1255.754883	64265.429688
1254.652344	64655.039063
1253.549805	64067.964844
1252.447266	64259.105469
1251.344727	64084.382813
1250.242188	64134.441406
1249.138672	64334.269531
1248.035156	63769.796875
1246.931641	63819.878906
1245.828125	64312.457031
1244.724609	63532.570313
1243.620117	63895.171875
1242.515625	64200.425781
1241.411133	63880.773438
1240.306641	64236.503906
1239.201172	64266.625000
1238.096680	64428.660156
1236.991211	63772.835938
1235.885742	64082.160156
1234.779297	64760.562500
1233.673828	63847.957031
1232.567383	63717.734375
1231.460938	63565.589844
1230.354492	63767.054688
1229.248047	63426.132813
1228.140625	63829.500000
1227.033203	63800.343750
1225.926758	63742.667969
1224.818359	63816.652344
1223.710938	63546.210938
1222.602539	63995.234375
1221.495117	63700.734375
1220.386719	63520.343750
1219.278320	63495.644531
1218.168945	63836.949219
1217.060547	63108.824219
1215.951172	62749.011719
1214.841797	63090.261719
1213.731445	62899.210938
1212.622070	62885.582031
1211.511719	62998.933594
1210.402344	62639.457031
1209.291992	62739.675781
1208.180664	63391.234375
1207.070313	63020.933594
1205.958984	63302.558594
1204.847656	63531.593750
1203.736328	63620.613281
1202.625000	64162.105469
1201.512695	63372.347656
1200.401367	64661.031250
1199.289063	64354.312500
1198.176758	64148.187500
1197.063477	64483.777344
1195.951172	65308.378906
1194.837891	65132.750000
1193.724609	65544.367188
1192.611328	65619.734375
1191.498047	65657.976563
1190.383789	65619.843750
1189.269531	65313.429688
1188.155273	64407.386719
1187.041016	64613.707031
1185.926758	64530.000000
1184.811523	64027.824219
1183.696289	64401.894531
1182.581055	63801.871094
1181.465820	64082.167969
1180.350586	64025.269531
1179.234375	63968.316406
1178.118164	63911.367188
1177.001953	63854.417969
1175.885742	63797.468750
1174.768555	63807.605469
1173.652344	62840.847656
1172.535156	63569.003906
1171.417969	63148.535156
1170.299805	63037.000000
