#Wave		#Intensity
2001.248047	39254.710938
2000.278320	39427.660156
1999.308594	39997.175781
1998.338867	39784.730469
1997.369141	39865.468750
1996.398438	40018.816406
1995.428711	39829.011719
1994.458008	39676.832031
1993.487305	40163.085938
1992.516602	39955.828125
1991.545898	39966.371094
1990.574219	40124.531250
1989.603516	40029.964844
1988.631836	40193.058594
1987.660156	40241.058594
1986.688477	39916.476563
1985.715820	40429.500000
1984.744141	40397.441406
1983.771484	40515.339844
1982.798828	40203.425781
1981.826172	40433.730469
1980.853516	40159.402344
1979.880859	40644.363281
1978.907227	40415.035156
1977.933594	40210.753906
1976.959961	40505.746094
1975.986328	40386.363281
1975.012695	40334.394531
1974.039063	40412.164063
1973.064453	40327.777344
1972.089844	40530.210938
1971.115234	40700.160156
1970.140625	40199.433594
1969.166016	40219.824219
1968.190430	40713.707031
1967.215820	40469.878906
1966.240234	40577.398438
1965.264648	40224.082031
1964.289063	40787.343750
1963.312500	40742.863281
1962.336914	40890.085938
1961.360352	40611.625000
1960.383789	40467.648438
1959.407227	40701.925781
1958.430664	40846.558594
1957.454102	40782.203125
1956.476563	40633.316406
1955.499023	40434.750000
1954.521484	40773.234375
1953.543945	40835.695313
1952.566406	40634.710938
1951.587891	40704.625000
1950.610352	40650.300781
1949.631836	40516.511719
1948.653320	40626.140625
1947.674805	40820.152344
1946.696289	40875.070313
1945.716797	40602.328125
1944.737305	40845.871094
1943.758789	41059.550781
1942.779297	40839.015625
1941.798828	40680.562500
1940.819336	41147.109375
1939.838867	40872.117188
1938.859375	40807.941406
1937.878906	41053.617188
1936.898438	40989.429688
1935.916992	41073.929688
1934.936523	41141.054688
1933.955078	41421.167969
1932.974609	41312.378906
1931.993164	41562.652344
1931.010742	41278.101563
1930.029297	41176.816406
1929.047852	40961.726563
1928.065430	41625.082031
1927.083008	41291.242188
1926.100586	41424.992188
1925.118164	41341.070313
1924.135742	41232.449219
1923.152344	41269.722656
1922.168945	41133.964844
1921.185547	41875.546875
1920.202148	41579.121094
1919.218750	41673.117188
1918.235352	41806.601563
1917.250977	41678.265625
1916.266602	42145.027344
1915.282227	41668.593750
1914.297852	41145.425781
1913.313477	41908.167969
1912.328125	41720.703125
1911.343750	41750.390625
1910.358398	42268.433594
1909.373047	41972.492188
1908.387695	41822.125000
1907.401367	42159.917969
1906.416016	42174.707031
1905.429688	41701.546875
1904.443359	41903.667969
1903.457031	42182.078125
1902.470703	42081.082031
1901.483398	42186.980469
1900.497070	42351.933594
1899.509766	41955.546875
1898.522461	42140.167969
1897.535156	41884.222656
1896.546875	41926.082031
1895.559570	42034.347656
1894.571289	41916.289063
1893.583008	42164.683594
1892.594727	42280.218750
1891.606445	42550.585938
1890.618164	42196.558594
1889.628906	42260.417969
1888.639648	42420.074219
1887.650391	42542.824219
1886.661133	42041.671875
1885.671875	42449.304688
1884.682617	42174.226563
1883.692383	42431.945313
1882.702148	42068.605469
1881.711914	42520.109375
1880.721680	42441.492188
1879.731445	42868.238281
1878.740234	42608.082031
1877.749023	42580.980469
1876.757813	42754.937500
1875.766602	42874.898438
1874.775391	42661.484375
1873.784180	43242.121094
1872.791992	42555.843750
1871.799805	42800.683594
1870.807617	42553.136719
1869.815430	43170.105469
1868.823242	42949.511719
1867.830078	42971.339844
1866.837891	42665.191406
1865.844727	42794.726563
1864.851563	42845.925781
1863.858398	42955.816406
1862.864258	43011.855469
1861.871094	43084.992188
1860.876953	42732.679688
1859.882813	43143.179688
1858.888672	43445.992188
1857.894531	42727.250000
1856.899414	43291.453125
1855.905273	43110.402344
1854.910156	43239.593750
1853.915039	43874.218750
1852.919922	43514.925781
1851.923828	43719.644531
1850.928711	43394.671875
1849.932617	43350.433594
1848.936523	43823.445313
1847.940430	44093.824219
1846.944336	43671.449219
1845.947266	43415.039063
1844.951172	43807.246094
1843.954102	43450.953125
1842.957031	44001.429688
1841.959961	43876.722656
1840.962891	44020.054688
1839.964844	43931.921875
1838.966797	43955.851563
1837.969727	43914.023438
1836.970703	44390.789063
1835.972656	44460.871094
1834.974609	44341.089844
1833.975586	44121.582031
1832.976563	44607.699219
1831.978516	44453.894531
1830.978516	44280.687500
1829.979492	44039.453125
1828.980469	44303.996094
1827.980469	44529.546875
1826.980469	44611.628906
1825.980469	44506.574219
1824.980469	44377.261719
1823.979492	44359.730469
1822.979492	44473.347656
1821.978516	44620.921875
1820.977539	44566.933594
1819.976563	44770.261719
1818.975586	44813.339844
1817.973633	44657.429688
1816.972656	44863.054688
1815.970703	44576.199219
1814.968750	45390.496094
1813.966797	45047.875000
1812.963867	45073.878906
1811.961914	44622.351563
1810.958984	44980.437500
1809.956055	44970.085938
1808.953125	45216.539063
1807.950195	44971.191406
1806.946289	45704.335938
1805.943359	45325.808594
1804.939453	45390.445313
1803.935547	45191.222656
1802.930664	44907.363281
1801.926758	45102.695313
1800.922852	45237.476563
1799.917969	45101.304688
1798.913086	45642.324219
1797.908203	45619.765625
1796.903320	45768.859375
1795.897461	46154.777344
1794.891602	45863.882813
1793.886719	45933.113281
1792.880859	45748.652344
1791.874023	46274.386719
1790.868164	46198.605469
1789.862305	45876.562500
1788.855469	45713.960938
1787.848633	46227.253906
1786.841797	46129.808594
1785.833984	46126.492188
1784.827148	46184.285156
1783.819336	46242.136719
1782.812500	46299.933594
1781.804688	46357.785156
1780.795898	46415.691406
1779.788086	46473.539063
1778.779297	46531.449219
1777.771484	46589.296875
1776.762695	46647.207031
1775.753906	46705.113281
1774.744141	46763.074219
1773.735352	46820.980469
1772.725586	46878.945313
1771.715820	46936.906250
1770.706055	46994.871094
1769.696289	47052.832031
1768.686523	47110.796875
1767.675781	47168.816406
1766.666016	47226.777344
1765.655273	47284.796875
1764.644531	47342.816406
1763.632813	47935.324219
1762.622070	47833.136719
1761.610352	47728.578125
1760.598633	47948.355469
1759.586914	48391.417969
1758.575195	48152.335938
1757.563477	48686.441406
1756.550781	48785.859375
1755.538086	48825.238281
1754.525391	49169.359375
1753.512695	48889.554688
1752.500000	48842.531250
1751.486328	49056.945313
1750.473633	48909.191406
1749.459961	49785.242188
1748.446289	49618.226563
1747.432617	49724.496094
1746.417969	49087.875000
1745.404297	49532.011719
1744.389648	50095.761719
1743.375000	50050.976563
1742.360352	49872.109375
1741.344727	49954.265625
1740.330078	50452.902344
1739.314453	50410.472656
1738.298828	50748.523438
1737.283203	50796.964844
1736.267578	50168.437500
1735.251953	51125.777344
1734.235352	51386.937500
1733.218750	51313.292969
1732.202148	52004.585938
1731.185547	52148.339844
1730.168945	52437.796875
1729.151367	52213.500000
1728.133789	52306.968750
1727.117188	52928.207031
1726.098633	53374.910156
1725.081055	53047.937500
1724.063477	53644.835938
1723.044922	53768.988281
1722.026367	54511.097656
1721.007813	54370.230469
1719.989258	54699.312500
1718.970703	54408.214844
1717.951172	55185.441406
1716.931641	55077.925781
1715.912109	55571.109375
1714.892578	55749.535156
1713.873047	55394.164063
1712.853516	55222.351563
1711.833008	55577.000000
1710.812500	55707.664063
1709.791992	56021.617188
1708.771484	55568.890625
1707.750000	55863.714844
1706.729492	55806.218750
1705.708008	55753.500000
1704.686523	55788.820313
1703.665039	55386.476563
1702.642578	55788.074219
1701.621094	55504.750000
1700.598633	56039.308594
1699.576172	55454.175781
1698.553711	55888.738281
1697.531250	55520.054688
1696.507813	55800.031250
1695.485352	55581.125000
1694.461914	55488.152344
1693.438477	55827.339844
1692.415039	55542.066406
1691.390625	55674.625000
1690.367188	55598.304688
1689.342773	55422.363281
1688.318359	55545.375000
1687.293945	55381.355469
1686.269531	55449.789063
1685.244141	56061.140625
1684.218750	55458.562500
1683.194336	55837.421875
1682.168945	55604.765625
1681.142578	55838.933594
1680.117188	56063.542969
1679.090820	56006.222656
1678.064453	56266.238281
1677.038086	56315.441406
1676.011719	56163.417969
1674.985352	56262.320313
1673.958008	56536.292969
1672.931641	56057.808594
1671.904297	56265.480469
1670.876953	56167.984375
1669.848633	56723.164063
1668.821289	56500.312500
1667.792969	57121.417969
1666.764648	56683.503906
1665.736328	56893.191406
1664.708008	56991.765625
1663.679688	56561.187500
1662.650391	56881.781250
1661.621094	56940.156250
1660.591797	57090.582031
1659.562500	57590.296875
1658.533203	56992.417969
1657.502930	57352.753906
1656.472656	57068.898438
1655.442383	57511.644531
1654.412109	57565.101563
1653.381836	57387.457031
1652.351563	57337.183594
1651.320313	57098.355469
1650.289063	57785.785156
1649.257813	57290.125000
1648.226563	57739.332031
1647.194336	57585.390625
1646.163086	57659.933594
1645.130859	57670.875000
1644.098633	57552.332031
1643.066406	58118.769531
1642.033203	58131.968750
1641.000977	58055.750000
1639.967773	58379.484375
1638.934570	58056.277344
1637.901367	58201.160156
1636.868164	58301.320313
1635.833984	58262.738281
1634.800781	58125.457031
1633.766602	58472.316406
1632.732422	58010.796875
1631.697266	58162.570313
1630.663086	58370.656250
1629.627930	58261.640625
1628.593750	58619.894531
1627.558594	58419.320313
1626.522461	58969.871094
1625.487305	59567.160156
1624.451172	59556.558594
1623.416016	60151.179688
1622.379883	60056.039063
1621.343750	60176.667969
1620.306641	61035.789063
1619.270508	61460.933594
1618.233398	62598.414063
1617.196289	63789.386719
1616.159180	65336.046875
1615.122070	66961.804688
1614.083984	68535.445313
1613.046875	68991.570313
1612.008789	70400.406250
1610.970703	70474.476563
1609.932617	70855.109375
1608.893555	70550.000000
1607.855469	69856.625000
1606.816406	68667.593750
1605.777344	67329.312500
1604.738281	65844.187500
1603.698242	64633.125000
1602.659180	64404.226563
1601.619141	62761.492188
1600.579102	62568.050781
1599.539063	61797.632813
1598.499023	61277.414063
1597.458008	60507.496094
1596.417969	60032.054688
1595.376953	59349.003906
1594.335938	59436.457031
1593.294922	59285.839844
1592.252930	59452.605469
1591.210938	58917.105469
1590.169922	59265.804688
1589.127930	59145.632813
1588.084961	58941.562500
1587.042969	58462.476563
1586.000000	58419.417969
1584.958008	58842.457031
1583.915039	58526.734375
1582.872070	58753.914063
1581.828125	59302.429688
1580.785156	58961.171875
1579.741211	59127.609375
1578.697266	59589.625000
1577.653320	59108.843750
1576.609375	59063.394531
1575.564453	59734.566406
1574.520508	59665.753906
1573.475586	59976.070313
1572.430664	59549.121094
1571.384766	60119.742188
1570.339844	59513.921875
1569.293945	59487.031250
1568.249023	59220.800781
1567.202148	58908.199219
1566.156250	58809.414063
1565.110352	58606.148438
1564.063477	58586.398438
1563.017578	58629.335938
1561.970703	58226.578125
1560.922852	57777.539063
1559.875977	58310.207031
1558.829102	57824.191406
1557.781250	57895.050781
1556.733398	57856.882813
1555.685547	57626.265625
1554.636719	57708.707031
1553.588867	57893.109375
1552.540039	58091.343750
1551.491211	58159.750000
1550.442383	57813.437500
1549.393555	57888.812500
1548.344727	57957.210938
1547.294922	57854.238281
1546.245117	57809.175781
1545.195313	57949.296875
1544.145508	57658.917969
1543.094727	57609.281250
1542.044922	57871.964844
1540.994141	57512.363281
1539.943359	57737.964844
1538.892578	58030.535156
1537.840820	58200.480469
1536.790039	57792.527344
1535.738281	58031.773438
1534.686523	57644.785156
1533.634766	57491.253906
1532.583008	57781.234375
1531.530273	57967.187500
1530.477539	58007.617188
1529.424805	57535.554688
1528.372070	58051.496094
1527.319336	57690.355469
1526.265625	57772.324219
1525.212891	57741.230469
1524.159180	57772.417969
1523.105469	57337.785156
1522.051758	57887.773438
1520.997070	58001.894531
1519.942383	58381.015625
1518.888672	57948.878906
1517.833984	57417.828125
1516.778320	57845.218750
1515.723633	57786.500000
1514.667969	57978.792969
1513.612305	57802.652344
1512.556641	57831.437500
1511.500977	57857.910156
1510.445313	58047.742188
1509.388672	58106.367188
1508.332031	57875.148438
1507.275391	58667.410156
1506.218750	58302.800781
1505.162109	58961.359375
1504.104492	58720.945313
1503.047852	58370.304688
1501.990234	58049.660156
1500.931641	58625.078125
1499.874023	58499.730469
1498.816406	58516.812500
1497.757813	58175.695313
1496.699219	58208.890625
1495.640625	58726.371094
1494.582031	58135.253906
1493.522461	59033.433594
1492.462891	58428.703125
1491.403320	58592.550781
1490.343750	58744.867188
1489.284180	58862.734375
1488.224609	58969.097656
1487.164063	58472.632813
1486.103516	58693.597656
1485.042969	58939.687500
1483.982422	58855.816406
1482.920898	59039.945313
1481.860352	58816.398438
1480.798828	58686.796875
1479.737305	58772.417969
1478.675781	58995.324219
1477.613281	59154.078125
1476.550781	58949.000000
1475.489258	58691.386719
1474.426758	59206.878906
1473.363281	58999.609375
1472.300781	59453.128906
1471.237305	59131.593750
1470.174805	59132.414063
1469.111328	59295.464844
1468.046875	59355.648438
1466.983398	59945.734375
1465.919922	59603.835938
1464.855469	59885.410156
1463.791016	59840.417969
1462.726563	59893.589844
1461.661133	60195.492188
1460.596680	60034.097656
1459.531250	60014.195313
1458.465820	60500.656250
1457.400391	60526.285156
1456.334961	60773.066406
1455.268555	60860.183594
1454.202148	61097.695313
1453.135742	60924.925781
1452.069336	60740.828125
1451.002930	61308.539063
1449.935547	61099.375000
1448.869141	60648.902344
1447.801758	61334.710938
1446.734375	61205.324219
1445.666016	61633.593750
1444.598633	61354.003906
1443.530273	61816.218750
1442.461914	62496.636719
1441.393555	62669.632813
1440.325195	62924.421875
1439.256836	63124.554688
1438.187500	63956.542969
1437.118164	64274.593750
1436.048828	64733.410156
1434.979492	64933.062500
1433.909180	64891.863281
1432.839844	65384.378906
1431.769531	65892.609375
1430.699219	66010.171875
1429.627930	66132.226563
1428.557617	66009.132813
1427.486328	65954.156250
1426.416016	66026.234375
1425.343750	65601.546875
1424.272461	66197.523438
1423.201172	65732.140625
1422.128906	65627.367188
1421.056641	65382.109375
1419.984375	65445.132813
1418.912109	66031.523438
1417.839844	65478.226563
1416.766602	65464.183594
1415.693359	65119.515625
1414.620117	65252.707031
1413.546875	65277.183594
1412.473633	65389.921875
1411.399414	65296.691406
1410.325195	64773.613281
1409.250977	65031.148438
1408.176758	65401.671875
1407.102539	65460.000000
1406.027344	65540.914063
1404.952148	66159.796875
1403.876953	65386.238281
1402.801758	66239.921875
1401.726563	67149.773438
1400.650391	66428.406250
1399.574219	66669.390625
1398.498047	66996.093750
1397.421875	66749.234375
1396.345703	66556.632813
1395.268555	66797.414063
1394.191406	67090.000000
1393.114258	66669.578125
1392.037109	67313.953125
1390.959961	67270.250000
1389.881836	67440.773438
1388.804688	68237.945313
1387.726563	67741.046875
1386.647461	68193.078125
1385.569336	68642.687500
1384.491211	69276.859375
1383.412109	69491.867188
1382.333008	69305.945313
1381.253906	69329.476563
1380.173828	69427.289063
1379.094727	69932.445313
1378.014648	70129.117188
1376.934570	69616.992188
1375.854492	69705.671875
1374.773438	69735.835938
1373.693359	69552.367188
1372.612305	69380.195313
1371.531250	68965.312500
1370.450195	67876.328125
1369.369141	68075.312500
1368.287109	67739.515625
1367.205078	67336.445313
1366.123047	66893.093750
1365.041016	66779.984375
1363.958984	66247.085938
1362.875977	66336.148438
1361.793945	66344.375000
1360.710938	66096.804688
1359.626953	65860.531250
1358.543945	65442.660156
1357.460938	66004.968750
1356.376953	65609.632813
1355.292969	64905.074219
1354.208984	65144.398438
1353.124023	65269.339844
1352.040039	64715.332031
1350.955078	64582.679688
1349.870117	64660.613281
1348.785156	64281.679688
1347.700195	64366.351563
1346.614258	64274.140625
1345.528320	63564.226563
1344.442383	64134.570313
1343.356445	64044.679688
1342.270508	64209.835938
1341.183594	64111.011719
1340.096680	64179.933594
1339.009766	63801.679688
1337.922852	63879.566406
1336.835938	64265.847656
1335.748047	64057.601563
1334.661133	63802.507813
1333.573242	64190.816406
1332.484375	64319.917969
1331.396484	64569.550781
1330.307617	64285.511719
1329.219727	64146.664063
1328.130859	64719.781250
1327.041992	64074.390625
1325.952148	64607.152344
1324.863281	64798.449219
1323.773438	64780.046875
1322.683594	64641.242188
1321.593750	64734.335938
1320.502930	64319.199219
1319.413086	64470.250000
1318.322266	64815.089844
1317.231445	64458.078125
1316.140625	64675.832031
1315.048828	64704.218750
1313.958008	64282.843750
1312.866211	64562.832031
1311.774414	64793.753906
1310.682617	64421.539063
1309.589844	64178.500000
1308.498047	64809.757813
1307.405273	65116.074219
1306.312500	65553.468750
1305.218750	65574.960938
1304.125977	65216.328125
1303.032227	66124.625000
1301.939453	66097.101563
1300.845703	65874.078125
1299.750977	66197.570313
1298.657227	66548.476563
1297.562500	66899.703125
1296.467773	67250.921875
1295.373047	67602.148438
1294.278320	67953.367188
1293.183594	68304.593750
1292.087891	68591.710938
1290.992188	68279.859375
1289.896484	68280.796875
1288.800781	67989.062500
1287.704102	68273.804688
1286.608398	67676.304688
1285.511719	67347.156250
1284.415039	67013.687500
1283.317383	66483.187500
1282.220703	66515.437500
1281.123047	66543.250000
1280.025391	66101.671875
1278.927734	65901.539063
1277.830078	65736.890625
1276.731445	65178.410156
1275.633789	65458.636719
1274.535156	64789.804688
1273.436523	65089.902344
1272.336914	64578.371094
1271.238281	64237.253906
1270.138672	63566.906250
1269.039063	63798.484375
1267.939453	63828.898438
1266.839844	63253.980469
1265.739258	62741.113281
1264.638672	63226.628906
1263.538086	63016.441406
1262.437500	62852.687500
1261.336914	62753.000000
1260.235352	62514.320313
1259.134766	61980.062500
1258.033203	62498.261719
1256.930664	61957.578125
1255.829102	61586.890625
1254.726563	61741.078125
1253.625000	61505.027344
1252.522461	62146.253906
1251.418945	61242.519531
1250.316406	61663.230469
1249.212891	61345.851563
1248.110352	61325.910156
1247.006836	61308.171875
1245.902344	60955.796875
1244.798828	60671.785156
1243.694336	61138.343750
1242.589844	60964.414063
1241.485352	61166.750000
1240.380859	60891.691406
1239.276367	60825.652344
1238.170898	60673.886719
1237.065430	61030.003906
1235.959961	60722.187500
1234.854492	60924.328125
1233.748047	60535.343750
1232.642578	60878.035156
1231.536133	60974.601563
1230.429688	60921.800781
1229.322266	60956.839844
1228.215820	60792.101563
1227.108398	60748.132813
1226.000977	61015.789063
1224.893555	60701.925781
1223.786133	60846.644531
1222.677734	61030.781250
1221.569336	61157.839844
1220.460938	60833.207031
1219.352539	60114.125000
1218.244141	60247.843750
1217.134766	60561.195313
1216.025391	60576.476563
1214.916016	60234.707031
1213.806641	60352.968750
1212.697266	59698.242188
1211.586914	60243.453125
1210.476563	60024.558594
1209.366211	59930.480469
1208.255859	60166.832031
1207.145508	60339.652344
1206.034180	60604.269531
1204.922852	60623.863281
1203.811523	60521.003906
1202.700195	60577.761719
1201.587891	60772.191406
1200.476563	61073.628906
1199.364258	61047.222656
1198.251953	61285.140625
1197.138672	61059.953125
1196.026367	61965.980469
1194.913086	62094.433594
1193.799805	62080.949219
1192.686523	62172.226563
1191.573242	61951.429688
1190.458984	62121.230469
1189.344727	62175.359375
1188.230469	61182.640625
1187.116211	61328.496094
1186.001953	61132.023438
1184.886719	61541.574219
1183.772461	61310.257813
1182.657227	61031.085938
1181.541016	61109.292969
1180.425781	60684.320313
1179.309570	60719.000000
1178.193359	60688.343750
1177.077148	60668.582031
1175.960938	59884.863281
1174.844727	60196.019531
1173.727539	59514.925781
1172.610352	59908.695313
1171.493164	59386.667969
1170.375977	59408.464844
