#Wave		#Intensity
2001.242188	32873.058594
2000.272461	33023.449219
1999.302734	32987.613281
1998.333008	33470.453125
1997.363281	33304.277344
1996.392578	33551.445313
1995.422852	33302.667969
1994.452148	33311.875000
1993.481445	33040.691406
1992.510742	33120.027344
1991.540039	33119.246094
1990.568359	33453.753906
1989.596680	33187.734375
1988.625977	33251.972656
1987.654297	33596.285156
1986.681641	33300.367188
1985.709961	33144.554688
1984.738281	32661.353516
1983.765625	33540.328125
1982.792969	33342.070313
1981.820313	33441.171875
1980.847656	33502.769531
1979.874023	32830.121094
1978.901367	33024.136719
1977.927734	33412.808594
1976.954102	33609.148438
1975.980469	33428.585938
1975.006836	33263.050781
1974.032227	33307.132813
1973.058594	33553.234375
1972.083984	33340.378906
1971.109375	33551.476563
1970.134766	33373.597656
1969.160156	33634.464844
1968.184570	33576.250000
1967.209961	33660.078125
1966.234375	33519.667969
1965.258789	33376.812500
1964.283203	33577.675781
1963.306641	33454.777344
1962.331055	33433.988281
1961.354492	33567.527344
1960.377930	33696.042969
1959.401367	33647.851563
1958.424805	33517.578125
1957.447266	33471.914063
1956.470703	33660.039063
1955.493164	33298.585938
1954.515625	33312.648438
1953.538086	33774.109375
1952.560547	33616.605469
1951.582031	33685.265625
1950.604492	33736.507813
1949.625977	33467.316406
1948.647461	33779.335938
1947.668945	33549.957031
1946.689453	33668.210938
1945.710938	33684.656250
1944.731445	33524.898438
1943.751953	34290.691406
1942.772461	33791.011719
1941.792969	33539.539063
1940.813477	33910.617188
1939.833008	33810.457031
1938.852539	33990.468750
1937.873047	33803.574219
1936.891602	33316.886719
1935.911133	33962.703125
1934.930664	33766.000000
1933.949219	33888.886719
1932.967773	33773.984375
1931.986328	33725.976563
1931.004883	34012.191406
1930.023438	33761.191406
1929.041016	33978.000000
1928.059570	33759.257813
1927.077148	33896.828125
1926.094727	34014.562500
1925.112305	34100.101563
1924.128906	33916.101563
1923.146484	33633.281250
1922.163086	34119.253906
1921.179688	33841.433594
1920.196289	34349.437500
1919.212891	34360.707031
1918.228516	34371.976563
1917.245117	34274.578125
1916.260742	33999.437500
1915.276367	34114.441406
1914.291992	34286.175781
1913.307617	33998.832031
1912.322266	34017.546875
1911.336914	34211.402344
1910.352539	33978.484375
1909.367188	34083.500000
1908.380859	33954.242188
1907.395508	34433.929688
1906.409180	33947.261719
1905.423828	33857.519531
1904.437500	33984.632813
1903.451172	33717.542969
1902.463867	34068.769531
1901.477539	34193.312500
1900.490234	34315.343750
1899.503906	34201.007813
1898.516602	34165.472656
1897.528320	34157.015625
1896.541016	34003.394531
1895.553711	34334.449219
1894.565430	34129.199219
1893.577148	34174.851563
1892.588867	33945.109375
1891.600586	34155.480469
1890.611328	34038.882813
1889.623047	34335.167969
1888.633789	34132.582031
1887.644531	33927.609375
1886.655273	34513.582031
1885.666016	33817.468750
1884.675781	33644.574219
1883.686523	33660.757813
1882.696289	34319.992188
1881.706055	34193.718750
1880.715820	33981.617188
1879.724609	33919.226563
1878.734375	34107.031250
1877.743164	34184.417969
1876.751953	33960.203125
1875.760742	34106.222656
1874.769531	34261.996094
1873.778320	34104.042969
1872.786133	34147.050781
1871.793945	34043.066406
1870.801758	34752.261719
1869.809570	34621.265625
1868.817383	34556.421875
1867.824219	34285.968750
1866.832031	34461.062500
1865.838867	34016.976563
1864.845703	34329.062500
1863.851563	34667.945313
1862.858398	34314.550781
1861.865234	33909.921875
1860.871094	34361.164063
1859.876953	34452.906250
1858.882813	34307.535156
1857.887695	34487.218750
1856.893555	34341.890625
1855.898438	34682.730469
1854.904297	34251.660156
1853.909180	34353.082031
1852.913086	34933.000000
1851.917969	34279.972656
1850.922852	34622.953125
1849.926758	34475.332031
1848.930664	34620.535156
1847.934570	34785.199219
1846.938477	34849.808594
1845.941406	34448.640625
1844.945313	34998.460938
1843.948242	34380.453125
1842.951172	34764.359375
1841.954102	34690.011719
1840.956055	34557.214844
1839.958984	34731.394531
1838.960938	34800.781250
1837.962891	34823.875000
1836.964844	34949.218750
1835.966797	34857.867188
1834.968750	35056.171875
1833.969727	35215.468750
1832.970703	35201.968750
1831.971680	34940.359375
1830.972656	35211.460938
1829.973633	35411.953125
1828.973633	35325.488281
1827.974609	35205.019531
1826.974609	35424.843750
1825.974609	35311.687500
1824.974609	35218.007813
1823.973633	35126.785156
1822.973633	35460.609375
1821.972656	35483.500000
1820.971680	35363.144531
1819.970703	35410.316406
1818.968750	35406.503906
1817.967773	35514.312500
1816.965820	35631.785156
1815.964844	35649.761719
1814.961914	35662.882813
1813.959961	35564.457031
1812.958008	35337.570313
1811.955078	35464.660156
1810.953125	35969.769531
1809.950195	35670.238281
1808.947266	35828.691406
1807.943359	35778.777344
1806.940430	35891.136719
1805.936523	35846.066406
1804.932617	35912.375000
1803.928711	35855.214844
1802.924805	36255.468750
1801.920898	35786.917969
1800.916016	35986.242188
1799.911133	35979.898438
1798.907227	35767.988281
1797.901367	35662.542969
1796.896484	36021.300781
1795.891602	35949.687500
1794.885742	35692.011719
1793.879883	36123.054688
1792.874023	36244.722656
1791.868164	36438.808594
1790.862305	36188.464844
1789.855469	36148.277344
1788.848633	36042.917969
1787.842773	36188.621094
1786.834961	36722.808594
1785.828125	36462.980469
1784.821289	36591.640625
1783.813477	36843.265625
1782.805664	36368.917969
1781.797852	36516.812500
1780.790039	36898.492188
1779.782227	36691.925781
1778.773438	37179.468750
1777.764648	36823.535156
1776.755859	36874.851563
1775.747070	36885.199219
1774.738281	36726.972656
1773.729492	37247.785156
1772.719727	37103.988281
1771.709961	37407.925781
1770.700195	37362.816406
1769.690430	37462.082031
1768.680664	37352.023438
1767.669922	37205.925781
1766.659180	37276.304688
1765.648438	37284.144531
1764.637695	37001.109375
1763.626953	37285.394531
1762.615234	37670.503906
1761.604492	37661.445313
1760.592773	37407.363281
1759.581055	37508.832031
1758.569336	37545.429688
1757.556641	37608.421875
1756.544922	38007.464844
1755.532227	37755.933594
1754.519531	37758.859375
1753.506836	37637.023438
1752.494141	37875.046875
1751.480469	38172.949219
1750.466797	38149.414063
1749.454102	37890.925781
1748.440430	38478.714844
1747.425781	38366.457031
1746.412109	38306.953125
1745.397461	38300.179688
1744.383789	38473.062500
1743.369141	38344.113281
1742.353516	39206.566406
1741.338867	38627.425781
1740.324219	39312.382813
1739.308594	39080.457031
1738.292969	39463.585938
1737.277344	39403.968750
1736.261719	39243.906250
1735.245117	39798.996094
1734.229492	39500.226563
1733.212891	39526.707031
1732.196289	40117.300781
1731.179688	40110.203125
1730.162109	40337.273438
1729.145508	40994.300781
1728.127930	40886.722656
1727.110352	40841.273438
1726.092773	40752.855469
1725.075195	41776.996094
1724.056641	41886.562500
1723.039063	41533.097656
1722.020508	42241.582031
1721.001953	41947.816406
1719.983398	42014.332031
1718.963867	42772.433594
1717.945313	42764.855469
1716.925781	42540.339844
1715.906250	43340.839844
1714.886719	42720.691406
1713.867188	43680.519531
1712.846680	43251.109375
1711.826172	43241.066406
1710.806641	43185.773438
1709.786133	43147.171875
1708.764648	43477.574219
1707.744141	43412.746094
1706.722656	43262.265625
1705.701172	43411.640625
1704.679688	43786.957031
1703.658203	43510.421875
1702.636719	43578.812500
1701.614258	43587.730469
1700.592773	43461.140625
1699.570313	43505.726563
1698.547852	43341.171875
1697.524414	43666.128906
1696.501953	43444.585938
1695.478516	43911.914063
1694.456055	43735.523438
1693.432617	43806.117188
1692.408203	43985.886719
1691.384766	44343.601563
1690.360352	44179.117188
1689.336914	43934.019531
1688.312500	44025.859375
1687.288086	44271.832031
1686.262695	43996.015625
1685.238281	44448.171875
1684.212891	44409.472656
1683.187500	44688.375000
1682.162109	44488.503906
1681.136719	45203.234375
1680.110352	45038.871094
1679.084961	44983.511719
1678.058594	45442.023438
1677.032227	45237.449219
1676.005859	45513.480469
1674.978516	45630.839844
1673.952148	45416.871094
1672.924805	45463.226563
1671.897461	45507.195313
1670.870117	45586.625000
1669.842773	45528.875000
1668.814453	45939.257813
1667.787109	46514.960938
1666.758789	45904.039063
1665.730469	46307.042969
1664.701172	46296.457031
1663.672852	46189.027344
1662.643555	46242.226563
1661.615234	46489.035156
1660.585938	46683.812500
1659.555664	46885.597656
1658.526367	46773.429688
1657.497070	46857.144531
1656.466797	47139.000000
1655.436523	46899.464844
1654.406250	46683.597656
1653.375977	47420.410156
1652.344727	46912.191406
1651.313477	47075.921875
1650.282227	47576.597656
1649.250977	47264.183594
1648.219727	47269.917969
1647.188477	47657.226563
1646.156250	47846.578125
1645.124023	47503.722656
1644.091797	47740.109375
1643.059570	47844.601563
1642.027344	47711.371094
1640.994141	47829.945313
1639.961914	48675.394531
1638.928711	48596.175781
1637.895508	48832.105469
1636.861328	49401.824219
1635.828125	49237.886719
1634.793945	49158.617188
1633.759766	49250.921875
1632.725586	49282.105469
1631.691406	49956.937500
1630.656250	49593.394531
1629.622070	50570.863281
1628.586914	50688.652344
1627.551758	50792.308594
1626.516602	50630.714844
1625.480469	51651.878906
1624.445313	52069.699219
1623.409180	53137.156250
1622.373047	53744.539063
1621.336914	53943.675781
1620.300781	54771.078125
1619.263672	55488.011719
1618.227539	56570.304688
1617.190430	57528.019531
1616.153320	58970.363281
1615.115234	59992.890625
1614.078125	61094.683594
1613.040039	61980.648438
1612.001953	62735.191406
1610.963867	62705.292969
1609.925781	63302.625000
1608.887695	62926.316406
1607.848633	62603.949219
1606.809570	61862.988281
1605.770508	60299.062500
1604.731445	59420.812500
1603.692383	58781.339844
1602.652344	58142.089844
1601.613281	57283.382813
1600.573242	56354.878906
1599.533203	55835.542969
1598.492188	55211.277344
1597.452148	55105.687500
1596.411133	55205.613281
1595.370117	55543.621094
1594.329102	55218.613281
1593.288086	55409.472656
1592.247070	54893.269531
1591.205078	54934.804688
1590.163086	54922.679688
1589.121094	54346.199219
1588.079102	54191.949219
1587.036133	54186.949219
1585.994141	53892.929688
1584.951172	53969.542969
1583.908203	53906.328125
1582.865234	53908.363281
1581.822266	53735.707031
1580.778320	53632.976563
1579.734375	53965.671875
1578.691406	54037.523438
1577.646484	53881.250000
1576.602539	54509.253906
1575.558594	54655.417969
1574.513672	55155.109375
1573.468750	55059.214844
1572.423828	55642.371094
1571.378906	55658.015625
1570.333008	55531.855469
1569.288086	56068.121094
1568.242188	55614.281250
1567.196289	55234.945313
1566.150391	54655.968750
1565.103516	54191.003906
1564.057617	53826.046875
1563.010742	53326.566406
1561.963867	53310.082031
1560.916992	52952.437500
1559.869141	52439.449219
1558.822266	52339.605469
1557.774414	51801.386719
1556.726563	52037.972656
1555.678711	52054.183594
1554.630859	51423.566406
1553.582031	51546.503906
1552.534180	51388.976563
1551.485352	51727.363281
1550.436523	51528.152344
1549.386719	50951.457031
1548.337891	50347.175781
1547.288086	50391.433594
1546.238281	49979.613281
1545.188477	50320.191406
1544.138672	49670.160156
1543.088867	49594.183594
1542.038086	49728.750000
1540.987305	49187.875000
1539.936523	49338.652344
1538.885742	49521.742188
1537.834961	48477.230469
1536.783203	49256.726563
1535.731445	48681.746094
1534.679688	48800.121094
1533.627930	48796.015625
1532.576172	48565.562500
1531.523438	48829.371094
1530.471680	48356.558594
1529.418945	48592.605469
1528.366211	48593.148438
1527.312500	47919.863281
1526.259766	48063.570313
1525.206055	48082.652344
1524.152344	48249.335938
1523.098633	48148.464844
1522.044922	48013.046875
1520.990234	47778.554688
1519.936523	47564.886719
1518.881836	47865.152344
1517.827148	47669.972656
1516.772461	47525.535156
1515.716797	47579.210938
1514.662109	47531.550781
1513.606445	46839.277344
1512.550781	47972.605469
1511.495117	47648.722656
1510.438477	47081.046875
1509.382813	47443.015625
1508.326172	47390.816406
1507.269531	47439.828125
1506.212891	47707.257813
1505.155273	47300.996094
1504.098633	47340.792969
1503.041016	47244.988281
1501.983398	47608.757813
1500.925781	47345.230469
1499.867188	47495.234375
1498.809570	47555.621094
1497.750977	47450.667969
1496.692383	47547.769531
1495.633789	47413.011719
1494.575195	47335.671875
1493.515625	46916.488281
1492.457031	47481.585938
1491.397461	46828.574219
1490.337891	47324.687500
1489.277344	47738.078125
1488.217773	47128.921875
1487.157227	47278.617188
1486.096680	47485.550781
1485.036133	47376.230469
1483.975586	47686.148438
1482.915039	47285.953125
1481.853516	47588.906250
1480.791992	47497.949219
1479.730469	47505.457031
1478.668945	47554.156250
1477.606445	47481.558594
1476.544922	47898.585938
1475.482422	47702.425781
1474.419922	47677.859375
1473.357422	48197.519531
1472.293945	48074.562500
1471.231445	47947.078125
1470.167969	47565.957031
1469.104492	47865.898438
1468.041016	48094.906250
1466.976563	48200.484375
1465.913086	47851.558594
1464.848633	48103.273438
1463.784180	48106.054688
1462.719727	48227.527344
1461.655273	48520.109375
1460.589844	48374.500000
1459.524414	48105.750000
1458.458984	48224.843750
1457.393555	48195.664063
1456.328125	48225.773438
1455.261719	48094.011719
1454.196289	48493.363281
1453.129883	48420.902344
1452.063477	48348.437500
1450.996094	48275.910156
1449.929688	48203.449219
1448.862305	48349.644531
1447.794922	48466.183594
1446.727539	48676.011719
1445.660156	48737.824219
1444.591797	48783.683594
1443.524414	48708.941406
1442.456055	49152.867188
1441.387695	49057.613281
1440.318359	49446.738281
1439.250000	49535.613281
1438.180664	49578.996094
1437.111328	50365.535156
1436.041992	49988.371094
1434.972656	50320.171875
1433.903320	50297.496094
1432.833008	50654.101563
1431.762695	50449.718750
1430.692383	51049.078125
1429.622070	51153.394531
1428.550781	51216.820313
1427.480469	51634.191406
1426.409180	51792.785156
1425.337891	52157.730469
1424.266602	52849.105469
1423.194336	52760.242188
1422.122070	52945.714844
1421.050781	53498.308594
1419.978516	53796.886719
1418.905273	53247.957031
1417.833008	53159.089844
1416.759766	53453.031250
1415.687500	52759.523438
1414.614258	52650.406250
1413.540039	52545.859375
1412.466797	52169.742188
1411.392578	51671.566406
1410.319336	51691.679688
1409.245117	50981.125000
1408.169922	50847.554688
1407.095703	50392.929688
1406.020508	51077.953125
1404.946289	51579.625000
1403.871094	51170.308594
1402.794922	51072.968750
1401.719727	51441.070313
1400.643555	51908.429688
1399.568359	51896.824219
1398.492188	51587.160156
1397.415039	51390.488281
1396.338867	51609.210938
1395.261719	51868.480469
1394.185547	52125.394531
1393.108398	52425.078125
1392.031250	52366.011719
1390.953125	53177.472656
1389.875977	53253.574219
1388.797852	53331.902344
1387.719727	53270.449219
1386.641602	53506.492188
1385.562500	53787.507813
1384.484375	53484.960938
1383.405273	53387.480469
1382.326172	53445.417969
1381.247070	53095.800781
1380.166992	53430.656250
1379.087891	52982.132813
1378.007813	52923.078125
1376.927734	52479.300781
1375.847656	52627.308594
1374.767578	52210.730469
1373.686523	52711.773438
1372.605469	51967.078125
1371.524414	51957.707031
1370.443359	51746.062500
1369.362305	51707.519531
1368.280273	51882.421875
1367.199219	52304.347656
1366.117188	51780.613281
1365.034180	52274.253906
1363.952148	52942.832031
1362.870117	52948.992188
1361.787109	53513.968750
1360.704102	53410.070313
1359.621094	54205.828125
1358.537109	53848.375000
1357.454102	53939.578125
1356.370117	53418.617188
1355.286133	52837.316406
1354.202148	52664.156250
1353.118164	52544.843750
1352.033203	51168.589844
1350.948242	51618.593750
1349.863281	50872.386719
1348.778320	50845.285156
1347.693359	50164.414063
1346.607422	50224.750000
1345.521484	50443.976563
1344.435547	50349.832031
1343.349609	50365.351563
1342.263672	50034.132813
1341.176758	49839.464844
1340.090820	49703.000000
1339.003906	50004.792969
1337.916016	49329.628906
1336.829102	50174.464844
1335.741211	50020.156250
1334.654297	49921.753906
1333.566406	49716.164063
1332.478516	50102.480469
1331.389648	50459.628906
1330.301758	50093.304688
1329.212891	50251.664063
1328.124023	50171.164063
1327.035156	50806.945313
1325.945313	51098.937500
1324.856445	51183.382813
1323.766602	51852.078125
1322.676758	52208.375000
1321.586914	52448.617188
1320.496094	53261.597656
1319.406250	53757.835938
1318.315430	54962.421875
1317.224609	55596.281250
1316.133789	57056.234375
1315.041992	57431.164063
1313.951172	58251.253906
1312.859375	58848.433594
1311.767578	58722.054688
1310.675781	58911.707031
1309.583008	58391.554688
1308.491211	57953.894531
1307.398438	56675.699219
1306.305664	55904.953125
1305.212891	55516.882813
1304.119141	54504.332031
1303.026367	54305.558594
1301.932617	54160.187500
1300.838867	53586.085938
1299.744141	53636.363281
1298.650391	54355.089844
1297.555664	54405.203125
1296.461914	54535.214844
1295.366211	54465.414063
1294.271484	54462.210938
1293.176758	54918.304688
1292.081055	54966.039063
1290.985352	54663.308594
1289.889648	54116.742188
1288.793945	53783.226563
1287.697266	53713.632813
1286.601563	52985.785156
1285.504883	53463.710938
1284.408203	52838.085938
1283.311523	52407.621094
1282.213867	52309.535156
1281.116211	51947.964844
1280.018555	51894.273438
1278.920898	51973.414063
1277.823242	51430.613281
1276.725586	51292.949219
1275.626953	50473.914063
1274.528320	50929.289063
1273.429688	50462.253906
1272.330078	50364.660156
1271.231445	50068.125000
1270.131836	50231.460938
1269.032227	49656.593750
1267.932617	49718.296875
1266.833008	49795.441406
1265.732422	49247.464844
1264.632813	49576.421875
1263.532227	49284.808594
1262.430664	49033.035156
1261.330078	48695.269531
1260.228516	48942.425781
1259.127930	48765.863281
1258.026367	48267.285156
1256.924805	48719.500000
1255.822266	48278.441406
1254.720703	48282.910156
1253.618164	48077.960938
1252.515625	48216.906250
1251.413086	47771.843750
1250.309570	47963.664063
1249.207031	47730.277344
1248.103516	47860.363281
1247.000000	47726.164063
1245.895508	47065.828125
1244.791992	47365.453125
1243.687500	47312.839844
1242.583008	47684.917969
1241.478516	47480.460938
1240.374023	47579.621094
1239.269531	47669.949219
1238.164063	47665.687500
1237.058594	47663.628906
1235.953125	47569.250000
1234.847656	47652.910156
1233.741211	47675.015625
1232.635742	47969.519531
1231.529297	47495.164063
1230.422852	47517.281250
1229.315430	47462.542969
1228.208984	47620.753906
1227.101563	47702.089844
1225.994141	47847.031250
1224.886719	47052.882813
1223.779297	47371.179688
1222.670898	47445.914063
1221.562500	47553.511719
1220.454102	47244.503906
1219.345703	46795.320313
1218.237305	46927.078125
1217.127930	46655.601563
1216.018555	46671.218750
1214.909180	46373.597656
1213.799805	46411.156250
1212.690430	46194.703125
1211.580078	46440.253906
1210.469727	46486.531250
1209.359375	46861.054688
1208.249023	46699.371094
1207.138672	46914.015625
1206.027344	46828.929688
1204.916016	47332.132813
1203.804688	47483.132813
1202.693359	47028.542969
1201.581055	46912.890625
1200.469727	47531.523438
1199.357422	47190.777344
1198.245117	47778.546875
1197.131836	47811.351563
1196.019531	47859.425781
1194.906250	47883.464844
1193.792969	48012.269531
1192.679688	48023.171875
1191.566406	47471.093750
1190.452148	47261.738281
1189.337891	47637.039063
1188.223633	47397.195313
1187.109375	47126.906250
1185.995117	46529.699219
1184.879883	46551.742188
1183.764648	46706.714844
1182.649414	46685.132813
1181.534180	46672.273438
1180.418945	47103.753906
1179.302734	46670.519531
1178.186523	47003.855469
1177.070313	46836.378906
1175.954102	46692.902344
1174.837891	46788.851563
1173.720703	46843.421875
1172.603516	46362.839844
1171.486328	46691.507813
1170.369141	46548.175781
