#Wave		#Intensity
2001.242188	36259.371094
2000.272461	36986.261719
1999.302734	36395.890625
1998.333008	36166.531250
1997.363281	36200.300781
1996.392578	36411.898438
1995.422852	36510.722656
1994.452148	36669.605469
1993.481445	36265.152344
1992.510742	36761.925781
1991.540039	36577.824219
1990.568359	36328.726563
1989.596680	36399.933594
1988.625977	36441.101563
1987.654297	36322.199219
1986.681641	36153.328125
1985.709961	36309.511719
1984.738281	36368.156250
1983.765625	36504.250000
1982.792969	36335.460938
1981.820313	36124.257813
1980.847656	36942.214844
1979.874023	36368.863281
1978.901367	36549.777344
1977.927734	37007.734375
1976.954102	36656.812500
1975.980469	36902.460938
1975.006836	36686.417969
1974.032227	36762.332031
1973.058594	36556.363281
1972.083984	37051.238281
1971.109375	36912.609375
1970.134766	36793.972656
1969.160156	36660.417969
1968.184570	37202.273438
1967.209961	37302.914063
1966.234375	36795.652344
1965.258789	37524.003906
1964.283203	37029.328125
1963.306641	36955.625000
1962.331055	37135.875000
1961.354492	36765.976563
1960.377930	37167.679688
1959.401367	37079.070313
1958.424805	37149.703125
1957.447266	36720.359375
1956.470703	37318.250000
1955.493164	36983.511719
1954.515625	36875.113281
1953.538086	37316.066406
1952.560547	37431.308594
1951.582031	37551.480469
1950.604492	37018.242188
1949.625977	37371.921875
1948.647461	37539.218750
1947.668945	37348.906250
1946.689453	37478.910156
1945.710938	37512.062500
1944.731445	37607.246094
1943.751953	37446.828125
1942.772461	37417.945313
1941.792969	37555.253906
1940.813477	37623.078125
1939.833008	37286.714844
1938.852539	37319.851563
1937.873047	37724.769531
1936.891602	37220.046875
1935.911133	37634.750000
1934.930664	37749.546875
1933.949219	37720.644531
1932.967773	37582.785156
1931.986328	37635.625000
1931.004883	37891.445313
1930.023438	37080.382813
1929.041016	37403.023438
1928.059570	37980.406250
1927.077148	37946.539063
1926.094727	37979.464844
1925.112305	37925.820313
1924.128906	37259.003906
1923.146484	37549.128906
1922.163086	37537.605469
1921.179688	37538.441406
1920.196289	37702.347656
1919.212891	37584.574219
1918.228516	37755.820313
1917.245117	37452.859375
1916.260742	37562.343750
1915.276367	37516.257813
1914.291992	37894.726563
1913.307617	37384.652344
1912.322266	37617.429688
1911.336914	37795.855469
1910.352539	38307.191406
1909.367188	38036.605469
1908.380859	38234.582031
1907.395508	38050.382813
1906.409180	37612.375000
1905.423828	37652.597656
1904.437500	37722.375000
1903.451172	37932.542969
1902.463867	38169.730469
1901.477539	37852.746094
1900.490234	37922.433594
1899.503906	37952.707031
1898.516602	37916.511719
1897.528320	37902.476563
1896.541016	37903.207031
1895.553711	37729.273438
1894.565430	37336.496094
1893.577148	37657.011719
1892.588867	38206.074219
1891.600586	37862.582031
1890.611328	37988.660156
1889.623047	37775.566406
1888.633789	38410.210938
1887.644531	37686.152344
1886.655273	37588.660156
1885.666016	38306.492188
1884.675781	38191.734375
1883.686523	38064.738281
1882.696289	38394.308594
1881.706055	38176.527344
1880.715820	38145.285156
1879.724609	38376.539063
1878.734375	38090.191406
1877.743164	38600.925781
1876.751953	38550.015625
1875.760742	38158.375000
1874.769531	38558.531250
1873.778320	38679.183594
1872.786133	38292.621094
1871.793945	38322.640625
1870.801758	38330.601563
1869.809570	38424.265625
1868.817383	38772.531250
1867.824219	38621.289063
1866.832031	38788.273438
1865.838867	38485.359375
1864.845703	38718.367188
1863.851563	38885.246094
1862.858398	38450.394531
1861.865234	38817.777344
1860.871094	38757.164063
1859.876953	39403.035156
1858.882813	39005.054688
1857.887695	39240.117188
1856.893555	39238.105469
1855.898438	38869.671875
1854.904297	38621.042969
1853.909180	39324.851563
1852.913086	39203.187500
1851.917969	39364.726563
1850.922852	39330.953125
1849.926758	39260.589844
1848.930664	39561.097656
1847.934570	39327.277344
1846.938477	39086.222656
1845.941406	39567.046875
1844.945313	39421.113281
1843.948242	40026.027344
1842.951172	39480.359375
1841.954102	39531.894531
1840.956055	40177.878906
1839.958984	39802.984375
1838.960938	40300.128906
1837.962891	40049.527344
1836.964844	39886.664063
1835.966797	39998.917969
1834.968750	40113.566406
1833.969727	40410.671875
1832.970703	40170.000000
1831.971680	40413.472656
1830.972656	40435.542969
1829.973633	40569.457031
1828.973633	40713.050781
1827.974609	40674.281250
1826.974609	40701.140625
1825.974609	40696.402344
1824.974609	40769.410156
1823.973633	40621.343750
1822.973633	40849.765625
1821.972656	40956.695313
1820.971680	40891.214844
1819.970703	40680.113281
1818.968750	41068.535156
1817.967773	40488.644531
1816.965820	41143.832031
1815.964844	40991.042969
1814.961914	41027.472656
1813.959961	41439.734375
1812.958008	40853.007813
1811.955078	40685.828125
1810.953125	40850.726563
1809.950195	41386.296875
1808.947266	41546.164063
1807.943359	41783.484375
1806.940430	41112.546875
1805.936523	41507.246094
1804.932617	41366.777344
1803.928711	41589.433594
1802.924805	41862.832031
1801.920898	41732.046875
1800.916016	41814.199219
1799.911133	41959.210938
1798.907227	42009.851563
1797.901367	41987.937500
1796.896484	42055.472656
1795.891602	42200.335938
1794.885742	41931.886719
1793.879883	42349.753906
1792.874023	41926.757813
1791.868164	42363.796875
1790.862305	42211.425781
1789.855469	41836.964844
1788.848633	42541.750000
1787.842773	42261.496094
1786.834961	42591.894531
1785.828125	42080.093750
1784.821289	42678.183594
1783.813477	42624.824219
1782.805664	42718.585938
1781.797852	42990.742188
1780.790039	42609.488281
1779.782227	43088.847656
1778.773438	42996.894531
1777.764648	42358.031250
1776.755859	42528.820313
1775.747070	43325.781250
1774.738281	43366.292969
1773.729492	42997.472656
1772.719727	43134.320313
1771.709961	42984.695313
1770.700195	43419.894531
1769.690430	43573.429688
1768.680664	43495.968750
1767.669922	42935.093750
1766.659180	43547.937500
1765.648438	43487.351563
1764.637695	43849.871094
1763.626953	43693.105469
1762.615234	43995.382813
1761.604492	44287.941406
1760.592773	43869.335938
1759.581055	43763.109375
1758.569336	44298.085938
1757.556641	44175.011719
1756.544922	44265.625000
1755.532227	44029.789063
1754.519531	44451.550781
1753.506836	44414.902344
1752.494141	44606.152344
1751.480469	44809.324219
1750.466797	44978.851563
1749.454102	44412.269531
1748.440430	45087.601563
1747.425781	44478.054688
1746.412109	45066.863281
1745.397461	44946.289063
1744.383789	45156.324219
1743.369141	45086.066406
1742.353516	45348.679688
1741.338867	45434.031250
1740.324219	45189.015625
1739.308594	45437.105469
1738.292969	45680.320313
1737.277344	45641.136719
1736.261719	45731.136719
1735.245117	46366.390625
1734.229492	46659.480469
1733.212891	46292.605469
1732.196289	46619.062500
1731.179688	46813.957031
1730.162109	46602.562500
1729.145508	47193.976563
1728.127930	47672.910156
1727.110352	47652.531250
1726.092773	47677.523438
1725.075195	47626.109375
1724.056641	48445.957031
1723.039063	48022.121094
1722.020508	48925.117188
1721.001953	49052.441406
1719.983398	49120.082031
1718.963867	49037.453125
1717.945313	49517.578125
1716.925781	49434.906250
1715.906250	49509.574219
1714.886719	50013.187500
1713.867188	50094.875000
1712.846680	49823.945313
1711.826172	49988.996094
1710.806641	49894.406250
1709.786133	50228.441406
1708.764648	49967.191406
1707.744141	49808.386719
1706.722656	49678.191406
1705.701172	49883.531250
1704.679688	50055.492188
1703.658203	49589.941406
1702.636719	49883.171875
1701.614258	49365.507813
1700.592773	49584.972656
1699.570313	50084.828125
1698.547852	49515.113281
1697.524414	49287.746094
1696.501953	49542.695313
1695.478516	49640.792969
1694.456055	48883.949219
1693.432617	49570.957031
1692.408203	49272.550781
1691.384766	49657.808594
1690.360352	48975.054688
1689.336914	49080.257813
1688.312500	49436.871094
1687.288086	49245.476563
1686.262695	49196.425781
1685.238281	49265.941406
1684.212891	49162.378906
1683.187500	49089.664063
1682.162109	49315.554688
1681.136719	49837.519531
1680.110352	49317.007813
1679.084961	49464.570313
1678.058594	49507.890625
1677.032227	49539.351563
1676.005859	49760.175781
1674.978516	50040.085938
1673.952148	50000.441406
1672.924805	49821.222656
1671.897461	49679.910156
1670.870117	50222.152344
1669.842773	49922.382813
1668.814453	50329.625000
1667.787109	50372.691406
1666.758789	50247.941406
1665.730469	50380.796875
1664.701172	50572.667969
1663.672852	50334.558594
1662.643555	50552.343750
1661.615234	50611.843750
1660.585938	50347.878906
1659.555664	50667.039063
1658.526367	50662.757813
1657.497070	50814.210938
1656.466797	50871.242188
1655.436523	51015.523438
1654.406250	50987.589844
1653.375977	50860.636719
1652.344727	50733.722656
1651.313477	51099.484375
1650.282227	51373.203125
1649.250977	51941.359375
1648.219727	51211.238281
1647.188477	51357.593750
1646.156250	51204.808594
1645.124023	51433.519531
1644.091797	51520.898438
1643.059570	52133.128906
1642.027344	51824.988281
1640.994141	51945.183594
1639.961914	51599.539063
1638.928711	52451.222656
1637.895508	52098.554688
1636.861328	52192.742188
1635.828125	52223.425781
1634.793945	52646.609375
1633.759766	52761.796875
1632.725586	52705.417969
1631.691406	52984.988281
1630.656250	52775.921875
1629.622070	52686.687500
1628.586914	53069.414063
1627.551758	53259.507813
1626.516602	53477.695313
1625.480469	53393.085938
1624.445313	53716.746094
1623.409180	54525.875000
1622.373047	53962.660156
1621.336914	54630.750000
1620.300781	55284.535156
1619.263672	55668.507813
1618.227539	56706.242188
1617.190430	57406.167969
1616.153320	58864.933594
1615.115234	59564.222656
1614.078125	60900.292969
1613.040039	61823.761719
1612.001953	63175.339844
1610.963867	63283.468750
1609.925781	62628.593750
1608.887695	62828.039063
1607.848633	62056.496094
1606.809570	60850.144531
1605.770508	60231.242188
1604.731445	58644.500000
1603.692383	57752.671875
1602.652344	56842.457031
1601.613281	55904.523438
1600.573242	55572.109375
1599.533203	55134.679688
1598.492188	54078.414063
1597.452148	53970.691406
1596.411133	53711.234375
1595.370117	53386.496094
1594.329102	53115.558594
1593.288086	52709.359375
1592.247070	52804.960938
1591.205078	52417.621094
1590.163086	51848.484375
1589.121094	52401.265625
1588.079102	51923.265625
1587.036133	52289.332031
1585.994141	52226.402344
1584.951172	51695.082031
1583.908203	52240.394531
1582.865234	51730.222656
1581.822266	51592.894531
1580.778320	51979.578125
1579.734375	51809.652344
1578.691406	51886.542969
1577.646484	51886.597656
1576.602539	51614.382813
1575.558594	52303.167969
1574.513672	51886.746094
1573.468750	52291.484375
1572.423828	52279.828125
1571.378906	52077.527344
1570.333008	52017.089844
1569.288086	52168.175781
1568.242188	52128.656250
1567.196289	51928.839844
1566.150391	51482.863281
1565.103516	51313.417969
1564.057617	51125.457031
1563.010742	50865.589844
1561.963867	50756.695313
1560.916992	50803.332031
1559.869141	50545.976563
1558.822266	50720.230469
1557.774414	50346.996094
1556.726563	50333.367188
1555.678711	50700.019531
1554.630859	49907.359375
1553.582031	49974.937500
1552.534180	49952.105469
1551.485352	50017.332031
1550.436523	50409.187500
1549.386719	50043.472656
1548.337891	49779.785156
1547.288086	49460.617188
1546.238281	50000.449219
1545.188477	49748.476563
1544.138672	49373.937500
1543.088867	49996.785156
1542.038086	49580.691406
1540.987305	49786.937500
1539.936523	49357.152344
1538.885742	49743.707031
1537.834961	49499.019531
1536.783203	48983.988281
1535.731445	49120.820313
1534.679688	48938.750000
1533.627930	49165.628906
1532.576172	48690.285156
1531.523438	48616.917969
1530.471680	48291.910156
1529.418945	48410.238281
1528.366211	48154.625000
1527.312500	48367.542969
1526.259766	48342.738281
1525.206055	48098.800781
1524.152344	48097.117188
1523.098633	48296.046875
1522.044922	48086.824219
1520.990234	48011.371094
1519.936523	47912.898438
1518.881836	48164.710938
1517.827148	47789.773438
1516.772461	47960.894531
1515.716797	47786.488281
1514.662109	48277.613281
1513.606445	47836.152344
1512.550781	47719.402344
1511.495117	47503.730469
1510.438477	47561.957031
1509.382813	47891.632813
1508.326172	47213.703125
1507.269531	47559.414063
1506.212891	47624.480469
1505.155273	47910.218750
1504.098633	47469.511719
1503.041016	47713.804688
1501.983398	47781.085938
1500.925781	47731.175781
1499.867188	47504.421875
1498.809570	47562.511719
1497.750977	47386.378906
1496.692383	47444.464844
1495.633789	47328.085938
1494.575195	47445.824219
1493.515625	47834.261719
1492.457031	47593.992188
1491.397461	47078.578125
1490.337891	47636.562500
1489.277344	47591.339844
1488.217773	47541.546875
1487.157227	47239.656250
1486.096680	47519.925781
1485.036133	47745.101563
1483.975586	47743.417969
1482.915039	47565.375000
1481.853516	47341.593750
1480.791992	47635.320313
1479.730469	47642.804688
1478.668945	47361.906250
1477.606445	47293.921875
1476.544922	47438.726563
1475.482422	47775.621094
1474.419922	47641.265625
1473.357422	47278.296875
1472.293945	47500.722656
1471.231445	47451.058594
1470.167969	47170.582031
1469.104492	47303.789063
1468.041016	47877.871094
1466.976563	47665.992188
1465.913086	48198.687500
1464.848633	48048.472656
1463.784180	48026.152344
1462.719727	48309.699219
1461.655273	48077.378906
1460.589844	47975.199219
1459.524414	48153.656250
1458.458984	48277.304688
1457.393555	48670.003906
1456.328125	47881.480469
1455.261719	47968.632813
1454.196289	48124.125000
1453.129883	48277.281250
1452.063477	47897.230469
1450.996094	48417.132813
1449.929688	48818.406250
1448.862305	48600.136719
1447.794922	48957.972656
1446.727539	48523.496094
1445.660156	48619.476563
1444.591797	48594.812500
1443.524414	48606.558594
1442.456055	49043.679688
1441.387695	49109.921875
1440.318359	49180.687500
1439.250000	49492.417969
1438.180664	49885.867188
1437.111328	50001.898438
1436.041992	50072.445313
1434.972656	50297.453125
1433.903320	50779.050781
1432.833008	50785.824219
1431.762695	50660.890625
1430.692383	50429.296875
1429.622070	50715.312500
1428.550781	50540.527344
1427.480469	51414.093750
1426.409180	50833.156250
1425.337891	50896.601563
1424.266602	50851.164063
1423.194336	50504.175781
1422.122070	50558.570313
1421.050781	50866.796875
1419.978516	50581.175781
1418.905273	50640.050781
1417.833008	50422.527344
1416.759766	50259.441406
1415.687500	50060.175781
1414.614258	50094.187500
1413.540039	50279.859375
1412.466797	50232.335938
1411.392578	49929.117188
1410.319336	50234.621094
1409.245117	50051.398438
1408.169922	50309.269531
1407.095703	50184.890625
1406.020508	50372.554688
1404.946289	50180.390625
1403.871094	50686.652344
1402.794922	51131.722656
1401.719727	50912.406250
1400.643555	50860.320313
1399.568359	51246.390625
1398.492188	50333.949219
1397.415039	50704.167969
1396.338867	50584.433594
1395.261719	51040.226563
1394.185547	51128.058594
1393.108398	51520.421875
1392.031250	51524.675781
1390.953125	51251.535156
1389.875977	51724.828125
1388.797852	52290.375000
1387.719727	52337.304688
1386.641602	52699.714844
1385.562500	53107.054688
1384.484375	52978.089844
1383.405273	53040.617188
1382.326172	52949.988281
1381.247070	53183.613281
1380.166992	53050.214844
1379.087891	53517.808594
1378.007813	53823.207031
1376.927734	53561.511719
1375.847656	53329.156250
1374.767578	52865.222656
1373.686523	52608.332031
1372.605469	53048.507813
1371.524414	52517.429688
1370.443359	52015.761719
1369.362305	52244.570313
1368.280273	51583.613281
1367.199219	51531.632813
1366.117188	51405.554688
1365.034180	50482.378906
1363.952148	50877.382813
1362.870117	50441.722656
1361.787109	50749.058594
1360.704102	50311.332031
1359.621094	49626.980469
1358.537109	50084.574219
1357.454102	49817.636719
1356.370117	49770.527344
1355.286133	50084.367188
1354.202148	49815.324219
1353.118164	49613.609375
1352.033203	49313.375000
1350.948242	49474.726563
1349.863281	49414.281250
1348.778320	49351.617188
1347.693359	49183.738281
1346.607422	48671.179688
1345.521484	48881.730469
1344.435547	48906.472656
1343.349609	48732.074219
1342.263672	49000.656250
1341.176758	49210.988281
1340.090820	48779.468750
1339.003906	48732.652344
1337.916016	48659.023438
1336.829102	48907.250000
1335.741211	48824.675781
1334.654297	48876.175781
1333.566406	49177.835938
1332.478516	48443.117188
1331.389648	48990.363281
1330.301758	48845.328125
1329.212891	49267.296875
1328.124023	49079.859375
1327.035156	48943.800781
1325.945313	49207.125000
1324.856445	48852.503906
1323.766602	49024.312500
1322.676758	49200.515625
1321.586914	49476.968750
1320.496094	48977.667969
1319.406250	49488.050781
1318.315430	49236.242188
1317.224609	48728.335938
1316.133789	49227.343750
1315.041992	49242.937500
1313.951172	49049.234375
1312.859375	49487.804688
1311.767578	49236.253906
1310.675781	49145.011719
1309.583008	49189.519531
1308.491211	49578.796875
1307.398438	49314.062500
1306.305664	49545.292969
1305.212891	49480.750000
1304.119141	49500.691406
1303.026367	49565.074219
1301.932617	49442.781250
1300.838867	49573.796875
1299.744141	49773.621094
1298.650391	50004.460938
1297.555664	50046.480469
1296.461914	50095.140625
1295.366211	50183.738281
1294.271484	50505.316406
1293.176758	50449.578125
1292.081055	50717.746094
1290.985352	50615.406250
1289.889648	50914.488281
1288.793945	50639.203125
1287.697266	50789.644531
1286.601563	51223.726563
1285.504883	50405.601563
1284.408203	50952.593750
1283.311523	50969.945313
1282.213867	50247.539063
1281.116211	50256.152344
1280.018555	50433.023438
1278.920898	49806.289063
1277.823242	50248.757813
1276.725586	49560.320313
1275.626953	50197.363281
1274.528320	49710.472656
1273.429688	49515.687500
1272.330078	49517.765625
1271.231445	49347.402344
1270.131836	49004.687500
1269.032227	49059.890625
1267.932617	48969.242188
1266.833008	49070.824219
1265.732422	48810.125000
1264.632813	48556.140625
1263.532227	48664.359375
1262.430664	48364.132813
1261.330078	47960.269531
1260.228516	48359.832031
1259.127930	48443.726563
1258.026367	47640.781250
1256.924805	47927.687500
1255.822266	47718.320313
1254.720703	47797.855469
1253.618164	47068.343750
1252.515625	47892.917969
1251.413086	47677.089844
1250.309570	47589.121094
1249.207031	47446.113281
1248.103516	47153.394531
1247.000000	47226.308594
1245.895508	47235.351563
1244.791992	47363.250000
1243.687500	47471.296875
1242.583008	47220.632813
1241.478516	47170.261719
1240.374023	47617.015625
1239.269531	46675.906250
1238.164063	47098.398438
1237.058594	46896.386719
1235.953125	47015.351563
1234.847656	47002.417969
1233.741211	47428.929688
1232.635742	46943.609375
1231.529297	46979.007813
1230.422852	46522.488281
1229.315430	47049.765625
1228.208984	46916.093750
1227.101563	46578.347656
1225.994141	46848.574219
1224.886719	46611.882813
1223.779297	46348.953125
1222.670898	46763.824219
1221.562500	46786.023438
1220.454102	46540.738281
1219.345703	46793.128906
1218.237305	46346.300781
1217.127930	46653.410156
1216.018555	46160.757813
1214.909180	46246.554688
1213.799805	46450.578125
1212.690430	46400.531250
1211.580078	46652.613281
1210.469727	46624.429688
1209.359375	46963.910156
1208.249023	46649.042969
1207.138672	46299.289063
1206.027344	46846.425781
1204.916016	46743.871094
1203.804688	46169.078125
1202.693359	46739.984375
1201.581055	46250.636719
1200.469727	47203.734375
1199.357422	46766.914063
1198.245117	46996.507813
1197.131836	47204.179688
1196.019531	47368.097656
1194.906250	47614.921875
1193.792969	47329.031250
1192.679688	47927.144531
1191.566406	47914.054688
1190.452148	48020.960938
1189.337891	48193.265625
1188.223633	48258.644531
1187.109375	48036.167969
1185.995117	47805.054688
1184.879883	47571.839844
1183.764648	48055.699219
1182.649414	47959.792969
1181.534180	47691.816406
1180.418945	47480.566406
1179.302734	47822.527344
1178.186523	47522.058594
1177.070313	47635.308594
1175.954102	47467.742188
1174.837891	46997.757813
1173.720703	47187.187500
1172.603516	47520.117188
1171.486328	47098.218750
1170.369141	46865.660156
