#Wave		#Intensity
2001.221680	40943.914063
2000.251953	41297.332031
1999.282227	41430.464844
1998.312500	41200.230469
1997.342773	41140.425781
1996.372070	41353.664063
1995.402344	40670.273438
1994.431641	41133.906250
1993.460938	41459.683594
1992.490234	41397.375000
1991.518555	41340.093750
1990.547852	41475.496094
1989.576172	41368.187500
1988.604492	41298.429688
1987.632813	41458.773438
1986.661133	41269.000000
1985.689453	41331.792969
1984.716797	41657.007813
1983.745117	41632.234375
1982.772461	41824.855469
1981.799805	41457.804688
1980.827148	41602.925781
1979.853516	41535.718750
1978.880859	41663.292969
1977.907227	41718.425781
1976.933594	41593.820313
1975.959961	41910.980469
1974.986328	41399.632813
1974.011719	41689.269531
1973.038086	42387.863281
1972.063477	42046.277344
1971.088867	41869.375000
1970.114258	41829.648438
1969.138672	41583.050781
1968.164063	42291.015625
1967.188477	41982.128906
1966.212891	42126.753906
1965.237305	42333.593750
1964.261719	41922.753906
1963.286133	42405.937500
1962.309570	42781.902344
1961.333984	42729.617188
1960.357422	42184.601563
1959.380859	42159.804688
1958.404297	42488.277344
1957.426758	42928.562500
1956.450195	42911.105469
1955.472656	42331.714844
1954.495117	42600.253906
1953.517578	42950.726563
1952.540039	42900.960938
1951.561523	42955.574219
1950.583008	43151.765625
1949.605469	43067.355469
1948.626953	42982.859375
1947.647461	42898.281250
1946.668945	42813.789063
1945.690430	42729.292969
1944.710938	43376.972656
1943.731445	42813.582031
1942.751953	43540.402344
1941.772461	43589.828125
1940.791992	43956.664063
1939.812500	43775.406250
1938.832031	43601.644531
1937.851563	43256.914063
1936.871094	43526.898438
1935.890625	43615.906250
1934.909180	43424.949219
1933.928711	43858.226563
1932.947266	43610.332031
1931.965820	44120.179688
1930.984375	43394.531250
1930.002930	44047.796875
1929.020508	43866.847656
1928.038086	43619.156250
1927.056641	43876.218750
1926.074219	43480.203125
1925.090820	44038.898438
1924.108398	43949.585938
1923.125000	43600.734375
1922.142578	43818.015625
1921.159180	43649.703125
1920.175781	44002.792969
1919.191406	44079.074219
1918.208008	44103.457031
1917.223633	43947.554688
1916.240234	44243.550781
1915.255859	44349.351563
1914.271484	44198.417969
1913.286133	43768.679688
1912.301758	43899.175781
1911.316406	43462.234375
1910.331055	43942.976563
1909.345703	43668.937500
1908.360352	44188.921875
1907.375000	43707.855469
1906.388672	43714.980469
1905.402344	44173.070313
1904.416016	43916.468750
1903.429688	44246.257813
1902.443359	43967.562500
1901.457031	44036.191406
1900.469727	43971.835938
1899.482422	43966.582031
1898.495117	43944.101563
1897.507813	43862.562500
1896.520508	44371.558594
1895.532227	44063.652344
1894.543945	44112.488281
1893.556641	44072.777344
1892.568359	44133.886719
1891.579102	43799.187500
1890.590820	44260.949219
1889.601563	43859.992188
1888.613281	43766.300781
1887.624023	44149.207031
1886.634766	43719.003906
1885.644531	44126.339844
1884.655273	44101.406250
1883.665039	44444.703125
1882.674805	44274.906250
1881.684570	44051.183594
1880.694336	44217.648438
1879.704102	44104.398438
1878.712891	44059.863281
1877.722656	43534.699219
1876.731445	44147.363281
1875.740234	44311.203125
1874.748047	43955.382813
1873.756836	43937.859375
1872.764648	44256.003906
1871.773438	44062.054688
1870.781250	44240.453125
1869.788086	44514.289063
1868.795898	44278.769531
1867.803711	44070.257813
1866.810547	44045.378906
1865.817383	44314.160156
1864.824219	44188.929688
1863.831055	44171.378906
1862.837891	44982.953125
1861.843750	44547.109375
1860.849609	44617.515625
1859.855469	44546.113281
1858.861328	44350.089844
1857.867188	44369.171875
1856.872070	44762.058594
1855.877930	44930.066406
1854.882813	44887.972656
1853.887695	44684.722656
1852.892578	44774.527344
1851.896484	44754.445313
1850.901367	44522.035156
1849.905273	44850.953125
1848.909180	44804.027344
1847.913086	44998.609375
1846.916992	45122.394531
1845.919922	45075.441406
1844.923828	44531.136719
1843.926758	45376.472656
1842.929688	45034.593750
1841.932617	44848.785156
1840.935547	45333.031250
1839.937500	45327.492188
1838.939453	45336.562500
1837.942383	45951.957031
1836.943359	45512.937500
1835.945313	45334.535156
1834.947266	45290.046875
1833.948242	45793.078125
1832.949219	45794.746094
1831.951172	45319.648438
1830.951172	45581.625000
1829.952148	45770.562500
1828.953125	45667.687500
1827.953125	45834.660156
1826.953125	45768.257813
1825.953125	46231.601563
1824.953125	45742.421875
1823.952148	45632.343750
1822.952148	46170.750000
1821.951172	45990.214844
1820.950195	46290.441406
1819.949219	46173.054688
1818.948242	45786.320313
1817.946289	46292.671875
1816.945313	46430.078125
1815.943359	45958.601563
1814.941406	45887.445313
1813.939453	46197.007813
1812.936523	46159.773438
1811.934570	46529.769531
1810.931641	46686.367188
1809.928711	46324.371094
1808.925781	46861.300781
1807.921875	46698.019531
1806.918945	46924.699219
1805.915039	47257.839844
1804.912109	46583.750000
1803.908203	46861.160156
1802.903320	46753.671875
1801.899414	46905.125000
1800.894531	46819.437500
1799.890625	47253.824219
1798.885742	47126.992188
1797.880859	47138.023438
1796.875000	47378.714844
1795.870117	47288.175781
1794.864258	47478.000000
1793.858398	47633.929688
1792.852539	47640.023438
1791.846680	48711.300781
1790.840820	47698.078125
1789.833984	47960.093750
1788.828125	47625.722656
1787.821289	48056.613281
1786.814453	48265.324219
1785.806641	47788.718750
1784.799805	48291.714844
1783.791992	48630.519531
1782.784180	48539.941406
1781.776367	48461.449219
1780.768555	48614.414063
1779.760742	48789.015625
1778.751953	48833.417969
1777.743164	48945.269531
1776.735352	49069.121094
1775.725586	48703.988281
1774.716797	49198.691406
1773.708008	48848.105469
1772.698242	49075.398438
1771.688477	49201.515625
1770.678711	49522.511719
1769.668945	49400.679688
1768.659180	49367.898438
1767.648438	49599.695313
1766.637695	49610.171875
1765.626953	49235.949219
1764.616211	49542.164063
1763.605469	49946.808594
1762.593750	49952.402344
1761.583008	50006.046875
1760.571289	50439.214844
1759.559570	50562.402344
1758.547852	49984.343750
1757.535156	50400.476563
1756.523438	50456.382813
1755.510742	50293.855469
1754.498047	50563.328125
1753.485352	50616.769531
1752.472656	50787.734375
1751.458984	51268.027344
1750.445313	50731.410156
1749.432617	51055.699219
1748.417969	51214.468750
1747.404297	51241.363281
1746.390625	51634.878906
1745.375977	51374.183594
1744.361328	51578.289063
1743.346680	51937.996094
1742.332031	52517.875000
1741.317383	52489.433594
1740.302734	52855.964844
1739.287109	53023.718750
1738.271484	53023.910156
1737.255859	53579.152344
1736.240234	53555.320313
1735.223633	54182.011719
1734.208008	54935.214844
1733.191406	54927.886719
1732.174805	55482.285156
1731.158203	55486.804688
1730.140625	56134.097656
1729.124023	55940.203125
1728.106445	56637.343750
1727.088867	57405.882813
1726.071289	57312.148438
1725.053711	58003.890625
1724.035156	58048.523438
1723.017578	58821.031250
1721.999023	58273.738281
1720.980469	58618.890625
1719.961914	59307.394531
1718.942383	59153.800781
1717.923828	59229.164063
1716.904297	59395.089844
1715.884766	59775.480469
1714.865234	59471.761719
1713.844727	60261.828125
1712.825195	60105.832031
1711.804688	60219.042969
1710.784180	59372.480469
1709.763672	59854.835938
1708.743164	59775.195313
1707.722656	59398.050781
1706.701172	59504.136719
1705.679688	59291.343750
1704.658203	58450.585938
1703.636719	58635.265625
1702.615234	59321.656250
1701.592773	58816.585938
1700.571289	58435.308594
1699.548828	58315.617188
1698.526367	58474.003906
1697.502930	58542.046875
1696.480469	58341.621094
1695.457031	57896.625000
1694.433594	58050.214844
1693.410156	57714.640625
1692.386719	58164.941406
1691.363281	58256.687500
1690.338867	57605.632813
1689.314453	57984.527344
1688.290039	58116.574219
1687.265625	58537.929688
1686.241211	58325.980469
1685.215820	58320.375000
1684.191406	58118.015625
1683.166016	58408.707031
1682.140625	58147.160156
1681.115234	58364.292969
1680.088867	58448.687500
1679.062500	58362.527344
1678.037109	58884.968750
1677.010742	58488.605469
1675.983398	59275.957031
1674.957031	59121.066406
1673.930664	59266.746094
1672.903320	59092.980469
1671.875977	59829.980469
1670.848633	59563.933594
1669.820313	59137.183594
1668.792969	59876.140625
1667.764648	60082.976563
1666.736328	60268.468750
1665.708008	60066.367188
1664.679688	60490.410156
1663.651367	60430.062500
1662.622070	61052.265625
1661.592773	60781.679688
1660.563477	61816.746094
1659.534180	61706.625000
1658.504883	61214.218750
1657.474609	61835.718750
1656.444336	61312.789063
1655.415039	62207.664063
1654.383789	62371.128906
1653.353516	62475.582031
1652.323242	62749.738281
1651.291992	62674.949219
1650.260742	63050.304688
1649.229492	62718.648438
1648.198242	63169.242188
1647.166016	63325.250000
1646.134766	63497.683594
1645.102539	63893.738281
1644.070313	64061.292969
1643.038086	64292.339844
1642.004883	64285.617188
1640.972656	65368.285156
1639.939453	65319.023438
1638.906250	64992.230469
1637.873047	65519.199219
1636.839844	66057.734375
1635.805664	67045.078125
1634.772461	66666.492188
1633.738281	67336.132813
1632.704102	68167.640625
1631.668945	69022.351563
1630.634766	68716.476563
1629.599609	69758.640625
1628.565430	70335.546875
1627.530273	70994.414063
1626.494141	71484.046875
1625.458984	72299.687500
1624.422852	73363.734375
1623.387695	74844.945313
1622.351563	76105.171875
1621.315430	77226.585938
1620.278320	78842.296875
1619.242188	80464.460938
1618.205078	82791.500000
1617.167969	84857.609375
1616.130859	88757.445313
1615.093750	91116.890625
1614.055664	93623.046875
1613.018555	95456.257813
1611.980469	97562.734375
1610.942383	98476.992188
1609.904297	98908.804688
1608.865234	98214.945313
1607.827148	97862.898438
1606.788086	95211.617188
1605.749023	93632.406250
1604.709961	91464.500000
1603.669922	88869.531250
1602.630859	87430.187500
1601.590820	85332.312500
1600.550781	84060.000000
1599.510742	83671.234375
1598.470703	81965.210938
1597.429688	81418.140625
1596.389648	81233.179688
1595.348633	80653.742188
1594.307617	80307.921875
1593.265625	80029.898438
1592.224609	79854.632813
1591.182617	79355.164063
1590.140625	79014.468750
1589.098633	78592.273438
1588.056641	78275.148438
1587.014648	78345.117188
1585.971680	77613.265625
1584.928711	77627.390625
1583.886719	77541.312500
1582.842773	77646.296875
1581.799805	77273.757813
1580.755859	77350.796875
1579.712891	77548.875000
1578.668945	78105.375000
1577.625000	78033.257813
1576.580078	78247.390625
1575.536133	78210.164063
1574.491211	79245.335938
1573.446289	79649.843750
1572.401367	79558.890625
1571.356445	79921.343750
1570.311523	80020.984375
1569.265625	80327.437500
1568.219727	79927.359375
1567.173828	79418.226563
1566.127930	79199.632813
1565.082031	78748.867188
1564.035156	78147.328125
1562.988281	78230.882813
1561.941406	77501.968750
1560.894531	77460.281250
1559.847656	76817.617188
1558.799805	77258.625000
1557.751953	76493.281250
1556.704102	76855.328125
1555.656250	76398.718750
1554.608398	76783.828125
1553.560547	76737.664063
1552.511719	76473.664063
1551.462891	77055.500000
1550.414063	76277.226563
1549.365234	76175.578125
1548.315430	76745.570313
1547.265625	77058.335938
1546.216797	76206.523438
1545.166992	76271.601563
1544.116211	76359.796875
1543.066406	76628.437500
1542.015625	76617.054688
1540.965820	76753.703125
1539.915039	76409.289063
1538.863281	76425.695313
1537.812500	76056.023438
1536.760742	75633.320313
1535.709961	75439.554688
1534.658203	74929.304688
1533.605469	75151.539063
1532.553711	74593.023438
1531.501953	73843.031250
1530.449219	73906.015625
1529.396484	73394.179688
1528.343750	73778.031250
1527.290039	72347.968750
1526.237305	72925.671875
1525.183594	72608.132813
1524.129883	72200.750000
1523.076172	71991.828125
1522.022461	72181.835938
1520.968750	71661.796875
1519.914063	71464.601563
1518.859375	71161.468750
1517.804688	71333.046875
1516.750000	71645.070313
1515.694336	71270.671875
1514.639648	70700.671875
1513.583984	71037.960938
1512.528320	70937.773438
1511.472656	70361.226563
1510.416016	70716.789063
1509.360352	70630.515625
1508.303711	70801.882813
1507.247070	70812.203125
1506.190430	69884.382813
1505.132813	70285.679688
1504.076172	70576.500000
1503.018555	70439.757813
1501.960938	70355.914063
1500.903320	70609.804688
1499.844727	69733.523438
1498.787109	69482.203125
1497.728516	70215.976563
1496.669922	69946.289063
1495.611328	69410.437500
1494.552734	69145.570313
1493.493164	69006.992188
1492.434570	68462.414063
1491.375000	68418.039063
1490.315430	68068.679688
1489.254883	68139.023438
1488.195313	68058.039063
1487.134766	67601.203125
1486.074219	67939.687500
1485.013672	67748.804688
1483.953125	67990.929688
1482.892578	67630.617188
1481.831055	67920.757813
1480.769531	67599.500000
1479.708008	67399.671875
1478.646484	67724.023438
1477.583984	68041.390625
1476.522461	67905.640625
1475.459961	67776.804688
1474.397461	68016.218750
1473.334961	67958.289063
1472.271484	67776.921875
1471.208984	67968.203125
1470.145508	67377.804688
1469.082031	67733.601563
1468.018555	67712.304688
1466.954102	68081.617188
1465.890625	67761.093750
1464.826172	67760.351563
1463.761719	68079.218750
1462.697266	68178.843750
1461.631836	67673.671875
1460.567383	67983.242188
1459.501953	68269.890625
1458.436523	67751.281250
1457.371094	68359.406250
1456.305664	67902.523438
1455.239258	67600.820313
1454.172852	67675.289063
1453.107422	67262.070313
1452.040039	67329.734375
1450.973633	67185.515625
1449.907227	66959.359375
1448.839844	67343.570313
1447.772461	67217.632813
1446.705078	66943.773438
1445.637695	67575.851563
1444.569336	67957.382813
1443.500977	68063.484375
1442.432617	68096.750000
1441.364258	67625.101563
1440.295898	67692.539063
1439.227539	68214.656250
1438.158203	68686.570313
1437.088867	68601.500000
1436.019531	68268.781250
1434.950195	69228.875000
1433.879883	69089.234375
1432.810547	68729.343750
1431.740234	69759.218750
1430.669922	69794.359375
1429.598633	69899.843750
1428.528320	70152.796875
1427.457031	71165.789063
1426.386719	71339.015625
1425.314453	71509.914063
1424.243164	71862.171875
1423.171875	72155.351563
1422.099609	71822.726563
1421.027344	72111.265625
1419.955078	72404.226563
1418.882813	72744.664063
1417.810547	72772.359375
1416.737305	72471.617188
1415.664063	72218.539063
1414.590820	71739.132813
1413.517578	71662.843750
1412.444336	71887.593750
1411.370117	70763.570313
1410.295898	70696.539063
1409.221680	70595.593750
1408.147461	69938.304688
1407.073242	69586.523438
1405.998047	69078.867188
1404.922852	69807.867188
1403.847656	69298.085938
1402.772461	69127.437500
1401.697266	69302.507813
1400.621094	69581.421875
1399.544922	69379.187500
1398.468750	69527.015625
1397.392578	69889.257813
1396.316406	70273.945313
1395.239258	71410.007813
1394.162109	71451.296875
1393.084961	72780.750000
1392.007813	73651.828125
1390.930664	74398.562500
1389.852539	75494.507813
1388.774414	75649.992188
1387.696289	76181.820313
1386.618164	76400.210938
1385.540039	76345.890625
1384.460938	75906.359375
1383.382813	75771.054688
1382.303711	75804.695313
1381.223633	75869.835938
1380.144531	75966.468750
1379.064453	75495.875000
1377.985352	75209.976563
1376.905273	75398.914063
1375.825195	75592.273438
1374.744141	75245.781250
1373.664063	74984.859375
1372.583008	74535.171875
1371.501953	74499.250000
1370.420898	74218.367188
1369.338867	74083.640625
1368.257813	74299.445313
1367.175781	74481.468750
1366.093750	75285.523438
1365.011719	75029.437500
1363.929688	75682.679688
1362.846680	76205.500000
1361.763672	76676.500000
1360.680664	77223.625000
1359.597656	77577.617188
1358.514648	77570.343750
1357.430664	77251.351563
1356.346680	76986.289063
1355.262695	76353.656250
1354.178711	75745.898438
1353.094727	75317.648438
1352.009766	74342.835938
1350.925781	73637.203125
1349.840820	72607.046875
1348.755859	72258.031250
1347.669922	71933.765625
1346.584961	71343.226563
1345.499023	70970.007813
1344.413086	70399.984375
1343.327148	70261.984375
1342.240234	70649.710938
1341.154297	69816.132813
1340.067383	70018.195313
1338.980469	69428.726563
1337.893555	69367.007813
1336.805664	70105.414063
1335.718750	69326.304688
1334.630859	70010.828125
1333.542969	69819.484375
1332.455078	70132.929688
1331.367188	69615.617188
1330.278320	70208.054688
1329.189453	70597.140625
1328.100586	70512.968750
1327.011719	70866.164063
1325.922852	71187.984375
1324.833008	72270.289063
1323.743164	72799.140625
1322.653320	73842.851563
1321.563477	74522.812500
1320.473633	76410.578125
1319.382813	77537.742188
1318.291992	79188.093750
1317.201172	81490.554688
1316.110352	82905.726563
1315.019531	84681.140625
1313.927734	85400.554688
1312.835938	85890.429688
1311.744141	86502.531250
1310.652344	85975.070313
1309.560547	85122.968750
1308.467773	83850.757813
1307.375000	82336.578125
1306.282227	81363.289063
1305.189453	79745.601563
1304.095703	78688.664063
1303.002930	77074.265625
1301.909180	76747.007813
1300.815430	76344.328125
1299.721680	75501.992188
1298.626953	74846.507813
1297.533203	75072.765625
1296.438477	75480.976563
1295.343750	75112.171875
1294.248047	75278.335938
1293.153320	75395.617188
1292.057617	75517.289063
1290.961914	75712.109375
1289.866211	75529.859375
1288.770508	76048.312500
1287.674805	76211.882813
1286.578125	76275.656250
1285.481445	76020.289063
1284.384766	76236.945313
1283.288086	75972.820313
1282.190430	75841.671875
1281.092773	75347.406250
1279.996094	75322.679688
1278.897461	75576.882813
1277.799805	74553.960938
1276.702148	74898.929688
1275.603516	74146.414063
1274.504883	73615.367188
1273.406250	73849.726563
1272.307617	73862.875000
1271.208008	73526.710938
1270.108398	72982.882813
1269.008789	72545.335938
1267.909180	72510.085938
1266.809570	72912.265625
1265.708984	71624.570313
1264.609375	72455.195313
1263.508789	71912.132813
1262.407227	72084.531250
1261.306641	71663.125000
1260.206055	71581.718750
1259.104492	71094.359375
1258.002930	70792.484375
1256.901367	70420.125000
1255.798828	70804.289063
1254.697266	70279.929688
1253.594727	70179.007813
1252.492188	70349.203125
1251.389648	70109.468750
1250.286133	70002.007813
1249.183594	69480.460938
1248.080078	69397.375000
1246.976563	69483.867188
1245.872070	69504.281250
1244.768555	68998.593750
1243.664063	69155.531250
1242.560547	69457.632813
1241.455078	68842.226563
1240.350586	69199.257813
1239.246094	69444.000000
1238.140625	69448.984375
1237.035156	69704.578125
1235.929688	69731.476563
1234.824219	69815.507813
1233.717773	69677.593750
1232.612305	69961.500000
1231.505859	69654.476563
1230.399414	69187.250000
1229.291992	68990.250000
1228.185547	69311.390625
1227.078125	68883.976563
1225.970703	68649.828125
1224.863281	67483.304688
1223.755859	67681.625000
1222.647461	67504.835938
1221.539063	67678.960938
1220.430664	66809.421875
1219.322266	66724.945313
1218.213867	66184.640625
1217.104492	66244.914063
1215.995117	66278.882813
1214.885742	66420.164063
1213.776367	66184.703125
1212.666992	66183.617188
1211.556641	66024.906250
1210.446289	65603.585938
1209.335938	66154.085938
1208.225586	66413.367188
1207.115234	65867.507813
1206.003906	66732.609375
1204.892578	66635.179688
1203.781250	66857.007813
1202.669922	67076.570313
1201.557617	66863.289063
1200.446289	67154.867188
1199.333984	67723.820313
1198.221680	67694.023438
1197.108398	67696.992188
1195.996094	68416.203125
1194.882813	68091.539063
1193.769531	69074.539063
1192.656250	68335.203125
1191.542969	68885.734375
1190.428711	68454.312500
1189.314453	68140.835938
1188.200195	67653.000000
1187.085938	67544.742188
1185.971680	67379.835938
1184.856445	66959.968750
1183.741211	67037.125000
1182.625977	67282.023438
1181.510742	68032.250000
1180.395508	67431.773438
1179.279297	67273.578125
1178.163086	67742.515625
1177.046875	67418.875000
1175.930664	67350.000000
1174.813477	67204.992188
1173.697266	66979.523438
1172.580078	66575.765625
1171.462891	66507.085938
1170.344727	66862.460938
