#Wave		#Intensity
2001.221680	44392.875000
2000.251953	43846.457031
1999.282227	44355.054688
1998.312500	44369.863281
1997.342773	44442.281250
1996.372070	44028.753906
1995.402344	44033.585938
1994.431641	44073.472656
1993.460938	43752.843750
1992.490234	43757.718750
1991.518555	43700.027344
1990.547852	43302.062500
1989.576172	43872.390625
1988.604492	43617.105469
1987.632813	43529.460938
1986.661133	43741.890625
1985.689453	43884.246094
1984.716797	43676.621094
1983.745117	43436.574219
1982.772461	43926.214844
1981.799805	43451.375000
1980.827148	43331.386719
1979.853516	43321.316406
1978.880859	43251.324219
1977.907227	43126.429688
1976.933594	43430.898438
1975.959961	43495.679688
1974.986328	43325.894531
1974.011719	43383.183594
1973.038086	43353.152344
1972.063477	43497.699219
1971.088867	44170.796875
1970.114258	43265.601563
1969.138672	43277.980469
1968.164063	43549.527344
1967.188477	43781.113281
1966.212891	43619.003906
1965.237305	43429.546875
1964.261719	43431.914063
1963.286133	43242.554688
1962.309570	43757.785156
1961.333984	43399.175781
1960.357422	43523.480469
1959.380859	43981.156250
1958.404297	43684.886719
1957.426758	43649.882813
1956.450195	43893.421875
1955.472656	43609.746094
1954.495117	43681.667969
1953.517578	43887.785156
1952.540039	43621.652344
1951.561523	44317.191406
1950.583008	43670.976563
1949.605469	43367.757813
1948.626953	43931.351563
1947.647461	43960.906250
1946.668945	44010.312500
1945.690430	43940.554688
1944.710938	43684.699219
1943.731445	44128.632813
1942.751953	43716.539063
1941.772461	43947.000000
1940.791992	43802.910156
1939.812500	44216.753906
1938.832031	44075.144531
1937.851563	44265.714844
1936.871094	44101.835938
1935.890625	43779.441406
1934.909180	43883.250000
1933.928711	43828.503906
1932.947266	44083.332031
1931.965820	44167.222656
1930.984375	43892.125000
1930.002930	44151.750000
1929.020508	44074.722656
1928.038086	43586.992188
1927.056641	43935.589844
1926.074219	43806.695313
1925.090820	44100.722656
1924.108398	44122.664063
1923.125000	43793.558594
1922.142578	43758.695313
1921.159180	44215.621094
1920.175781	43417.210938
1919.191406	43935.792969
1918.208008	43737.906250
1917.223633	43727.769531
1916.240234	44189.230469
1915.255859	43458.167969
1914.271484	43944.191406
1913.286133	44301.718750
1912.301758	43657.375000
1911.316406	43432.632813
1910.331055	43920.781250
1909.345703	43555.500000
1908.360352	44013.863281
1907.375000	44279.781250
1906.388672	43751.949219
1905.402344	44217.425781
1904.416016	44249.093750
1903.429688	44243.796875
1902.443359	44233.570313
1901.457031	44016.492188
1900.469727	44341.160156
1899.482422	43873.035156
1898.495117	43786.578125
1897.507813	43749.363281
1896.520508	44435.531250
1895.532227	44358.851563
1894.543945	44026.402344
1893.556641	44299.019531
1892.568359	44374.839844
1891.579102	43995.851563
1890.590820	44408.421875
1889.601563	44447.316406
1888.613281	44454.257813
1887.624023	44122.187500
1886.634766	44163.562500
1885.644531	44084.593750
1884.655273	44339.566406
1883.665039	44135.394531
1882.674805	43774.210938
1881.684570	43756.707031
1880.694336	44409.023438
1879.704102	44258.945313
1878.712891	44305.128906
1877.722656	43725.976563
1876.731445	43831.078125
1875.740234	43960.656250
1874.748047	44114.695313
1873.756836	44322.593750
1872.764648	44013.445313
1871.773438	44233.531250
1870.781250	44218.410156
1869.788086	44533.882813
1868.795898	44420.777344
1867.803711	44197.550781
1866.810547	44625.441406
1865.817383	44309.265625
1864.824219	43836.613281
1863.831055	44467.371094
1862.837891	44192.964844
1861.843750	44283.011719
1860.849609	44417.031250
1859.855469	44228.328125
1858.861328	44257.214844
1857.867188	44117.476563
1856.872070	44185.460938
1855.877930	44026.238281
1854.882813	44248.074219
1853.887695	44052.265625
1852.892578	43963.949219
1851.896484	44410.253906
1850.901367	44373.156250
1849.905273	44275.062500
1848.909180	44821.105469
1847.913086	44625.390625
1846.916992	44615.101563
1845.919922	44843.785156
1844.923828	44753.000000
1843.926758	44828.007813
1842.929688	45115.019531
1841.932617	45046.160156
1840.935547	44572.894531
1839.937500	44618.640625
1838.939453	44732.562500
1837.942383	45163.000000
1836.943359	45374.164063
1835.945313	45083.812500
1834.947266	44825.195313
1833.948242	45413.476563
1832.949219	44991.882813
1831.951172	45239.375000
1830.951172	45749.437500
1829.952148	45383.933594
1828.953125	45847.593750
1827.953125	45416.566406
1826.953125	45527.656250
1825.953125	45189.167969
1824.953125	45324.550781
1823.952148	45933.546875
1822.952148	45184.726563
1821.951172	45043.214844
1820.950195	45647.078125
1819.949219	45707.003906
1818.948242	45951.351563
1817.946289	45897.152344
1816.945313	45821.136719
1815.943359	45871.277344
1814.941406	45814.691406
1813.939453	46274.601563
1812.936523	45994.917969
1811.934570	46331.007813
1810.931641	45874.496094
1809.928711	46203.218750
1808.925781	46182.960938
1807.921875	46303.195313
1806.918945	46106.132813
1805.915039	46354.671875
1804.912109	45951.886719
1803.908203	46270.554688
1802.903320	46168.011719
1801.899414	46401.835938
1800.894531	47042.007813
1799.890625	46489.480469
1798.885742	46367.617188
1797.880859	46543.207031
1796.875000	47144.214844
1795.870117	47189.667969
1794.864258	47235.164063
1793.858398	47280.664063
1792.852539	47326.160156
1791.846680	47371.656250
1790.840820	47417.152344
1789.833984	47462.695313
1788.828125	47208.082031
1787.821289	47455.601563
1786.814453	47466.535156
1785.806641	47294.085938
1784.799805	47169.941406
1783.791992	47906.921875
1782.784180	47474.031250
1781.776367	47513.875000
1780.768555	47466.914063
1779.760742	47588.691406
1778.751953	48071.902344
1777.743164	47769.464844
1776.735352	48286.195313
1775.725586	47942.875000
1774.716797	48052.410156
1773.708008	48424.343750
1772.698242	48035.437500
1771.688477	48385.582031
1770.678711	48944.960938
1769.668945	48479.167969
1768.659180	48501.878906
1767.648438	48476.476563
1766.637695	49006.578125
1765.626953	49058.031250
1764.616211	48609.445313
1763.605469	48682.578125
1762.593750	49183.425781
1761.583008	49366.945313
1760.571289	48452.589844
1759.559570	49565.660156
1758.547852	49684.171875
1757.535156	49202.406250
1756.523438	49366.546875
1755.510742	50269.855469
1754.498047	49754.640625
1753.485352	49568.300781
1752.472656	50125.660156
1751.458984	49970.496094
1750.445313	50179.878906
1749.432617	50197.378906
1748.417969	50313.152344
1747.404297	50450.453125
1746.390625	50455.910156
1745.375977	50018.132813
1744.361328	50553.046875
1743.346680	50726.125000
1742.332031	50906.324219
1741.317383	51062.519531
1740.302734	51180.355469
1739.287109	51434.562500
1738.271484	51573.824219
1737.255859	52036.015625
1736.240234	52189.464844
1735.223633	52603.546875
1734.208008	52374.250000
1733.191406	52709.253906
1732.174805	53457.664063
1731.158203	53861.660156
1730.140625	53847.347656
1729.124023	54126.894531
1728.106445	53890.394531
1727.088867	54943.617188
1726.071289	55339.816406
1725.053711	55136.644531
1724.035156	55568.468750
1723.017578	55589.656250
1721.999023	56381.550781
1720.980469	56187.867188
1719.961914	56454.609375
1718.942383	56275.289063
1717.923828	56372.621094
1716.904297	56829.902344
1715.884766	56645.835938
1714.865234	56914.632813
1713.844727	57161.886719
1712.825195	56989.761719
1711.804688	57184.511719
1710.784180	57333.937500
1709.763672	56773.757813
1708.743164	56887.492188
1707.722656	57279.667969
1706.701172	56824.496094
1705.679688	56528.906250
1704.658203	56866.210938
1703.636719	56154.472656
1702.615234	56158.785156
1701.592773	56581.570313
1700.571289	56673.761719
1699.548828	55993.449219
1698.526367	56033.429688
1697.502930	56249.214844
1696.480469	56044.445313
1695.457031	55963.253906
1694.433594	56347.535156
1693.410156	55114.777344
1692.386719	55731.707031
1691.363281	55731.320313
1690.338867	55382.089844
1689.314453	55600.039063
1688.290039	55488.175781
1687.265625	55724.996094
1686.241211	55843.164063
1685.215820	55973.144531
1684.191406	55951.363281
1683.166016	55941.437500
1682.140625	56047.625000
1681.115234	56622.886719
1680.088867	55743.476563
1679.062500	56005.953125
1678.037109	56251.757813
1677.010742	55879.535156
1675.983398	56579.765625
1674.957031	56169.746094
1673.930664	56661.433594
1672.903320	56712.890625
1671.875977	56456.812500
1670.848633	56872.500000
1669.820313	56777.277344
1668.792969	56930.328125
1667.764648	56962.765625
1666.736328	57292.980469
1665.708008	57029.968750
1664.679688	57674.265625
1663.651367	56818.382813
1662.622070	57266.460938
1661.592773	57468.804688
1660.563477	57777.312500
1659.534180	57970.050781
1658.504883	58103.710938
1657.474609	57779.562500
1656.444336	58094.867188
1655.415039	58256.734375
1654.383789	58314.773438
1653.353516	58160.582031
1652.323242	58480.296875
1651.291992	58564.187500
1650.260742	58723.460938
1649.229492	59165.421875
1648.198242	59350.441406
1647.166016	59740.312500
1646.134766	59192.753906
1645.102539	60018.105469
1644.070313	60313.476563
1643.038086	60109.750000
1642.004883	60030.816406
1640.972656	60742.480469
1639.939453	61251.582031
1638.906250	61193.648438
1637.873047	61323.863281
1636.839844	61541.027344
1635.805664	61701.691406
1634.772461	61914.003906
1633.738281	61874.792969
1632.704102	62639.140625
1631.668945	62785.390625
1630.634766	62778.917969
1629.599609	62899.253906
1628.565430	63268.421875
1627.530273	63405.054688
1626.494141	64266.875000
1625.458984	64180.343750
1624.422852	64572.472656
1623.387695	64690.000000
1622.351563	65553.312500
1621.315430	66399.898438
1620.278320	67314.179688
1619.242188	67876.507813
1618.205078	69664.390625
1617.167969	71350.875000
1616.130859	73477.218750
1615.093750	74953.937500
1614.055664	77373.976563
1613.018555	78739.414063
1611.980469	80151.187500
1610.942383	80345.242188
1609.904297	81419.210938
1608.865234	80199.632813
1607.827148	79343.109375
1606.788086	77502.125000
1605.749023	75914.375000
1604.709961	74850.960938
1603.669922	73673.359375
1602.630859	71334.468750
1601.590820	70571.570313
1600.550781	69949.140625
1599.510742	68922.757813
1598.470703	68494.710938
1597.429688	67809.914063
1596.389648	67935.593750
1595.348633	66786.562500
1594.307617	66828.343750
1593.265625	66765.093750
1592.224609	66466.195313
1591.182617	66309.710938
1590.140625	66855.343750
1589.098633	66227.765625
1588.056641	65931.500000
1587.014648	66103.914063
1585.971680	66336.859375
1584.928711	66255.117188
1583.886719	66010.304688
1582.842773	65970.578125
1581.799805	66541.101563
1580.755859	66312.656250
1579.712891	66249.609375
1578.668945	67397.078125
1577.625000	66796.203125
1576.580078	67272.976563
1575.536133	67958.960938
1574.491211	67849.140625
1573.446289	68304.523438
1572.401367	68420.226563
1571.356445	68605.640625
1570.311523	68688.710938
1569.265625	68664.828125
1568.219727	68766.437500
1567.173828	68649.617188
1566.127930	68233.171875
1565.082031	68109.515625
1564.035156	68060.203125
1562.988281	67681.226563
1561.941406	68186.789063
1560.894531	67246.273438
1559.847656	67696.031250
1558.799805	67915.945313
1557.751953	68441.968750
1556.704102	67495.117188
1555.656250	67146.835938
1554.608398	67649.523438
1553.560547	67676.843750
1552.511719	68174.609375
1551.462891	67453.398438
1550.414063	67913.953125
1549.365234	68200.617188
1548.315430	68137.484375
1547.265625	68041.953125
1546.216797	67782.085938
1545.166992	67987.554688
1544.116211	68165.171875
1543.066406	68298.757813
1542.015625	68712.210938
1540.965820	68385.367188
1539.915039	68158.078125
1538.863281	68462.656250
1537.812500	68221.562500
1536.760742	68209.367188
1535.709961	68148.640625
1534.658203	68011.687500
1533.605469	68212.054688
1532.553711	68222.960938
1531.501953	67372.500000
1530.449219	66499.250000
1529.396484	66563.539063
1528.343750	66581.640625
1527.290039	66052.828125
1526.237305	66244.046875
1525.183594	65300.257813
1524.129883	65173.257813
1523.076172	65486.738281
1522.022461	65163.777344
1520.968750	64663.429688
1519.914063	65041.355469
1518.859375	64889.156250
1517.804688	64684.019531
1516.750000	64356.867188
1515.694336	64253.226563
1514.639648	64172.648438
1513.583984	64209.507813
1512.528320	64324.617188
1511.472656	63815.996094
1510.416016	63521.550781
1509.360352	64073.824219
1508.303711	63363.097656
1507.247070	63910.597656
1506.190430	63919.847656
1505.132813	63301.480469
1504.076172	63956.718750
1503.018555	63074.277344
1501.960938	63384.660156
1500.903320	63207.902344
1499.844727	62966.894531
1498.787109	62767.304688
1497.728516	62841.015625
1496.669922	63029.480469
1495.611328	62632.585938
1494.552734	63100.984375
1493.493164	62470.187500
1492.434570	62470.464844
1491.375000	62149.632813
1490.315430	62088.046875
1489.254883	62118.191406
1488.195313	61903.035156
1487.134766	62194.480469
1486.074219	62022.925781
1485.013672	61807.894531
1483.953125	61295.148438
1482.892578	61471.964844
1481.831055	61378.507813
1480.769531	61580.425781
1479.708008	61489.269531
1478.646484	61627.007813
1477.583984	61307.039063
1476.522461	60989.472656
1475.459961	61184.406250
1474.397461	61178.007813
1473.334961	61322.523438
1472.271484	61130.914063
1471.208984	61476.535156
1470.145508	61271.246094
1469.082031	61678.406250
1468.018555	61534.835938
1466.954102	61421.007813
1465.890625	61766.253906
1464.826172	62024.605469
1463.761719	62262.312500
1462.697266	61865.394531
1461.631836	62383.742188
1460.567383	62292.683594
1459.501953	62589.476563
1458.436523	62343.312500
1457.371094	62238.621094
1456.305664	62669.781250
1455.239258	62476.160156
1454.172852	62193.710938
1453.107422	62544.878906
1452.040039	62761.492188
1450.973633	62526.976563
1449.907227	62531.691406
1448.839844	62468.085938
1447.772461	62022.000000
1446.705078	62600.445313
1445.637695	62682.515625
1444.569336	62680.355469
1443.500977	63096.828125
1442.432617	63208.328125
1441.364258	63542.671875
1440.295898	63237.917969
1439.227539	63369.785156
1438.158203	63715.277344
1437.088867	63494.742188
1436.019531	63969.601563
1434.950195	64046.707031
1433.879883	64257.800781
1432.810547	64618.707031
1431.740234	64125.710938
1430.669922	64745.316406
1429.598633	64479.453125
1428.528320	64930.828125
1427.457031	64258.867188
1426.386719	64551.308594
1425.314453	64040.695313
1424.243164	64058.660156
1423.171875	63793.191406
1422.099609	63951.742188
1421.027344	63625.187500
1419.955078	63461.910156
1418.882813	63278.296875
1417.810547	62983.746094
1416.737305	63162.671875
1415.664063	63087.902344
1414.590820	63162.589844
1413.517578	62927.117188
1412.444336	63017.640625
1411.370117	63191.863281
1410.295898	63433.890625
1409.221680	63359.136719
1408.147461	63388.445313
1407.073242	63478.792969
1405.998047	63912.761719
1404.922852	63774.671875
1403.847656	63948.515625
1402.772461	63862.437500
1401.697266	63683.753906
1400.621094	63410.261719
1399.544922	64119.289063
1398.468750	64173.226563
1397.392578	64229.398438
1396.316406	64082.398438
1395.239258	64565.097656
1394.162109	64481.265625
1393.084961	64837.378906
1392.007813	65125.695313
1390.930664	65479.304688
1389.852539	65559.953125
1388.774414	65875.031250
1387.696289	66174.210938
1386.618164	66714.406250
1385.540039	66600.992188
1384.460938	67499.101563
1383.382813	67935.156250
1382.303711	67848.601563
1381.223633	68736.984375
1380.144531	68148.304688
1379.064453	68664.945313
1377.985352	68663.820313
1376.905273	68757.187500
1375.825195	68580.578125
1374.744141	68266.835938
1373.664063	68241.031250
1372.583008	68183.765625
1371.501953	67820.796875
1370.420898	67278.164063
1369.338867	67203.117188
1368.257813	66669.773438
1367.175781	66401.671875
1366.093750	66268.421875
1365.011719	66092.546875
1363.929688	65804.484375
1362.846680	65770.171875
1361.763672	65275.792969
1360.680664	65338.062500
1359.597656	64354.871094
1358.514648	64616.910156
1357.430664	64493.117188
1356.346680	64367.125000
1355.262695	63828.687500
1354.178711	64133.203125
1353.094727	63556.898438
1352.009766	63686.582031
1350.925781	63188.964844
1349.840820	63475.449219
1348.755859	62431.636719
1347.669922	63497.312500
1346.584961	63073.953125
1345.499023	62988.703125
1344.413086	62916.910156
1343.327148	62986.093750
1342.240234	62677.203125
1341.154297	62444.464844
1340.067383	62618.789063
1338.980469	62889.183594
1337.893555	62529.109375
1336.805664	62482.054688
1335.718750	62890.859375
1334.630859	62658.320313
1333.542969	62486.171875
1332.455078	62941.644531
1331.367188	62677.949219
1330.278320	62572.859375
1329.189453	62963.332031
1328.100586	62951.953125
1327.011719	62695.132813
1325.922852	63239.292969
1324.833008	62630.089844
1323.743164	62741.421875
1322.653320	62910.687500
1321.563477	63077.656250
1320.473633	63601.183594
1319.382813	63375.750000
1318.291992	62738.199219
1317.201172	63426.343750
1316.110352	63158.738281
1315.019531	62893.453125
1313.927734	63445.375000
1312.835938	63465.066406
1311.744141	63491.421875
1310.652344	63435.433594
1309.560547	63292.691406
1308.467773	63817.332031
1307.375000	63576.710938
1306.282227	63789.796875
1305.189453	63558.152344
1304.095703	63893.414063
1303.002930	64079.648438
1301.909180	64094.718750
1300.815430	64136.437500
1299.721680	64313.632813
1298.626953	64355.292969
1297.533203	64283.691406
1296.438477	64962.484375
1295.343750	64866.375000
1294.248047	64792.496094
1293.153320	65275.562500
1292.057617	64746.851563
1290.961914	65123.281250
1289.866211	65628.195313
1288.770508	65312.546875
1287.674805	66216.265625
1286.578125	65009.625000
1285.481445	65527.476563
1284.384766	65508.960938
1283.288086	65395.191406
1282.190430	65288.109375
1281.092773	65546.437500
1279.996094	65171.464844
1278.897461	64967.074219
1277.799805	65046.042969
1276.702148	64536.375000
1275.603516	64568.929688
1274.504883	64674.460938
1273.406250	64109.839844
1272.307617	64040.730469
1271.208008	63589.171875
1270.108398	64081.617188
1269.008789	62967.210938
1267.909180	63718.105469
1266.809570	63503.304688
1265.708984	62789.394531
1264.609375	62795.675781
1263.508789	62680.515625
1262.407227	62260.742188
1261.306641	62326.703125
1260.206055	61858.593750
1259.104492	61931.214844
1258.002930	61178.769531
1256.901367	61033.128906
1255.798828	61130.113281
1254.697266	60671.449219
1253.594727	60188.703125
1252.492188	60631.804688
1251.389648	60329.929688
1250.286133	60158.148438
1249.183594	60072.335938
1248.080078	59883.039063
1246.976563	60052.734375
1245.872070	59782.046875
1244.768555	59520.257813
1243.664063	59465.437500
1242.560547	59379.828125
1241.455078	59373.449219
1240.350586	59274.687500
1239.246094	59200.148438
1238.140625	58991.507813
1237.035156	58767.550781
1235.929688	58919.527344
1234.824219	58860.480469
1233.717773	58775.085938
1232.612305	58663.359375
1231.505859	58336.421875
1230.399414	58404.878906
1229.291992	58609.437500
1228.185547	58410.003906
1227.078125	58190.882813
1225.970703	58853.996094
1224.863281	58669.972656
1223.755859	57904.710938
1222.647461	58571.890625
1221.539063	58477.917969
1220.430664	58212.968750
1219.322266	58055.523438
1218.213867	58132.636719
1217.104492	58137.406250
1215.995117	58008.535156
1214.885742	58050.558594
1213.776367	58096.945313
1212.666992	57981.281250
1211.556641	58303.500000
1210.446289	58052.125000
1209.335938	57687.042969
1208.225586	57591.218750
1207.115234	57760.128906
1206.003906	58090.832031
1204.892578	57708.503906
1203.781250	57868.550781
1202.669922	58046.023438
1201.557617	57972.078125
1200.446289	58018.347656
1199.333984	58405.433594
1198.221680	58204.757813
1197.108398	58154.855469
1195.996094	58795.000000
1194.882813	58808.316406
1193.769531	58976.609375
1192.656250	58915.675781
1191.542969	59585.757813
1190.428711	59156.031250
1189.314453	59435.371094
1188.200195	59636.097656
1187.085938	59095.382813
1185.971680	59590.402344
1184.856445	59586.089844
1183.741211	59745.222656
1182.625977	59361.753906
1181.510742	59947.847656
1180.395508	59492.597656
1179.279297	59693.000000
1178.163086	59891.148438
1177.046875	60141.468750
1175.930664	59414.437500
1174.813477	59956.347656
1173.697266	59155.636719
1172.580078	59366.742188
1171.462891	59516.867188
1170.344727	59479.929688
