#Wave		#Intensity
2001.242188	36424.800781
2000.272461	35978.640625
1999.302734	36405.914063
1998.333008	36073.824219
1997.363281	36518.464844
1996.392578	35885.894531
1995.422852	36042.410156
1994.452148	36426.726563
1993.481445	36462.925781
1992.510742	35823.292969
1991.540039	35987.210938
1990.568359	36236.148438
1989.596680	36027.179688
1988.625977	36178.468750
1987.654297	36017.097656
1986.681641	36393.367188
1985.709961	35802.019531
1984.738281	35998.226563
1983.765625	36201.859375
1982.792969	36135.570313
1981.820313	35956.878906
1980.847656	36207.867188
1979.874023	36648.566406
1978.901367	36305.078125
1977.927734	36418.566406
1976.954102	36362.281250
1975.980469	36078.914063
1975.006836	36207.347656
1974.032227	36068.796875
1973.058594	36027.574219
1972.083984	35993.843750
1971.109375	36251.851563
1970.134766	36372.656250
1969.160156	36306.476563
1968.184570	36070.855469
1967.209961	36393.449219
1966.234375	36195.261719
1965.258789	36395.667969
1964.283203	36284.707031
1963.306641	36507.437500
1962.331055	36394.003906
1961.354492	36529.515625
1960.377930	36505.707031
1959.401367	36233.082031
1958.424805	36167.039063
1957.447266	36232.843750
1956.470703	36323.496094
1955.493164	36351.949219
1954.515625	36576.789063
1953.538086	36217.437500
1952.560547	36238.437500
1951.582031	36087.984375
1950.604492	36511.449219
1949.625977	36189.609375
1948.647461	36563.238281
1947.668945	36690.917969
1946.689453	36272.394531
1945.710938	36576.308594
1944.731445	36190.210938
1943.751953	36307.937500
1942.772461	36353.679688
1941.792969	36580.468750
1940.813477	36517.027344
1939.833008	36731.308594
1938.852539	36204.273438
1937.873047	36443.316406
1936.891602	36583.148438
1935.911133	36361.179688
1934.930664	36731.363281
1933.949219	36715.023438
1932.967773	36589.722656
1931.986328	36459.511719
1931.004883	36854.171875
1930.023438	36384.859375
1929.041016	36935.300781
1928.059570	36805.113281
1927.077148	36754.136719
1926.094727	36720.488281
1925.112305	36427.187500
1924.128906	36925.207031
1923.146484	36545.445313
1922.163086	36519.269531
1921.179688	36977.464844
1920.196289	36565.769531
1919.212891	36270.324219
1918.228516	37056.824219
1917.245117	37013.285156
1916.260742	36745.070313
1915.276367	36355.988281
1914.291992	36904.964844
1913.307617	36918.238281
1912.322266	36623.082031
1911.336914	37206.257813
1910.352539	36933.351563
1909.367188	36781.375000
1908.380859	37260.656250
1907.395508	36911.457031
1906.409180	37259.910156
1905.423828	36775.296875
1904.437500	37488.304688
1903.451172	37102.355469
1902.463867	37125.402344
1901.477539	36813.527344
1900.490234	36917.863281
1899.503906	37216.644531
1898.516602	37335.640625
1897.528320	37589.941406
1896.541016	37460.324219
1895.553711	37261.871094
1894.565430	36947.882813
1893.577148	36921.722656
1892.588867	37259.464844
1891.600586	37631.503906
1890.611328	37293.085938
1889.623047	37323.402344
1888.633789	37643.628906
1887.644531	37177.644531
1886.655273	37613.218750
1885.666016	37338.945313
1884.675781	37339.753906
1883.686523	37475.578125
1882.696289	37250.554688
1881.706055	37361.804688
1880.715820	37627.585938
1879.724609	37451.714844
1878.734375	37840.019531
1877.743164	37426.296875
1876.751953	37755.625000
1875.760742	37565.136719
1874.769531	37656.574219
1873.778320	37821.496094
1872.786133	37496.339844
1871.793945	37639.183594
1870.801758	37828.507813
1869.809570	37834.105469
1868.817383	37548.339844
1867.824219	37695.964844
1866.832031	37735.839844
1865.838867	37704.738281
1864.845703	37781.296875
1863.851563	37735.515625
1862.858398	37836.500000
1861.865234	37898.316406
1860.871094	37498.019531
1859.876953	37946.105469
1858.882813	38523.570313
1857.887695	37705.503906
1856.893555	38236.382813
1855.898438	37885.226563
1854.904297	38095.933594
1853.909180	37730.273438
1852.913086	37882.332031
1851.917969	38175.921875
1850.922852	38081.343750
1849.926758	37955.078125
1848.930664	38060.628906
1847.934570	38356.414063
1846.938477	38288.695313
1845.941406	38055.175781
1844.945313	38392.250000
1843.948242	38385.496094
1842.951172	38356.804688
1841.954102	38315.941406
1840.956055	38187.382813
1839.958984	38314.636719
1838.960938	38622.070313
1837.962891	38500.828125
1836.964844	38294.410156
1835.966797	38757.472656
1834.968750	38658.164063
1833.969727	38775.460938
1832.970703	38834.324219
1831.971680	38715.589844
1830.972656	38365.851563
1829.973633	38692.234375
1828.973633	39069.550781
1827.974609	38535.191406
1826.974609	38805.464844
1825.974609	38674.707031
1824.974609	38825.812500
1823.973633	39229.484375
1822.973633	38952.996094
1821.972656	38994.699219
1820.971680	39046.097656
1819.970703	39218.843750
1818.968750	38947.398438
1817.967773	39137.082031
1816.965820	39224.804688
1815.964844	39062.652344
1814.961914	39305.566406
1813.959961	39589.613281
1812.958008	39226.257813
1811.955078	39716.250000
1810.953125	39411.160156
1809.950195	39486.597656
1808.947266	39368.195313
1807.943359	39174.742188
1806.940430	39402.753906
1805.936523	39720.269531
1804.932617	39410.648438
1803.928711	39805.507813
1802.924805	39597.621094
1801.920898	39515.628906
1800.916016	39878.804688
1799.911133	39668.593750
1798.907227	39598.718750
1797.901367	39831.113281
1796.896484	39698.375000
1795.891602	39995.929688
1794.885742	39713.371094
1793.879883	40254.859375
1792.874023	40259.835938
1791.868164	40230.992188
1790.862305	40018.621094
1789.855469	39912.566406
1788.848633	40221.773438
1787.842773	40354.671875
1786.834961	40224.472656
1785.828125	40248.742188
1784.821289	40716.886719
1783.813477	40210.414063
1782.805664	40890.617188
1781.797852	40762.839844
1780.790039	40994.308594
1779.782227	40895.480469
1778.773438	40601.484375
1777.764648	40536.492188
1776.755859	40760.597656
1775.747070	41001.488281
1774.738281	41047.226563
1773.729492	40970.152344
1772.719727	41059.210938
1771.709961	41323.941406
1770.700195	41027.863281
1769.690430	41292.500000
1768.680664	41451.195313
1767.669922	41263.484375
1766.659180	41626.531250
1765.648438	41638.410156
1764.637695	41917.121094
1763.626953	41304.035156
1762.615234	41779.753906
1761.604492	41695.488281
1760.592773	41889.906250
1759.581055	41942.546875
1758.569336	42280.933594
1757.556641	42095.789063
1756.544922	41891.507813
1755.532227	42496.128906
1754.519531	42642.195313
1753.506836	42649.054688
1752.494141	42555.156250
1751.480469	42470.882813
1750.466797	42942.972656
1749.454102	43108.003906
1748.440430	42702.457031
1747.425781	43018.460938
1746.412109	43027.628906
1745.397461	43055.957031
1744.383789	42720.167969
1743.369141	43055.097656
1742.353516	43140.871094
1741.338867	43557.007813
1740.324219	43491.855469
1739.308594	43670.839844
1738.292969	43746.863281
1737.277344	43411.355469
1736.261719	44286.339844
1735.245117	44433.960938
1734.229492	44418.925781
1733.212891	44274.789063
1732.196289	45194.414063
1731.179688	44622.390625
1730.162109	44913.183594
1729.145508	45344.824219
1728.127930	45463.398438
1727.110352	45462.515625
1726.092773	46003.664063
1725.075195	46165.023438
1724.056641	46269.039063
1723.039063	46470.863281
1722.020508	46689.320313
1721.001953	46347.054688
1719.983398	46994.796875
1718.963867	46604.898438
1717.945313	47111.683594
1716.925781	47372.734375
1715.906250	47452.535156
1714.886719	47491.792969
1713.867188	48064.773438
1712.846680	47975.257813
1711.826172	47957.234375
1710.806641	47553.410156
1709.786133	48018.816406
1708.764648	47596.078125
1707.744141	47573.363281
1706.722656	47933.800781
1705.701172	48039.515625
1704.679688	47743.152344
1703.658203	48010.597656
1702.636719	47602.566406
1701.614258	47846.164063
1700.592773	47583.316406
1699.570313	47736.507813
1698.547852	47597.343750
1697.524414	47282.402344
1696.501953	47518.703125
1695.478516	47871.300781
1694.456055	47741.703125
1693.432617	47954.046875
1692.408203	48095.101563
1691.384766	47559.660156
1690.360352	47835.992188
1689.336914	47929.531250
1688.312500	47771.582031
1687.288086	47914.902344
1686.262695	47752.261719
1685.238281	48244.062500
1684.212891	48287.656250
1683.187500	47778.996094
1682.162109	47967.203125
1681.136719	48079.523438
1680.110352	48712.949219
1679.084961	48417.726563
1678.058594	48574.894531
1677.032227	47950.703125
1676.005859	48661.812500
1674.978516	48610.574219
1673.952148	48377.144531
1672.924805	48451.363281
1671.897461	48705.332031
1670.870117	48460.179688
1669.842773	48891.398438
1668.814453	48851.984375
1667.787109	48635.292969
1666.758789	49236.414063
1665.730469	49194.585938
1664.701172	48760.593750
1663.672852	49229.082031
1662.643555	48750.359375
1661.615234	49298.964844
1660.585938	49365.757813
1659.555664	49508.058594
1658.526367	49739.984375
1657.497070	50040.257813
1656.466797	49880.378906
1655.436523	49845.570313
1654.406250	49959.351563
1653.375977	49985.839844
1652.344727	50207.996094
1651.313477	50088.289063
1650.282227	50171.300781
1649.250977	50398.007813
1648.219727	49957.933594
1647.188477	50530.839844
1646.156250	50340.523438
1645.124023	50731.855469
1644.091797	50647.503906
1643.059570	51045.695313
1642.027344	50827.175781
1640.994141	51166.371094
1639.961914	51034.941406
1638.928711	51157.582031
1637.895508	51498.882813
1636.861328	51428.589844
1635.828125	51605.160156
1634.793945	51483.164063
1633.759766	51699.601563
1632.725586	51619.921875
1631.691406	51946.664063
1630.656250	51972.656250
1629.622070	51963.410156
1628.586914	52555.226563
1627.551758	52743.062500
1626.516602	53125.636719
1625.480469	53184.234375
1624.445313	53130.191406
1623.409180	53953.496094
1622.373047	54042.402344
1621.336914	53885.050781
1620.300781	54670.261719
1619.263672	55091.851563
1618.227539	56042.968750
1617.190430	57314.777344
1616.153320	58044.925781
1615.115234	60013.972656
1614.078125	60551.328125
1613.040039	61765.218750
1612.001953	62997.406250
1610.963867	63526.914063
1609.925781	63319.007813
1608.887695	63179.031250
1607.848633	62662.437500
1606.809570	61874.683594
1605.770508	59578.738281
1604.731445	59423.152344
1603.692383	58454.035156
1602.652344	57258.527344
1601.613281	56404.652344
1600.573242	55992.703125
1599.533203	55564.542969
1598.492188	54977.699219
1597.452148	54666.636719
1596.411133	54101.171875
1595.370117	53741.347656
1594.329102	53776.117188
1593.288086	53637.289063
1592.247070	53498.464844
1591.205078	53359.507813
1590.163086	53220.550781
1589.121094	53081.593750
1588.079102	52942.636719
1587.036133	52803.550781
1585.994141	52664.593750
1584.951172	52906.882813
1583.908203	52627.171875
1582.865234	52592.160156
1581.822266	52787.746094
1580.778320	52405.734375
1579.734375	52547.726563
1578.691406	53059.804688
1577.646484	52871.121094
1576.602539	53001.316406
1575.558594	52756.867188
1574.513672	52942.859375
1573.468750	53170.644531
1572.423828	53284.406250
1571.378906	53147.023438
1570.333008	53386.269531
1569.288086	52942.121094
1568.242188	53490.375000
1567.196289	53522.644531
1566.150391	53431.789063
1565.103516	53025.105469
1564.057617	52853.093750
1563.010742	52609.167969
1561.963867	52980.460938
1560.916992	52629.839844
1559.869141	52970.828125
1558.822266	53033.289063
1557.774414	52852.167969
1556.726563	52858.964844
1555.678711	52494.753906
1554.630859	52821.539063
1553.582031	52547.859375
1552.534180	52360.023438
1551.485352	52566.160156
1550.436523	51998.445313
1549.386719	52463.996094
1548.337891	53149.386719
1547.288086	52660.589844
1546.238281	52512.277344
1545.188477	52428.824219
1544.138672	51968.183594
1543.088867	52655.351563
1542.038086	52090.726563
1540.987305	51972.707031
1539.936523	51956.480469
1538.885742	52365.691406
1537.834961	52238.433594
1536.783203	51988.718750
1535.731445	52081.101563
1534.679688	52025.582031
1533.627930	51882.292969
1532.576172	51764.464844
1531.523438	52027.699219
1530.471680	51420.402344
1529.418945	51097.261719
1528.366211	51399.707031
1527.312500	51545.121094
1526.259766	51383.628906
1525.206055	51411.343750
1524.152344	51358.328125
1523.098633	50984.796875
1522.044922	51436.785156
1520.990234	51084.117188
1519.936523	51190.214844
1518.881836	51383.835938
1517.827148	51448.363281
1516.772461	51476.015625
1515.716797	51112.128906
1514.662109	51554.300781
1513.606445	51358.593750
1512.550781	51183.667969
1511.495117	51229.742188
1510.438477	51232.074219
1509.382813	51298.824219
1508.326172	51395.449219
1507.269531	50940.089844
1506.212891	51581.687500
1505.155273	51298.878906
1504.098633	51724.117188
1503.041016	51744.730469
1501.983398	51310.382813
1500.925781	51836.464844
1499.867188	51145.003906
1498.809570	51494.093750
1497.750977	51399.914063
1496.692383	51271.332031
1495.633789	51480.199219
1494.575195	51489.332031
1493.515625	51466.339844
1492.457031	51915.921875
1491.397461	51766.710938
1490.337891	51548.753906
1489.277344	51720.644531
1488.217773	51658.652344
1487.157227	51974.851563
1486.096680	51784.503906
1485.036133	52027.246094
1483.975586	51983.558594
1482.915039	52042.949219
1481.853516	51802.339844
1480.791992	52022.000000
1479.730469	52140.863281
1478.668945	52012.503906
1477.606445	52062.671875
1476.544922	52323.300781
1475.482422	52320.781250
1474.419922	52091.839844
1473.357422	52546.683594
1472.293945	52594.414063
1471.231445	51956.382813
1470.167969	52646.394531
1469.104492	52346.757813
1468.041016	52408.187500
1466.976563	52688.871094
1465.913086	52882.671875
1464.848633	52788.699219
1463.784180	53101.121094
1462.719727	53077.898438
1461.655273	53321.687500
1460.589844	53323.527344
1459.524414	53215.859375
1458.458984	53160.687500
1457.393555	53388.316406
1456.328125	53517.816406
1455.261719	53517.328125
1454.196289	53651.312500
1453.129883	53689.535156
1452.063477	53802.929688
1450.996094	53923.117188
1449.929688	53933.929688
1448.862305	54022.164063
1447.794922	54005.632813
1446.727539	54043.738281
1445.660156	54725.929688
1444.591797	54438.476563
1443.524414	54342.242188
1442.456055	54978.511719
1441.387695	54886.757813
1440.318359	55077.000000
1439.250000	55205.789063
1438.180664	55650.496094
1437.111328	56051.855469
1436.041992	56600.769531
1434.972656	56331.601563
1433.903320	56516.824219
1432.833008	57580.886719
1431.762695	57284.429688
1430.692383	57106.132813
1429.622070	56705.453125
1428.550781	57108.300781
1427.480469	57381.660156
1426.409180	57205.734375
1425.337891	57476.707031
1424.266602	57318.964844
1423.194336	57551.269531
1422.122070	57228.074219
1421.050781	57306.179688
1419.978516	56860.765625
1418.905273	56909.449219
1417.833008	57032.867188
1416.759766	56975.042969
1415.687500	56695.312500
1414.614258	56707.753906
1413.540039	57175.199219
1412.466797	57527.046875
1411.392578	56912.492188
1410.319336	57336.656250
1409.245117	57661.128906
1408.169922	57515.050781
1407.095703	57807.710938
1406.020508	58367.050781
1404.946289	57795.945313
1403.871094	57729.039063
1402.794922	58157.023438
1401.719727	58139.773438
1400.643555	58237.730469
1399.568359	58362.753906
1398.492188	58435.792969
1397.415039	58260.460938
1396.338867	58746.558594
1395.261719	59121.898438
1394.185547	59203.761719
1393.108398	59202.121094
1392.031250	59653.855469
1390.953125	59640.855469
1389.875977	60599.671875
1388.797852	60043.195313
1387.719727	60557.554688
1386.641602	61080.738281
1385.562500	61364.898438
1384.484375	61775.105469
1383.405273	62221.199219
1382.326172	62273.042969
1381.247070	61933.093750
1380.166992	62401.421875
1379.087891	62538.722656
1378.007813	63096.781250
1376.927734	62183.191406
1375.847656	63382.218750
1374.767578	62583.605469
1373.686523	63190.714844
1372.605469	62446.378906
1371.524414	62516.042969
1370.443359	61709.160156
1369.362305	61693.535156
1368.280273	61237.570313
1367.199219	61019.867188
1366.117188	61148.105469
1365.034180	60959.683594
1363.952148	60607.441406
1362.870117	60915.246094
1361.787109	60625.972656
1360.704102	60065.292969
1359.621094	60406.675781
1358.537109	59931.468750
1357.454102	60245.835938
1356.370117	59674.410156
1355.286133	59638.980469
1354.202148	59637.179688
1353.118164	59642.105469
1352.033203	59474.496094
1350.948242	59750.507813
1349.863281	59426.148438
1348.778320	59108.625000
1347.693359	59393.500000
1346.607422	58890.289063
1345.521484	58971.421875
1344.435547	59256.160156
1343.349609	59258.882813
1342.263672	59017.773438
1341.176758	59566.253906
1340.090820	58929.375000
1339.003906	59412.832031
1337.916016	59585.398438
1336.829102	58917.558594
1335.741211	59706.882813
1334.654297	59106.281250
1333.566406	59077.734375
1332.478516	59609.757813
1331.389648	59869.171875
1330.301758	59782.445313
1329.212891	59588.609375
1328.124023	59160.511719
1327.035156	60252.085938
1325.945313	59650.003906
1324.856445	59483.085938
1323.766602	59249.324219
1322.676758	59443.746094
1321.586914	59731.726563
1320.496094	59899.238281
1319.406250	59984.230469
1318.315430	59714.929688
1317.224609	59626.160156
1316.133789	60276.878906
1315.041992	60029.929688
1313.951172	60072.507813
1312.859375	60192.980469
1311.767578	59906.113281
1310.675781	59672.750000
1309.583008	60342.761719
1308.491211	60000.402344
1307.398438	59987.320313
1306.305664	60009.824219
1305.212891	60637.039063
1304.119141	60152.597656
1303.026367	60619.539063
1301.932617	60135.273438
1300.838867	60384.324219
1299.744141	60875.394531
1298.650391	60782.203125
1297.555664	61108.710938
1296.461914	60951.125000
1295.366211	61259.718750
1294.271484	61295.230469
1293.176758	61896.531250
1292.081055	61681.226563
1290.985352	62020.507813
1289.889648	62293.132813
1288.793945	62306.242188
1287.697266	62124.261719
1286.601563	62261.507813
1285.504883	62318.929688
1284.408203	62121.527344
1283.311523	62023.882813
1282.213867	61986.066406
1281.116211	61394.660156
1280.018555	61642.578125
1278.920898	61660.183594
1277.823242	61682.210938
1276.725586	61024.890625
1275.626953	60555.863281
1274.528320	60781.574219
1273.429688	60160.156250
1272.330078	60257.597656
1271.231445	60668.941406
1270.131836	60330.804688
1269.032227	60308.816406
1267.932617	59990.746094
1266.833008	59663.953125
1265.732422	59697.312500
1264.632813	59847.703125
1263.532227	59463.695313
1262.430664	59305.003906
1261.330078	59281.003906
1260.228516	58939.234375
1259.127930	58727.761719
1258.026367	59257.578125
1256.924805	58856.437500
1255.822266	58795.039063
1254.720703	58402.945313
1253.618164	58883.929688
1252.515625	58655.046875
1251.413086	58825.101563
1250.309570	58594.105469
1249.207031	58629.730469
1248.103516	57683.070313
1247.000000	57811.328125
1245.895508	58650.652344
1244.791992	58430.894531
1243.687500	58160.589844
1242.583008	58328.265625
1241.478516	58227.476563
1240.374023	58245.500000
1239.269531	58672.566406
1238.164063	57991.277344
1237.058594	57631.199219
1235.953125	57884.496094
1234.847656	57572.910156
1233.741211	57999.699219
1232.635742	58265.960938
1231.529297	57750.203125
1230.422852	57952.726563
1229.315430	57691.898438
1228.208984	57374.085938
1227.101563	57464.625000
1225.994141	57443.210938
1224.886719	57391.085938
1223.779297	57319.238281
1222.670898	57361.457031
1221.562500	57061.582031
1220.454102	57173.984375
1219.345703	57260.042969
1218.237305	57159.777344
1217.127930	57438.628906
1216.018555	57246.347656
1214.909180	56797.855469
1213.799805	57886.925781
1212.690430	57035.582031
1211.580078	57703.875000
1210.469727	56828.789063
1209.359375	57429.027344
1208.249023	57508.292969
1207.138672	57386.265625
1206.027344	57036.804688
1204.916016	58019.257813
1203.804688	57892.824219
1202.693359	57536.894531
1201.581055	57766.847656
1200.469727	58597.664063
1199.357422	57610.371094
1198.245117	58825.371094
1197.131836	58268.648438
1196.019531	59548.593750
1194.906250	59179.699219
1193.792969	58861.144531
1192.679688	59131.968750
1191.566406	59483.429688
1190.452148	59507.507813
1189.337891	59333.078125
1188.223633	59346.265625
1187.109375	59612.382813
1185.995117	59472.906250
1184.879883	59135.121094
1183.764648	59113.457031
1182.649414	58967.601563
1181.534180	59094.105469
1180.418945	59396.992188
1179.302734	59233.734375
1178.186523	59220.765625
1177.070313	58905.210938
1175.954102	58480.941406
1174.837891	58785.824219
1173.720703	58598.878906
1172.603516	58829.664063
1171.486328	58146.890625
1170.369141	58223.273438
