#Wave		#Intensity
2001.221680	39775.878906
2000.251953	39798.437500
1999.282227	39999.492188
1998.312500	39819.621094
1997.342773	39910.371094
1996.372070	40359.273438
1995.402344	40342.207031
1994.431641	40037.203125
1993.460938	39897.527344
1992.490234	40085.796875
1991.518555	39803.511719
1990.547852	40269.464844
1989.576172	39849.652344
1988.604492	39962.753906
1987.632813	40178.347656
1986.661133	39851.277344
1985.689453	40049.312500
1984.716797	39924.839844
1983.745117	40077.804688
1982.772461	39895.898438
1981.799805	40011.339844
1980.827148	40371.523438
1979.853516	40124.722656
1978.880859	39765.648438
1977.907227	40135.667969
1976.933594	40121.164063
1975.959961	40443.570313
1974.986328	39967.414063
1974.011719	40037.761719
1973.038086	40562.046875
1972.063477	40275.644531
1971.088867	39852.207031
1970.114258	40017.253906
1969.138672	40688.230469
1968.164063	40409.476563
1967.188477	40260.386719
1966.212891	40412.785156
1965.237305	40288.652344
1964.261719	40523.171875
1963.286133	40391.585938
1962.309570	40461.699219
1961.333984	40872.781250
1960.357422	40905.453125
1959.380859	40659.429688
1958.404297	40881.191406
1957.426758	40749.675781
1956.450195	40774.875000
1955.472656	40703.093750
1954.495117	40603.992188
1953.517578	41141.226563
1952.540039	41089.296875
1951.561523	40781.457031
1950.583008	41055.042969
1949.605469	41648.945313
1948.626953	40846.968750
1947.647461	40695.808594
1946.668945	41180.226563
1945.690430	40979.414063
1944.710938	41356.898438
1943.731445	41188.378906
1942.751953	41295.285156
1941.772461	41082.187500
1940.791992	41387.464844
1939.812500	41082.679688
1938.832031	41620.878906
1937.851563	41559.058594
1936.871094	41742.601563
1935.890625	41205.054688
1934.909180	40880.738281
1933.928711	41356.574219
1932.947266	41227.984375
1931.965820	41272.757813
1930.984375	41107.089844
1930.002930	41245.921875
1929.020508	41624.753906
1928.038086	41211.679688
1927.056641	41107.976563
1926.074219	41226.921875
1925.090820	40982.289063
1924.108398	41345.992188
1923.125000	41346.160156
1922.142578	41067.031250
1921.159180	41146.328125
1920.175781	40993.335938
1919.191406	41065.207031
1918.208008	41361.812500
1917.223633	41349.621094
1916.240234	41260.894531
1915.255859	41540.023438
1914.271484	40960.113281
1913.286133	41372.457031
1912.301758	41355.332031
1911.316406	41214.867188
1910.331055	41012.789063
1909.345703	41412.496094
1908.360352	40914.574219
1907.375000	41452.207031
1906.388672	41834.367188
1905.402344	41279.949219
1904.416016	41331.843750
1903.429688	41477.328125
1902.443359	41573.496094
1901.457031	41374.121094
1900.469727	41312.695313
1899.482422	41332.527344
1898.495117	41352.347656
1897.507813	41428.761719
1896.520508	41657.695313
1895.532227	41596.265625
1894.543945	41950.523438
1893.556641	41859.546875
1892.568359	41067.871094
1891.579102	41490.863281
1890.590820	41540.109375
1889.601563	41781.019531
1888.613281	41744.199219
1887.624023	41707.394531
1886.634766	42144.628906
1885.644531	41926.039063
1884.655273	41714.890625
1883.665039	41879.406250
1882.674805	41994.769531
1881.684570	41732.183594
1880.694336	41825.449219
1879.704102	41867.167969
1878.712891	42068.289063
1877.722656	41987.332031
1876.731445	41872.078125
1875.740234	41957.875000
1874.748047	42205.406250
1873.756836	41997.046875
1872.764648	42506.636719
1871.773438	41911.250000
1870.781250	42001.855469
1869.788086	41987.128906
1868.795898	42109.515625
1867.803711	42011.539063
1866.810547	42317.437500
1865.817383	42417.671875
1864.824219	42713.601563
1863.831055	42253.542969
1862.837891	42608.093750
1861.843750	42461.218750
1860.849609	42551.550781
1859.855469	41991.613281
1858.861328	42690.566406
1857.867188	42255.421875
1856.872070	42306.628906
1855.877930	42856.144531
1854.882813	42782.664063
1853.887695	42421.062500
1852.892578	42391.628906
1851.896484	43096.964844
1850.901367	43057.656250
1849.905273	42754.816406
1848.909180	43281.605469
1847.913086	42839.789063
1846.916992	42983.464844
1845.919922	43249.015625
1844.923828	43004.914063
1843.926758	43601.878906
1842.929688	43406.542969
1841.932617	43320.925781
1840.935547	43150.070313
1839.937500	43583.375000
1838.939453	43646.335938
1837.942383	43609.433594
1836.943359	43706.445313
1835.945313	43861.843750
1834.947266	43579.105469
1833.948242	43753.933594
1832.949219	44164.695313
1831.951172	43560.960938
1830.951172	43983.765625
1829.952148	43842.281250
1828.953125	43871.027344
1827.953125	43744.195313
1826.953125	44278.457031
1825.953125	44178.324219
1824.953125	44403.773438
1823.952148	44352.230469
1822.952148	44281.273438
1821.951172	44458.015625
1820.950195	44251.105469
1819.949219	44095.242188
1818.948242	44531.601563
1817.946289	44620.816406
1816.945313	43991.878906
1815.943359	44554.156250
1814.941406	44119.464844
1813.939453	44877.921875
1812.936523	44806.980469
1811.934570	44719.093750
1810.931641	44849.351563
1809.928711	44671.832031
1808.925781	44940.140625
1807.921875	44966.128906
1806.918945	44999.375000
1805.915039	45061.660156
1804.912109	45218.339844
1803.908203	45188.582031
1802.903320	44902.304688
1801.899414	44783.082031
1800.894531	45578.371094
1799.890625	45800.121094
1798.885742	45209.214844
1797.880859	45764.625000
1796.875000	45715.453125
1795.870117	45528.527344
1794.864258	46066.664063
1793.858398	45734.761719
1792.852539	45656.632813
1791.846680	46317.644531
1790.840820	46002.769531
1789.833984	46564.484375
1788.828125	46126.554688
1787.821289	45930.148438
1786.814453	46329.886719
1785.806641	46852.535156
1784.799805	46335.246094
1783.791992	46616.507813
1782.784180	46164.550781
1781.776367	47094.335938
1780.768555	46678.613281
1779.760742	46436.574219
1778.751953	46666.953125
1777.743164	46326.210938
1776.735352	46734.792969
1775.725586	47191.394531
1774.716797	47045.796875
1773.708008	47162.691406
1772.698242	47055.664063
1771.688477	46970.335938
1770.678711	47604.562500
1769.668945	47507.132813
1768.659180	47493.929688
1767.648438	47293.125000
1766.637695	47424.246094
1765.626953	47584.171875
1764.616211	47568.554688
1763.605469	47959.128906
1762.593750	47760.812500
1761.583008	47485.679688
1760.571289	47820.808594
1759.559570	47788.339844
1758.547852	47952.789063
1757.535156	48278.046875
1756.523438	48046.265625
1755.510742	48572.992188
1754.498047	48552.410156
1753.485352	48277.511719
1752.472656	48739.144531
1751.458984	48526.664063
1750.445313	48494.105469
1749.432617	48739.671875
1748.417969	48587.226563
1747.404297	48734.421875
1746.390625	48982.203125
1745.375977	49685.109375
1744.361328	49743.394531
1743.346680	49708.250000
1742.332031	49972.441406
1741.317383	49748.128906
1740.302734	49825.503906
1739.287109	50616.050781
1738.271484	50769.816406
1737.255859	50830.214844
1736.240234	51242.218750
1735.223633	51515.363281
1734.208008	51771.667969
1733.191406	52587.324219
1732.174805	52699.925781
1731.158203	52996.507813
1730.140625	52910.664063
1729.124023	53374.335938
1728.106445	53508.210938
1727.088867	53799.656250
1726.071289	53768.640625
1725.053711	54391.777344
1724.035156	54971.730469
1723.017578	55004.953125
1721.999023	55231.441406
1720.980469	55305.160156
1719.961914	55486.187500
1718.942383	55707.695313
1717.923828	55793.207031
1716.904297	55802.398438
1715.884766	55954.597656
1714.865234	56330.757813
1713.844727	56161.136719
1712.825195	55772.398438
1711.804688	56324.648438
1710.784180	56212.265625
1709.763672	56192.781250
1708.743164	56544.679688
1707.722656	56246.656250
1706.701172	56467.531250
1705.679688	55696.128906
1704.658203	56233.414063
1703.636719	55728.714844
1702.615234	56249.156250
1701.592773	56072.746094
1700.571289	55463.738281
1699.548828	55936.406250
1698.526367	55572.406250
1697.502930	56299.109375
1696.480469	55585.960938
1695.457031	55846.871094
1694.433594	56079.191406
1693.410156	56377.906250
1692.386719	55717.464844
1691.363281	55743.187500
1690.338867	56191.296875
1689.314453	56103.035156
1688.290039	56271.000000
1687.265625	55921.855469
1686.241211	56336.410156
1685.215820	55925.726563
1684.191406	56389.910156
1683.166016	56304.062500
1682.140625	56848.578125
1681.115234	56648.949219
1680.088867	56875.781250
1679.062500	56500.953125
1678.037109	56680.367188
1677.010742	57072.792969
1675.983398	57003.484375
1674.957031	57485.648438
1673.930664	57499.109375
1672.903320	57313.828125
1671.875977	57022.160156
1670.848633	57529.984375
1669.820313	57467.750000
1668.792969	57630.132813
1667.764648	57650.632813
1666.736328	58226.511719
1665.708008	58421.750000
1664.679688	58460.988281
1663.651367	58160.066406
1662.622070	58218.226563
1661.592773	58961.132813
1660.563477	58983.714844
1659.534180	59251.769531
1658.504883	58724.398438
1657.474609	58541.714844
1656.444336	59413.648438
1655.415039	59259.207031
1654.383789	59651.957031
1653.353516	59898.371094
1652.323242	60281.429688
1651.291992	60218.863281
1650.260742	60948.156250
1649.229492	60762.960938
1648.198242	60961.828125
1647.166016	61761.253906
1646.134766	61543.039063
1645.102539	61633.343750
1644.070313	62427.507813
1643.038086	62406.996094
1642.004883	62953.636719
1640.972656	63351.847656
1639.939453	63502.906250
1638.906250	64093.742188
1637.873047	64376.300781
1636.839844	64592.921875
1635.805664	65394.812500
1634.772461	65496.000000
1633.738281	65655.898438
1632.704102	66283.296875
1631.668945	66865.843750
1630.634766	66661.351563
1629.599609	67671.000000
1628.565430	67799.835938
1627.530273	68006.085938
1626.494141	68376.554688
1625.458984	68730.460938
1624.422852	69314.171875
1623.387695	70451.273438
1622.351563	71003.968750
1621.315430	71577.578125
1620.278320	73091.132813
1619.242188	74184.546875
1618.205078	75408.820313
1617.167969	77340.328125
1616.130859	79863.890625
1615.093750	81714.273438
1614.055664	83257.179688
1613.018555	86213.875000
1611.980469	86767.429688
1610.942383	87678.937500
1609.904297	89273.500000
1608.865234	88681.968750
1607.827148	87533.835938
1606.788086	86189.625000
1605.749023	84719.593750
1604.709961	83469.890625
1603.669922	81474.843750
1602.630859	80684.289063
1601.590820	79164.859375
1600.550781	78188.070313
1599.510742	78174.140625
1598.470703	76705.007813
1597.429688	76815.117188
1596.389648	76754.726563
1595.348633	76162.085938
1594.307617	76311.898438
1593.265625	75707.867188
1592.224609	76338.359375
1591.182617	76222.109375
1590.140625	76236.507813
1589.098633	76582.054688
1588.056641	76778.242188
1587.014648	77013.992188
1585.971680	77284.617188
1584.928711	77242.875000
1583.886719	77303.656250
1582.842773	77809.359375
1581.799805	77520.648438
1580.755859	77923.664063
1579.712891	77884.148438
1578.668945	78922.468750
1577.625000	78396.343750
1576.580078	79275.945313
1575.536133	79408.382813
1574.491211	79571.007813
1573.446289	81029.054688
1572.401367	81058.773438
1571.356445	81281.460938
1570.311523	82382.750000
1569.265625	82398.257813
1568.219727	82146.531250
1567.173828	81883.273438
1566.127930	81587.585938
1565.082031	81324.515625
1564.035156	81695.468750
1562.988281	81242.085938
1561.941406	80839.929688
1560.894531	80997.242188
1559.847656	80309.859375
1558.799805	80253.757813
1557.751953	80870.351563
1556.704102	80322.500000
1555.656250	80398.585938
1554.608398	80154.710938
1553.560547	80339.742188
1552.511719	80105.226563
1551.462891	80394.453125
1550.414063	79780.070313
1549.365234	80349.523438
1548.315430	79994.734375
1547.265625	80401.851563
1546.216797	80676.867188
1545.166992	80683.281250
1544.116211	80687.382813
1543.066406	80601.234375
1542.015625	80566.007813
1540.965820	80033.500000
1539.915039	79894.320313
1538.863281	79510.093750
1537.812500	79250.835938
1536.760742	78399.976563
1535.709961	78986.796875
1534.658203	78371.945313
1533.605469	77789.648438
1532.553711	77570.179688
1531.501953	77466.250000
1530.449219	77082.984375
1529.396484	76307.414063
1528.343750	76252.226563
1527.290039	75945.523438
1526.237305	75655.078125
1525.183594	75989.867188
1524.129883	75222.093750
1523.076172	74800.484375
1522.022461	75107.570313
1520.968750	75163.281250
1519.914063	74887.101563
1518.859375	75150.218750
1517.804688	74597.656250
1516.750000	74181.203125
1515.694336	74766.718750
1514.639648	74831.632813
1513.583984	74583.406250
1512.528320	74454.968750
1511.472656	74140.156250
1510.416016	74140.687500
1509.360352	73745.515625
1508.303711	73863.421875
1507.247070	73714.515625
1506.190430	73710.515625
1505.132813	73895.023438
1504.076172	73426.679688
1503.018555	73052.726563
1501.960938	72598.484375
1500.903320	72941.562500
1499.844727	72200.382813
1498.787109	72316.054688
1497.728516	72300.804688
1496.669922	71762.148438
1495.611328	71976.523438
1494.552734	71828.234375
1493.493164	71790.125000
1492.434570	72073.187500
1491.375000	71145.125000
1490.315430	71584.132813
1489.254883	71115.046875
1488.195313	71441.570313
1487.134766	71389.804688
1486.074219	70701.000000
1485.013672	71086.984375
1483.953125	71049.046875
1482.892578	70729.406250
1481.831055	70817.484375
1480.769531	70575.835938
1479.708008	70638.718750
1478.646484	70937.312500
1477.583984	70270.148438
1476.522461	70063.085938
1475.459961	70485.132813
1474.397461	70300.960938
1473.334961	70176.312500
1472.271484	70440.351563
1471.208984	70724.875000
1470.145508	70405.945313
1469.082031	70985.125000
1468.018555	70520.039063
1466.954102	71240.601563
1465.890625	71682.289063
1464.826172	71810.992188
1463.761719	71220.523438
1462.697266	71860.546875
1461.631836	72039.343750
1460.567383	71894.078125
1459.501953	71833.265625
1458.436523	72463.578125
1457.371094	72311.460938
1456.305664	73171.750000
1455.239258	72857.695313
1454.172852	72561.992188
1453.107422	72740.382813
1452.040039	72927.820313
1450.973633	72780.328125
1449.907227	73277.437500
1448.839844	73451.007813
1447.772461	73087.195313
1446.705078	73128.703125
1445.637695	73042.734375
1444.569336	72692.828125
1443.500977	73041.523438
1442.432617	72730.406250
1441.364258	73251.812500
1440.295898	72856.632813
1439.227539	73268.687500
1438.158203	72928.195313
1437.088867	73294.632813
1436.019531	72647.492188
1434.950195	73272.835938
1433.879883	72532.789063
1432.810547	73130.671875
1431.740234	73167.484375
1430.669922	72323.414063
1429.598633	72355.812500
1428.528320	72678.679688
1427.457031	72808.562500
1426.386719	72407.539063
1425.314453	72600.929688
1424.243164	72358.820313
1423.171875	72465.984375
1422.099609	72289.726563
1421.027344	72453.523438
1419.955078	72787.210938
1418.882813	71738.664063
1417.810547	72038.382813
1416.737305	72161.320313
1415.664063	71858.476563
1414.590820	71641.773438
1413.517578	71986.554688
1412.444336	71853.648438
1411.370117	72130.367188
1410.295898	72253.140625
1409.221680	72075.007813
1408.147461	72306.296875
1407.073242	72548.812500
1405.998047	72831.929688
1404.922852	71853.593750
1403.847656	72014.687500
1402.772461	72268.359375
1401.697266	72675.570313
1400.621094	72854.492188
1399.544922	72450.664063
1398.468750	72290.843750
1397.392578	73298.273438
1396.316406	73059.351563
1395.239258	73303.468750
1394.162109	73333.140625
1393.084961	73983.195313
1392.007813	74109.718750
1390.930664	75050.312500
1389.852539	75530.585938
1388.774414	75388.484375
1387.696289	75593.531250
1386.618164	75667.804688
1385.540039	76289.562500
1384.460938	76636.250000
1383.382813	76642.710938
1382.303711	77306.734375
1381.223633	77727.343750
1380.144531	77335.148438
1379.064453	77667.820313
1377.985352	78317.664063
1376.905273	77678.070313
1375.825195	77943.007813
1374.744141	77850.234375
1373.664063	77809.218750
1372.583008	77489.421875
1371.501953	76931.460938
1370.420898	76771.500000
1369.338867	76380.148438
1368.257813	76130.476563
1367.175781	76123.484375
1366.093750	75692.023438
1365.011719	75312.359375
1363.929688	75031.617188
1362.846680	74851.976563
1361.763672	74746.460938
1360.680664	74584.882813
1359.597656	74275.296875
1358.514648	74602.828125
1357.430664	74095.992188
1356.346680	74111.773438
1355.262695	73755.398438
1354.178711	73524.671875
1353.094727	73043.039063
1352.009766	72763.218750
1350.925781	73148.843750
1349.840820	73175.953125
1348.755859	72829.070313
1347.669922	73001.757813
1346.584961	72057.335938
1345.499023	72626.250000
1344.413086	72270.757813
1343.327148	72011.593750
1342.240234	71888.976563
1341.154297	72399.351563
1340.067383	71865.250000
1338.980469	72473.804688
1337.893555	72304.242188
1336.805664	72096.742188
1335.718750	71987.632813
1334.630859	72278.468750
1333.542969	72171.593750
1332.455078	71828.023438
1331.367188	72446.960938
1330.278320	72619.164063
1329.189453	72784.609375
1328.100586	72351.898438
1327.011719	72419.148438
1325.922852	72696.070313
1324.833008	72734.234375
1323.743164	73048.914063
1322.653320	72890.773438
1321.563477	72890.976563
1320.473633	73352.546875
1319.382813	73571.046875
1318.291992	73270.320313
1317.201172	73457.562500
1316.110352	73814.007813
1315.019531	74310.609375
1313.927734	74660.085938
1312.835938	74637.679688
1311.744141	75004.765625
1310.652344	75298.281250
1309.560547	75160.070313
1308.467773	75629.179688
1307.375000	76095.890625
1306.282227	75708.546875
1305.189453	75994.992188
1304.095703	75672.265625
1303.002930	76091.945313
1301.909180	76138.171875
1300.815430	75813.359375
1299.721680	75801.859375
1298.626953	76218.984375
1297.533203	76467.195313
1296.438477	76733.078125
1295.343750	76916.734375
1294.248047	77018.203125
1293.153320	77303.804688
1292.057617	77813.351563
1290.961914	77919.039063
1289.866211	78279.703125
1288.770508	78713.406250
1287.674805	78302.335938
1286.578125	79449.554688
1285.481445	78963.156250
1284.384766	79914.859375
1283.288086	79078.539063
1282.190430	79460.664063
1281.092773	79326.687500
1279.996094	78838.523438
1278.897461	78853.015625
1277.799805	79245.953125
1276.702148	78656.265625
1275.603516	78650.859375
1274.504883	78714.023438
1273.406250	79013.804688
1272.307617	78141.539063
1271.208008	78772.929688
1270.108398	78519.929688
1269.008789	77931.093750
1267.909180	77967.789063
1266.809570	78017.718750
1265.708984	77440.328125
1264.609375	77379.914063
1263.508789	78092.304688
1262.407227	77455.601563
1261.306641	76680.078125
1260.206055	76719.132813
1259.104492	75842.515625
1258.002930	76104.507813
1256.901367	75587.828125
1255.798828	75150.718750
1254.697266	75644.187500
1253.594727	75112.429688
1252.492188	74907.054688
1251.389648	74911.093750
1250.286133	74930.546875
1249.183594	73974.156250
1248.080078	74112.695313
1246.976563	73643.429688
1245.872070	73678.500000
1244.768555	73125.835938
1243.664063	72828.656250
1242.560547	72951.859375
1241.455078	72661.414063
1240.350586	73182.726563
1239.246094	72749.390625
1238.140625	72390.968750
1237.035156	72646.031250
1235.929688	72861.429688
1234.824219	73043.781250
1233.717773	72958.007813
1232.612305	72586.679688
1231.505859	72786.546875
1230.399414	71506.226563
1229.291992	72485.656250
1228.185547	72645.906250
1227.078125	72136.679688
1225.970703	72601.953125
1224.863281	72128.023438
1223.755859	72498.796875
1222.647461	71663.164063
1221.539063	71959.328125
1220.430664	71792.781250
1219.322266	72220.328125
1218.213867	72272.945313
1217.104492	72599.453125
1215.995117	71703.351563
1214.885742	71957.546875
1213.776367	71896.281250
1212.666992	71997.070313
1211.556641	71896.414063
1210.446289	71885.523438
1209.335938	72257.617188
1208.225586	72312.304688
1207.115234	72139.453125
1206.003906	72076.031250
1204.892578	72174.445313
1203.781250	72519.890625
1202.669922	72500.140625
1201.557617	72878.187500
1200.446289	73087.820313
1199.333984	72832.000000
1198.221680	72934.523438
1197.108398	72881.945313
1195.996094	73731.226563
1194.882813	74543.078125
1193.769531	73813.531250
1192.656250	74749.468750
1191.542969	74550.390625
1190.428711	74545.546875
1189.314453	74750.101563
1188.200195	75011.281250
1187.085938	74751.234375
1185.971680	75583.492188
1184.856445	75541.390625
1183.741211	75647.500000
1182.625977	76450.804688
1181.510742	76870.406250
1180.395508	77583.890625
1179.279297	78059.742188
1178.163086	78237.125000
1177.046875	78725.742188
1175.930664	78979.109375
1174.813477	78742.757813
1173.697266	78904.640625
1172.580078	78774.976563
1171.462891	78571.398438
1170.344727	77985.179688
