#Wave		#Intensity
2001.221680	37627.792969
2000.251953	37803.250000
1999.282227	37551.054688
1998.312500	37865.222656
1997.342773	37798.488281
1996.372070	37741.792969
1995.402344	38216.035156
1994.431641	37505.769531
1993.460938	37454.156250
1992.490234	37850.601563
1991.518555	37463.601563
1990.547852	37802.355469
1989.576172	37505.554688
1988.604492	37651.582031
1987.632813	37945.105469
1986.661133	38035.992188
1985.689453	37984.347656
1984.716797	37802.746094
1983.745117	37758.656250
1982.772461	37774.546875
1981.799805	38107.703125
1980.827148	37771.339844
1979.853516	37844.656250
1978.880859	38117.695313
1977.907227	38240.851563
1976.933594	37989.554688
1975.959961	38047.800781
1974.986328	38313.125000
1974.011719	37607.906250
1973.038086	38087.718750
1972.063477	38058.617188
1971.088867	38368.625000
1970.114258	38346.960938
1969.138672	38773.957031
1968.164063	38159.105469
1967.188477	38025.359375
1966.212891	38506.992188
1965.237305	37857.632813
1964.261719	38167.289063
1963.286133	38065.996094
1962.309570	38178.835938
1961.333984	38296.609375
1960.357422	38003.718750
1959.380859	38479.781250
1958.404297	38184.472656
1957.426758	38095.710938
1956.450195	38770.449219
1955.472656	38214.164063
1954.495117	38137.867188
1953.517578	38158.539063
1952.540039	38199.078125
1951.561523	38383.714844
1950.583008	38295.019531
1949.605469	38496.960938
1948.626953	38336.250000
1947.647461	38361.820313
1946.668945	38161.468750
1945.690430	38537.031250
1944.710938	38455.835938
1943.731445	38590.535156
1942.751953	38400.199219
1941.772461	38706.000000
1940.791992	38384.273438
1939.812500	38451.937500
1938.832031	38249.359375
1937.851563	38639.242188
1936.871094	38672.128906
1935.890625	38412.625000
1934.909180	38809.699219
1933.928711	38503.199219
1932.947266	38979.363281
1931.965820	38432.765625
1930.984375	38426.031250
1930.002930	39023.238281
1929.020508	38751.605469
1928.038086	38546.875000
1927.056641	38342.214844
1926.074219	38657.039063
1925.090820	38553.820313
1924.108398	38826.460938
1923.125000	39071.812500
1922.142578	38852.402344
1921.159180	38628.121094
1920.175781	38492.871094
1919.191406	38777.628906
1918.208008	38452.207031
1917.223633	38885.042969
1916.240234	38893.039063
1915.255859	38809.695313
1914.271484	38533.855469
1913.286133	38687.503906
1912.301758	38942.261719
1911.316406	38609.796875
1910.331055	38948.335938
1909.345703	38633.250000
1908.360352	38754.687500
1907.375000	38905.664063
1906.388672	38903.769531
1905.402344	38394.222656
1904.416016	38899.976563
1903.429688	38767.515625
1902.443359	39144.949219
1901.457031	39310.464844
1900.469727	38951.476563
1899.482422	38735.394531
1898.495117	39282.394531
1897.507813	39046.640625
1896.520508	38877.398438
1895.532227	39330.597656
1894.543945	39407.320313
1893.556641	39575.003906
1892.568359	39462.332031
1891.579102	39543.906250
1890.590820	39509.925781
1889.601563	39158.953125
1888.613281	39378.121094
1887.624023	39388.406250
1886.634766	39162.894531
1885.644531	39455.613281
1884.655273	39441.320313
1883.665039	39228.187500
1882.674805	39569.824219
1881.684570	39381.281250
1880.694336	39121.652344
1879.704102	39097.609375
1878.712891	39358.082031
1877.722656	39383.050781
1876.731445	39150.566406
1875.740234	39170.652344
1874.748047	39352.496094
1873.756836	39264.714844
1872.764648	39441.574219
1871.773438	39170.078125
1870.781250	39368.933594
1869.788086	39229.781250
1868.795898	39426.101563
1867.803711	39025.054688
1866.810547	39451.406250
1865.817383	39341.695313
1864.824219	39087.667969
1863.831055	39406.144531
1862.837891	39245.132813
1861.843750	39211.335938
1860.849609	39661.644531
1859.855469	39564.226563
1858.861328	39508.386719
1857.867188	39161.773438
1856.872070	39462.734375
1855.877930	39326.328125
1854.882813	39236.371094
1853.887695	39395.523438
1852.892578	39308.023438
1851.896484	39508.601563
1850.901367	39777.445313
1849.905273	39633.796875
1848.909180	39729.292969
1847.913086	39766.214844
1846.916992	39571.421875
1845.919922	40013.140625
1844.923828	39620.886719
1843.926758	40189.199219
1842.929688	39792.175781
1841.932617	39982.550781
1840.935547	39897.550781
1839.937500	39907.582031
1838.939453	40295.105469
1837.942383	40117.562500
1836.943359	40237.101563
1835.945313	39913.570313
1834.947266	40339.757813
1833.948242	39901.953125
1832.949219	40483.695313
1831.951172	40016.828125
1830.951172	39939.250000
1829.952148	40265.351563
1828.953125	40114.820313
1827.953125	40017.820313
1826.953125	40365.601563
1825.953125	40390.082031
1824.953125	40562.750000
1823.952148	40038.218750
1822.952148	40436.746094
1821.951172	40810.851563
1820.950195	40505.046875
1819.949219	40209.054688
1818.948242	40388.843750
1817.946289	40534.597656
1816.945313	40871.957031
1815.943359	40658.578125
1814.941406	40551.980469
1813.939453	41049.187500
1812.936523	41029.832031
1811.934570	40719.609375
1810.931641	40814.218750
1809.928711	41189.871094
1808.925781	40797.410156
1807.921875	41248.019531
1806.918945	41051.847656
1805.915039	40911.437500
1804.912109	41921.019531
1803.908203	41734.507813
1802.903320	41407.699219
1801.899414	41531.058594
1800.894531	41722.113281
1799.890625	41131.824219
1798.885742	41593.734375
1797.880859	41804.015625
1796.875000	41801.476563
1795.870117	42214.679688
1794.864258	41813.316406
1793.858398	42141.796875
1792.852539	42134.363281
1791.846680	42339.484375
1790.840820	42324.769531
1789.833984	42063.773438
1788.828125	42336.390625
1787.821289	42546.152344
1786.814453	42608.628906
1785.806641	42499.769531
1784.799805	42504.332031
1783.791992	42286.988281
1782.784180	42554.441406
1781.776367	42537.285156
1780.768555	42626.207031
1779.760742	42881.402344
1778.751953	42796.714844
1777.743164	43307.187500
1776.735352	42897.238281
1775.725586	42692.160156
1774.716797	42829.113281
1773.708008	42956.382813
1772.698242	42833.246094
1771.688477	43167.457031
1770.678711	43352.351563
1769.668945	43440.933594
1768.659180	43897.542969
1767.648438	43509.773438
1766.637695	43538.156250
1765.626953	43357.355469
1764.616211	43767.972656
1763.605469	43344.437500
1762.593750	44146.609375
1761.583008	43730.363281
1760.571289	43710.625000
1759.559570	43748.535156
1758.547852	43824.851563
1757.535156	43985.171875
1756.523438	43972.593750
1755.510742	44449.640625
1754.498047	43954.652344
1753.485352	44491.511719
1752.472656	44262.953125
1751.458984	44075.250000
1750.445313	44242.507813
1749.432617	44759.750000
1748.417969	45267.214844
1747.404297	44727.144531
1746.390625	44740.800781
1745.375977	45156.953125
1744.361328	45165.738281
1743.346680	45061.949219
1742.332031	45010.875000
1741.317383	45390.765625
1740.302734	45629.292969
1739.287109	45530.273438
1738.271484	45644.257813
1737.255859	45861.074219
1736.240234	46618.410156
1735.223633	46100.750000
1734.208008	46757.343750
1733.191406	47236.785156
1732.174805	46712.113281
1731.158203	47095.792969
1730.140625	47414.820313
1729.124023	47492.433594
1728.106445	47882.933594
1727.088867	47989.089844
1726.071289	48701.714844
1725.053711	48564.171875
1724.035156	48567.511719
1723.017578	48582.777344
1721.999023	49006.062500
1720.980469	49565.179688
1719.961914	49811.628906
1718.942383	49449.847656
1717.923828	49793.988281
1716.904297	50028.335938
1715.884766	49843.089844
1714.865234	49553.050781
1713.844727	49434.667969
1712.825195	50538.453125
1711.804688	49988.808594
1710.784180	49691.792969
1709.763672	49559.175781
1708.743164	49976.527344
1707.722656	49777.257813
1706.701172	49142.554688
1705.679688	49281.363281
1704.658203	49636.609375
1703.636719	49746.738281
1702.615234	49476.332031
1701.592773	49103.777344
1700.571289	49318.535156
1699.548828	48988.921875
1698.526367	49265.406250
1697.502930	49278.054688
1696.480469	49335.835938
1695.457031	49132.324219
1694.433594	48938.386719
1693.410156	49008.058594
1692.386719	48942.398438
1691.363281	49341.953125
1690.338867	49224.042969
1689.314453	48757.394531
1688.290039	49156.765625
1687.265625	49022.343750
1686.241211	49272.125000
1685.215820	49256.273438
1684.191406	49380.285156
1683.166016	49170.066406
1682.140625	49203.996094
1681.115234	49481.945313
1680.088867	48978.078125
1679.062500	49225.175781
1678.037109	49280.375000
1677.010742	49363.964844
1675.983398	49677.136719
1674.957031	50016.230469
1673.930664	49758.890625
1672.903320	49407.003906
1671.875977	49109.644531
1670.848633	49793.886719
1669.820313	50376.207031
1668.792969	50140.296875
1667.764648	50320.500000
1666.736328	50422.640625
1665.708008	50666.523438
1664.679688	50272.433594
1663.651367	50438.304688
1662.622070	50802.492188
1661.592773	50769.859375
1660.563477	50852.914063
1659.534180	50747.101563
1658.504883	50910.371094
1657.474609	50950.875000
1656.444336	51196.617188
1655.415039	51378.582031
1654.383789	51720.843750
1653.353516	51289.585938
1652.323242	51502.078125
1651.291992	51441.070313
1650.260742	51915.046875
1649.229492	52035.414063
1648.198242	52094.484375
1647.166016	52311.343750
1646.134766	52356.210938
1645.102539	52422.250000
1644.070313	52843.742188
1643.038086	53375.707031
1642.004883	52568.441406
1640.972656	53213.199219
1639.939453	52897.914063
1638.906250	53523.566406
1637.873047	53457.609375
1636.839844	54184.035156
1635.805664	54063.914063
1634.772461	53936.777344
1633.738281	54801.375000
1632.704102	54258.277344
1631.668945	55019.140625
1630.634766	55124.441406
1629.599609	55081.757813
1628.565430	55238.656250
1627.530273	55698.324219
1626.494141	56096.800781
1625.458984	56342.597656
1624.422852	56564.847656
1623.387695	57547.054688
1622.351563	57806.531250
1621.315430	58713.121094
1620.278320	59558.429688
1619.242188	60368.273438
1618.205078	61473.128906
1617.167969	62720.535156
1616.130859	64773.441406
1615.093750	66108.820313
1614.055664	67905.109375
1613.018555	69316.718750
1611.980469	70533.507813
1610.942383	71237.234375
1609.904297	71283.054688
1608.865234	70399.898438
1607.827148	69753.343750
1606.788086	68634.515625
1605.749023	67483.335938
1604.709961	66119.789063
1603.669922	64836.207031
1602.630859	63345.046875
1601.590820	63013.585938
1600.550781	61885.453125
1599.510742	61594.082031
1598.470703	60844.996094
1597.429688	61042.000000
1596.389648	60739.253906
1595.348633	60198.488281
1594.307617	59898.328125
1593.265625	59651.945313
1592.224609	59487.316406
1591.182617	59658.675781
1590.140625	59307.500000
1589.098633	59404.203125
1588.056641	59148.789063
1587.014648	59245.480469
1585.971680	58899.281250
1584.928711	59177.746094
1583.886719	59300.000000
1582.842773	58974.933594
1581.799805	58740.820313
1580.755859	59314.851563
1579.712891	59055.144531
1578.668945	59631.238281
1577.625000	60006.960938
1576.580078	59733.300781
1575.536133	59476.019531
1574.491211	59872.496094
1573.446289	59826.925781
1572.401367	59832.531250
1571.356445	60419.375000
1570.311523	60520.171875
1569.265625	60748.757813
1568.219727	60117.476563
1567.173828	59360.960938
1566.127930	59473.480469
1565.082031	59448.929688
1564.035156	59561.386719
1562.988281	59049.273438
1561.941406	59010.875000
1560.894531	59165.121094
1559.847656	59096.546875
1558.799805	58659.109375
1557.751953	58787.812500
1556.704102	58765.718750
1555.656250	59114.632813
1554.608398	58436.386719
1553.560547	58824.636719
1552.511719	58853.527344
1551.462891	58877.769531
1550.414063	58751.417969
1549.365234	58907.695313
1548.315430	59059.281250
1547.265625	58627.316406
1546.216797	58765.003906
1545.166992	58275.375000
1544.116211	58387.617188
1543.066406	58636.328125
1542.015625	58355.179688
1540.965820	58354.003906
1539.915039	58357.449219
1538.863281	57792.101563
1537.812500	57915.851563
1536.760742	58716.773438
1535.709961	58105.441406
1534.658203	57815.480469
1533.605469	57232.246094
1532.553711	57113.457031
1531.501953	57364.191406
1530.449219	56700.531250
1529.396484	56923.542969
1528.343750	56885.664063
1527.290039	56695.496094
1526.237305	56366.964844
1525.183594	56423.777344
1524.129883	56146.148438
1523.076172	56027.722656
1522.022461	55715.675781
1520.968750	55765.640625
1519.914063	56115.195313
1518.859375	55897.769531
1517.804688	55456.937500
1516.750000	55177.507813
1515.694336	55572.972656
1514.639648	55749.542969
1513.583984	55573.800781
1512.528320	55639.816406
1511.472656	55459.550781
1510.416016	55438.117188
1509.360352	55043.996094
1508.303711	54942.132813
1507.247070	54771.312500
1506.190430	55055.824219
1505.132813	55183.902344
1504.076172	55208.496094
1503.018555	54890.664063
1501.960938	54779.734375
1500.903320	55148.976563
1499.844727	54946.160156
1498.787109	55060.328125
1497.728516	54650.949219
1496.669922	54912.046875
1495.611328	55443.886719
1494.552734	54917.617188
1493.493164	54614.089844
1492.434570	55127.339844
1491.375000	54672.503906
1490.315430	54529.703125
1489.254883	54772.132813
1488.195313	54441.386719
1487.134766	54527.890625
1486.074219	54323.335938
1485.013672	54446.484375
1483.953125	54290.121094
1482.892578	54509.417969
1481.831055	54710.316406
1480.769531	54657.007813
1479.708008	54452.636719
1478.646484	54305.550781
1477.583984	54478.875000
1476.522461	54395.894531
1475.459961	54255.753906
1474.397461	54314.636719
1473.334961	54231.722656
1472.271484	54539.777344
1471.208984	54207.695313
1470.145508	54168.261719
1469.082031	54690.945313
1468.018555	54589.750000
1466.954102	54577.671875
1465.890625	54417.152344
1464.826172	54927.988281
1463.761719	54888.453125
1462.697266	54903.710938
1461.631836	55183.687500
1460.567383	54833.808594
1459.501953	54849.062500
1458.436523	55135.730469
1457.371094	55308.269531
1456.305664	55435.144531
1455.239258	55251.941406
1454.172852	55075.636719
1453.107422	55505.562500
1452.040039	54948.773438
1450.973633	55506.132813
1449.907227	55211.464844
1448.839844	55212.933594
1447.772461	55382.886719
1446.705078	55448.058594
1445.637695	55417.613281
1444.569336	55628.390625
1443.500977	55770.832031
1442.432617	55510.589844
1441.364258	55671.195313
1440.295898	56177.375000
1439.227539	55994.492188
1438.158203	55988.976563
1437.088867	56281.183594
1436.019531	56750.523438
1434.950195	56819.843750
1433.879883	56789.187500
1432.810547	57242.277344
1431.740234	57059.417969
1430.669922	57124.078125
1429.598633	57604.097656
1428.528320	57194.320313
1427.457031	57292.949219
1426.386719	57584.375000
1425.314453	57240.593750
1424.243164	57314.210938
1423.171875	57764.187500
1422.099609	57561.101563
1421.027344	57439.687500
1419.955078	57610.652344
1418.882813	57351.054688
1417.810547	57315.820313
1416.737305	57502.558594
1415.664063	56939.667969
1414.590820	56877.347656
1413.517578	57423.992188
1412.444336	57160.167969
1411.370117	56640.726563
1410.295898	56655.421875
1409.221680	56941.562500
1408.147461	56569.445313
1407.073242	56724.335938
1405.998047	56607.863281
1404.922852	56640.625000
1403.847656	56501.605469
1402.772461	56493.691406
1401.697266	56921.816406
1400.621094	56843.804688
1399.544922	56781.625000
1398.468750	56816.562500
1397.392578	56770.207031
1396.316406	57434.894531
1395.239258	58167.039063
1394.162109	57569.898438
1393.084961	58053.593750
1392.007813	58354.410156
1390.930664	59045.261719
1389.852539	59420.191406
1388.774414	59824.292969
1387.696289	59707.578125
1386.618164	59931.191406
1385.540039	59918.136719
1384.460938	60461.515625
1383.382813	61175.875000
1382.303711	60682.937500
1381.223633	61077.277344
1380.144531	61372.421875
1379.064453	61444.636719
1377.985352	60758.464844
1376.905273	61138.996094
1375.825195	61271.945313
1374.744141	60833.570313
1373.664063	60802.363281
1372.583008	61049.953125
1371.501953	60526.429688
1370.420898	59625.515625
1369.338867	60237.199219
1368.257813	59554.582031
1367.175781	59813.394531
1366.093750	59083.933594
1365.011719	59589.730469
1363.929688	58833.625000
1362.846680	59516.605469
1361.763672	59032.335938
1360.680664	59115.925781
1359.597656	59589.839844
1358.514648	59496.093750
1357.430664	59353.042969
1356.346680	59127.082031
1355.262695	58816.007813
1354.178711	58451.253906
1353.094727	58182.988281
1352.009766	57854.324219
1350.925781	57700.507813
1349.840820	57475.070313
1348.755859	57240.757813
1347.669922	56984.136719
1346.584961	57034.289063
1345.499023	56623.359375
1344.413086	56566.144531
1343.327148	56623.050781
1342.240234	56715.722656
1341.154297	56168.707031
1340.067383	56299.441406
1338.980469	56029.925781
1337.893555	56053.335938
1336.805664	56514.781250
1335.718750	56466.585938
1334.630859	56798.203125
1333.542969	56332.261719
1332.455078	56487.351563
1331.367188	56637.914063
1330.278320	56533.914063
1329.189453	56588.429688
1328.100586	56435.371094
1327.011719	56465.335938
1325.922852	56493.054688
1324.833008	57288.050781
1323.743164	57304.457031
1322.653320	57648.621094
1321.563477	57852.207031
1320.473633	58650.832031
1319.382813	58954.445313
1318.291992	58930.417969
1317.201172	58890.800781
1316.110352	60363.515625
1315.019531	60323.648438
1313.927734	60793.656250
1312.835938	60459.878906
1311.744141	60555.777344
1310.652344	60720.617188
1309.560547	60582.816406
1308.467773	60598.550781
1307.375000	60216.167969
1306.282227	59682.718750
1305.189453	59293.964844
1304.095703	59149.867188
1303.002930	58899.136719
1301.909180	58792.933594
1300.815430	58433.496094
1299.721680	58727.226563
1298.626953	58501.175781
1297.533203	58346.257813
1296.438477	58628.742188
1295.343750	58862.285156
1294.248047	59066.894531
1293.153320	59420.085938
1292.057617	59393.800781
1290.961914	59274.359375
1289.866211	59352.332031
1288.770508	59292.804688
1287.674805	59348.570313
1286.578125	59535.082031
1285.481445	59776.925781
1284.384766	60218.082031
1283.288086	59407.480469
1282.190430	59587.191406
1281.092773	59357.171875
1279.996094	59563.390625
1278.897461	59302.460938
1277.799805	59063.753906
1276.702148	58889.304688
1275.603516	58863.144531
1274.504883	58799.390625
1273.406250	58397.281250
1272.307617	57990.890625
1271.208008	58285.468750
1270.108398	57976.500000
1269.008789	57627.859375
1267.909180	57579.847656
1266.809570	57920.671875
1265.708984	57530.257813
1264.609375	57241.566406
1263.508789	56977.269531
1262.407227	56883.046875
1261.306641	57475.292969
1260.206055	56270.996094
1259.104492	56638.082031
1258.002930	56382.941406
1256.901367	56304.343750
1255.798828	55934.679688
1254.697266	56248.636719
1253.594727	55982.722656
1252.492188	55831.511719
1251.389648	55512.875000
1250.286133	55599.742188
1249.183594	55737.242188
1248.080078	55244.800781
1246.976563	55091.644531
1245.872070	55031.007813
1244.768555	54866.937500
1243.664063	54850.375000
1242.560547	55067.058594
1241.455078	55127.460938
1240.350586	54919.488281
1239.246094	54753.375000
1238.140625	54941.324219
1237.035156	55239.121094
1235.929688	54927.964844
1234.824219	54555.386719
1233.717773	54666.324219
1232.612305	54509.207031
1231.505859	54523.468750
1230.399414	54981.312500
1229.291992	54422.421875
1228.185547	54326.921875
1227.078125	54468.492188
1225.970703	54089.937500
1224.863281	54156.898438
1223.755859	53745.628906
1222.647461	53762.179688
1221.539063	53658.117188
1220.430664	53782.101563
1219.322266	53160.753906
1218.213867	53858.984375
1217.104492	53597.203125
1215.995117	54165.835938
1214.885742	54272.062500
1213.776367	54378.285156
1212.666992	53284.535156
1211.556641	53414.953125
1210.446289	52958.722656
1209.335938	53115.410156
1208.225586	53368.316406
1207.115234	53299.542969
1206.003906	53486.699219
1204.892578	53592.871094
1203.781250	53801.769531
1202.669922	53597.421875
1201.557617	53382.222656
1200.446289	53582.292969
1199.333984	53815.062500
1198.221680	53862.066406
1197.108398	53865.367188
1195.996094	54338.156250
1194.882813	54083.738281
1193.769531	54423.156250
1192.656250	53978.937500
1191.542969	54536.449219
1190.428711	54557.066406
1189.314453	53942.921875
1188.200195	54310.394531
1187.085938	54398.625000
1185.971680	54046.449219
1184.856445	53894.929688
1183.741211	54150.988281
1182.625977	54343.761719
1181.510742	54562.609375
1180.395508	54182.394531
1179.279297	54425.136719
1178.163086	54367.324219
1177.046875	54727.496094
1175.930664	54358.398438
1174.813477	54039.488281
1173.697266	54192.820313
1172.580078	54159.019531
1171.462891	54012.128906
1170.344727	53669.582031
