#Wave		#Intensity
2001.248047	37863.585938
2000.278320	37547.765625
1999.308594	37616.394531
1998.338867	38321.429688
1997.369141	38196.996094
1996.398438	37924.820313
1995.428711	37790.480469
1994.458008	38184.503906
1993.487305	37995.085938
1992.516602	37788.207031
1991.545898	38019.355469
1990.574219	37925.140625
1989.603516	38063.617188
1988.631836	37819.347656
1987.660156	37897.769531
1986.688477	38111.183594
1985.715820	37707.031250
1984.744141	38105.371094
1983.771484	38381.109375
1982.798828	38069.570313
1981.826172	37890.539063
1980.853516	38068.757813
1979.880859	37952.222656
1978.907227	37845.710938
1977.933594	38071.273438
1976.959961	38122.027344
1975.986328	38454.765625
1975.012695	38240.945313
1974.039063	38191.851563
1973.064453	38462.042969
1972.089844	37949.066406
1971.115234	38129.441406
1970.140625	38613.894531
1969.166016	38332.960938
1968.190430	38308.816406
1967.215820	38538.828125
1966.240234	38300.402344
1965.264648	38067.039063
1964.289063	38563.441406
1963.312500	38118.464844
1962.336914	38659.492188
1961.360352	38533.253906
1960.383789	38459.320313
1959.407227	38529.726563
1958.430664	38766.789063
1957.454102	38757.519531
1956.476563	38643.804688
1955.499023	38721.582031
1954.521484	38752.097656
1953.543945	38834.800781
1952.566406	38527.300781
1951.587891	38754.121094
1950.610352	38801.996094
1949.631836	38887.105469
1948.653320	38984.605469
1947.674805	39384.988281
1946.696289	39132.324219
1945.716797	38760.605469
1944.737305	38736.449219
1943.758789	39362.382813
1942.779297	38876.699219
1941.798828	39264.269531
1940.819336	39244.996094
1939.838867	39324.906250
1938.859375	39392.394531
1937.878906	39167.375000
1936.898438	39269.558594
1935.916992	39408.871094
1934.936523	39206.257813
1933.955078	39320.757813
1932.974609	39851.265625
1931.993164	39160.902344
1931.010742	39802.648438
1930.029297	39741.222656
1929.047852	39474.414063
1928.065430	39712.453125
1927.083008	39663.437500
1926.100586	39248.375000
1925.118164	39696.527344
1924.135742	39704.406250
1923.152344	39929.828125
1922.168945	39653.417969
1921.185547	39784.859375
1920.202148	40002.730469
1919.218750	39914.195313
1918.235352	39820.750000
1917.250977	40070.601563
1916.266602	39910.496094
1915.282227	39856.593750
1914.297852	40414.832031
1913.313477	40027.703125
1912.328125	39823.296875
1911.343750	39996.398438
1910.358398	40243.437500
1909.373047	39992.238281
1908.387695	40290.964844
1907.401367	40545.207031
1906.416016	40022.960938
1905.429688	40114.515625
1904.443359	40555.910156
1903.457031	40267.957031
1902.470703	40327.398438
1901.483398	40869.484375
1900.497070	40185.214844
1899.509766	40488.343750
1898.522461	40722.449219
1897.535156	40555.347656
1896.546875	40703.238281
1895.559570	41094.621094
1894.571289	40693.875000
1893.583008	40671.976563
1892.594727	40967.261719
1891.606445	41060.859375
1890.618164	40817.699219
1889.628906	40810.535156
1888.639648	40798.457031
1887.650391	40835.511719
1886.661133	40992.902344
1885.671875	40936.593750
1884.682617	41174.929688
1883.692383	41145.609375
1882.702148	40961.664063
1881.711914	40885.761719
1880.721680	41143.562500
1879.731445	41187.851563
1878.740234	40908.371094
1877.749023	41212.621094
1876.757813	41131.828125
1875.766602	41401.609375
1874.775391	41784.039063
1873.784180	41583.109375
1872.791992	41472.898438
1871.799805	41237.792969
1870.807617	42090.230469
1869.815430	42006.921875
1868.823242	41686.144531
1867.830078	41629.863281
1866.837891	41627.441406
1865.844727	41774.292969
1864.851563	41720.460938
1863.858398	42246.406250
1862.864258	41766.941406
1861.871094	42031.035156
1860.876953	41742.480469
1859.882813	41977.148438
1858.888672	41801.125000
1857.894531	41950.167969
1856.899414	42121.148438
1855.905273	42238.324219
1854.910156	41932.929688
1853.915039	42289.402344
1852.919922	42032.929688
1851.923828	42586.984375
1850.928711	42015.707031
1849.932617	42374.347656
1848.936523	42230.265625
1847.940430	42103.308594
1846.944336	42547.105469
1845.947266	42412.816406
1844.951172	42646.722656
1843.954102	42517.339844
1842.957031	42465.988281
1841.959961	42928.812500
1840.962891	42723.914063
1839.964844	42716.394531
1838.966797	42806.296875
1837.969727	42881.554688
1836.970703	43171.035156
1835.972656	42920.015625
1834.974609	43241.019531
1833.975586	43123.906250
1832.976563	43551.808594
1831.978516	43184.132813
1830.978516	43519.449219
1829.979492	43212.695313
1828.980469	42874.441406
1827.980469	42964.121094
1826.980469	43323.539063
1825.980469	43199.273438
1824.980469	43461.339844
1823.979492	43699.023438
1822.979492	43705.898438
1821.978516	43503.941406
1820.977539	43576.394531
1819.976563	43925.539063
1818.975586	43330.484375
1817.973633	43880.945313
1816.972656	43945.996094
1815.970703	43569.554688
1814.968750	44071.175781
1813.966797	43753.035156
1812.963867	43691.988281
1811.961914	43858.812500
1810.958984	43824.421875
1809.956055	43872.429688
1808.953125	44005.210938
1807.950195	44079.808594
1806.946289	44013.914063
1805.943359	44260.402344
1804.939453	44722.261719
1803.935547	44174.601563
1802.930664	44106.308594
1801.926758	44405.828125
1800.922852	44405.257813
1799.917969	44469.992188
1798.913086	44423.453125
1797.908203	44551.027344
1796.903320	44132.187500
1795.897461	44283.929688
1794.891602	44300.285156
1793.886719	44637.996094
1792.880859	44869.289063
1791.874023	44571.527344
1790.868164	44723.050781
1789.862305	45164.265625
1788.855469	45272.175781
1787.848633	45182.121094
1786.841797	44783.199219
1785.833984	45120.332031
1784.827148	45235.402344
1783.819336	45164.707031
1782.812500	45118.152344
1781.804688	45693.683594
1780.795898	45384.277344
1779.788086	45528.117188
1778.779297	45589.964844
1777.771484	45606.011719
1776.762695	45687.093750
1775.753906	45907.843750
1774.744141	45656.511719
1773.735352	46052.949219
1772.725586	46100.183594
1771.715820	46445.855469
1770.706055	46252.355469
1769.696289	46056.515625
1768.686523	46252.859375
1767.675781	46701.675781
1766.666016	46347.136719
1765.655273	46596.214844
1764.644531	46554.328125
1763.632813	46822.507813
1762.622070	46819.039063
1761.610352	46762.714844
1760.598633	46982.660156
1759.586914	46991.171875
1758.575195	47213.398438
1757.563477	47269.878906
1756.550781	47624.003906
1755.538086	47613.187500
1754.525391	47616.769531
1753.512695	47937.050781
1752.500000	48175.656250
1751.486328	48056.812500
1750.473633	47743.773438
1749.459961	48217.238281
1748.446289	47983.382813
1747.432617	48013.246094
1746.417969	48251.574219
1745.404297	48664.710938
1744.389648	48239.300781
1743.375000	48525.355469
1742.360352	48648.472656
1741.344727	48297.503906
1740.330078	49011.871094
1739.314453	48878.746094
1738.298828	48874.886719
1737.283203	49079.167969
1736.267578	49005.902344
1735.251953	49344.015625
1734.235352	49770.484375
1733.218750	50072.476563
1732.202148	49826.972656
1731.185547	50358.277344
1730.168945	50385.207031
1729.151367	51016.566406
1728.133789	51172.355469
1727.117188	51595.566406
1726.098633	51691.500000
1725.081055	51582.078125
1724.063477	52494.316406
1723.044922	52169.996094
1722.026367	52778.769531
1721.007813	53005.609375
1719.989258	53437.500000
1718.970703	53292.097656
1717.951172	53356.578125
1716.931641	53366.203125
1715.912109	53921.660156
1714.892578	53368.746094
1713.873047	53802.484375
1712.853516	54298.007813
1711.833008	53945.394531
1710.812500	54371.648438
1709.791992	53945.332031
1708.771484	54038.140625
1707.750000	54147.578125
1706.729492	53821.468750
1705.708008	54225.941406
1704.686523	53483.617188
1703.665039	53600.199219
1702.642578	53923.636719
1701.621094	53595.468750
1700.598633	53840.335938
1699.576172	53533.687500
1698.553711	53502.808594
1697.531250	53291.363281
1696.507813	53407.820313
1695.485352	52923.320313
1694.461914	53168.031250
1693.438477	53379.417969
1692.415039	53239.386719
1691.390625	53135.007813
1690.367188	53111.343750
1689.342773	53455.449219
1688.318359	53087.761719
1687.293945	53543.218750
1686.269531	53588.261719
1685.244141	53408.046875
1684.218750	53633.253906
1683.194336	52957.738281
1682.168945	53495.742188
1681.142578	53599.972656
1680.117188	52872.703125
1679.090820	53670.953125
1678.064453	53872.183594
1677.038086	53625.863281
1676.011719	53928.812500
1674.985352	53637.597656
1673.958008	54063.480469
1672.931641	53980.539063
1671.904297	53644.519531
1670.876953	54096.187500
1669.848633	54195.355469
1668.821289	54060.429688
1667.792969	54495.226563
1666.764648	54386.289063
1665.736328	54364.816406
1664.708008	54572.515625
1663.679688	54662.035156
1662.650391	54753.878906
1661.621094	54536.363281
1660.591797	54831.226563
1659.562500	54663.335938
1658.533203	54443.585938
1657.502930	55108.761719
1656.472656	54893.722656
1655.442383	55023.136719
1654.412109	55034.585938
1653.381836	55079.039063
1652.351563	55338.007813
1651.320313	55629.882813
1650.289063	55909.867188
1649.257813	55921.140625
1648.226563	55637.921875
1647.194336	55449.019531
1646.163086	55818.320313
1645.130859	56043.855469
1644.098633	55800.832031
1643.066406	56181.632813
1642.033203	56689.378906
1641.000977	56453.417969
1639.967773	56490.429688
1638.934570	56628.566406
1637.901367	56533.835938
1636.868164	57410.199219
1635.833984	57186.062500
1634.800781	56882.093750
1633.766602	57059.972656
1632.732422	57491.542969
1631.697266	57464.871094
1630.663086	57626.105469
1629.627930	58268.687500
1628.593750	57899.089844
1627.558594	58116.496094
1626.522461	58650.671875
1625.487305	58619.117188
1624.451172	58831.574219
1623.416016	59219.894531
1622.379883	59537.707031
1621.343750	60021.902344
1620.306641	60470.750000
1619.270508	60783.476563
1618.233398	62823.410156
1617.196289	63159.035156
1616.159180	64497.292969
1615.122070	66291.851563
1614.083984	67856.250000
1613.046875	69101.625000
1612.008789	70149.890625
1610.970703	70909.867188
1609.932617	70850.429688
1608.893555	70437.679688
1607.855469	69830.890625
1606.816406	68786.890625
1605.777344	67308.265625
1604.738281	66185.578125
1603.698242	64195.941406
1602.659180	63782.460938
1601.619141	63079.328125
1600.579102	61768.921875
1599.539063	61082.750000
1598.499023	60660.761719
1597.458008	60598.574219
1596.417969	59964.339844
1595.376953	59026.835938
1594.335938	58950.957031
1593.294922	59099.144531
1592.252930	59051.277344
1591.210938	58560.175781
1590.169922	58080.910156
1589.127930	58247.789063
1588.084961	58339.996094
1587.042969	58063.835938
1586.000000	57876.339844
1584.958008	57854.367188
1583.915039	57932.589844
1582.872070	57978.167969
1581.828125	58007.425781
1580.785156	57636.125000
1579.741211	57474.503906
1578.697266	58118.390625
1577.653320	58303.535156
1576.609375	57937.089844
1575.564453	58422.332031
1574.520508	58256.050781
1573.475586	58241.003906
1572.430664	58914.285156
1571.384766	58657.320313
1570.339844	58460.886719
1569.293945	58462.074219
1568.249023	58316.863281
1567.202148	58250.695313
1566.156250	57884.890625
1565.110352	57800.238281
1564.063477	57351.042969
1563.017578	57050.597656
1561.970703	56443.847656
1560.922852	57257.667969
1559.875977	56616.289063
1558.829102	56891.542969
1557.781250	56408.183594
1556.733398	56623.070313
1555.685547	56777.593750
1554.636719	56482.292969
1553.588867	56296.039063
1552.540039	56568.722656
1551.491211	56055.804688
1550.442383	56024.941406
1549.393555	56327.632813
1548.344727	56669.582031
1547.294922	56414.015625
1546.245117	56430.308594
1545.195313	56446.601563
1544.145508	56462.890625
1543.094727	56479.199219
1542.044922	56495.492188
1540.994141	55946.472656
1539.943359	56216.292969
1538.892578	56069.828125
1537.840820	56034.375000
1536.790039	55603.695313
1535.738281	55801.738281
1534.686523	55341.214844
1533.634766	56287.695313
1532.583008	55658.636719
1531.530273	55283.820313
1530.477539	55128.476563
1529.424805	55160.171875
1528.372070	55258.781250
1527.319336	55188.902344
1526.265625	55172.109375
1525.212891	54920.027344
1524.159180	55378.398438
1523.105469	55103.304688
1522.051758	55672.140625
1520.997070	55323.324219
1519.942383	54829.433594
1518.888672	54976.316406
1517.833984	54867.410156
1516.778320	55090.246094
1515.723633	55352.148438
1514.667969	55238.621094
1513.612305	54940.953125
1512.556641	54924.214844
1511.500977	55073.183594
1510.445313	54821.714844
1509.388672	54892.421875
1508.332031	54716.980469
1507.275391	54964.761719
1506.218750	54784.765625
1505.162109	54728.976563
1504.104492	55093.839844
1503.047852	54893.230469
1501.990234	55136.148438
1500.931641	54924.109375
1499.874023	55238.136719
1498.816406	55432.628906
1497.757813	54901.488281
1496.699219	54505.984375
1495.640625	55040.191406
1494.582031	55122.125000
1493.522461	55210.910156
1492.462891	54588.515625
1491.403320	54842.496094
1490.343750	55064.281250
1489.284180	54976.460938
1488.224609	54714.445313
1487.164063	54560.246094
1486.103516	54813.996094
1485.042969	54572.765625
1483.982422	54844.742188
1482.920898	54573.812500
1481.860352	54554.871094
1480.798828	54847.304688
1479.737305	55059.511719
1478.675781	54228.003906
1477.613281	54627.878906
1476.550781	54725.613281
1475.489258	54445.878906
1474.426758	54657.957031
1473.363281	54963.707031
1472.300781	54448.593750
1471.237305	54699.410156
1470.174805	54899.855469
1469.111328	54935.707031
1468.046875	54882.441406
1466.983398	55101.011719
1465.919922	55187.042969
1464.855469	55540.195313
1463.791016	55491.417969
1462.726563	55844.382813
1461.661133	55854.898438
1460.596680	55653.210938
1459.531250	56234.078125
1458.465820	56249.074219
1457.400391	56118.113281
1456.334961	56322.363281
1455.268555	56731.710938
1454.202148	56352.289063
1453.135742	56182.652344
1452.069336	56013.070313
1451.002930	56784.378906
1449.935547	56482.644531
1448.869141	56540.816406
1447.801758	57031.558594
1446.734375	56456.769531
1445.666016	57015.625000
1444.598633	57173.777344
1443.530273	57281.816406
1442.461914	57287.449219
1441.393555	57693.359375
1440.325195	57662.531250
1439.256836	58086.414063
1438.187500	58100.980469
1437.118164	58754.171875
1436.048828	58832.234375
1434.979492	59189.707031
1433.909180	59690.156250
1432.839844	59813.421875
1431.769531	60129.644531
1430.699219	60030.296875
1429.627930	60096.679688
1428.557617	60303.742188
1427.486328	60220.292969
1426.416016	59860.093750
1425.343750	60298.441406
1424.272461	60251.312500
1423.201172	60106.699219
1422.128906	59848.789063
1421.056641	59647.632813
1419.984375	59165.535156
1418.912109	59281.777344
1417.839844	59391.179688
1416.766602	59554.898438
1415.693359	59025.601563
1414.620117	59055.738281
1413.546875	59509.179688
1412.473633	59534.683594
1411.399414	59422.140625
1410.325195	59379.773438
1409.250977	59678.996094
1408.176758	59258.886719
1407.102539	59401.988281
1406.027344	59639.996094
1404.952148	59703.855469
1403.876953	59986.917969
1402.801758	59723.035156
1401.726563	59793.617188
1400.650391	60108.128906
1399.574219	60576.097656
1398.498047	60386.804688
1397.421875	60436.886719
1396.345703	61051.253906
1395.268555	60694.968750
1394.191406	60884.855469
1393.114258	60490.371094
1392.037109	61309.535156
1390.959961	61445.078125
1389.881836	61549.003906
1388.804688	61844.511719
1387.726563	61862.671875
1386.647461	62345.058594
1385.569336	62550.128906
1384.491211	63406.171875
1383.412109	63378.980469
1382.333008	63428.359375
1381.253906	63828.960938
1380.173828	63878.238281
1379.094727	64229.089844
1378.014648	63965.476563
1376.934570	64372.433594
1375.854492	64063.890625
1374.773438	63494.562500
1373.693359	63645.023438
1372.612305	63514.386719
1371.531250	63462.472656
1370.450195	63340.902344
1369.369141	62895.792969
1368.287109	62540.707031
1367.205078	61826.347656
1366.123047	61882.570313
1365.041016	61846.710938
1363.958984	61395.523438
1362.875977	61148.757813
1361.793945	61173.632813
1360.710938	60738.511719
1359.626953	61292.898438
1358.543945	61145.015625
1357.460938	60508.289063
1356.376953	60826.976563
1355.292969	60578.367188
1354.208984	60302.945313
1353.124023	60249.484375
1352.040039	60133.300781
1350.955078	59954.429688
1349.870117	59860.734375
1348.785156	59740.199219
1347.700195	59485.363281
1346.614258	59564.167969
1345.528320	59658.605469
1344.442383	59417.343750
1343.356445	59200.777344
1342.270508	59780.644531
1341.183594	59910.750000
1340.096680	59327.472656
1339.009766	59035.054688
1337.922852	59297.101563
1336.835938	59574.699219
1335.748047	59228.753906
1334.661133	59497.324219
1333.573242	59209.589844
1332.484375	59348.523438
1331.396484	59373.527344
1330.307617	59624.003906
1329.219727	59184.664063
1328.130859	59539.968750
1327.041992	59942.000000
1325.952148	59721.460938
1324.863281	59880.183594
1323.773438	59786.843750
1322.683594	59715.835938
1321.593750	59794.210938
1320.502930	59420.089844
1319.413086	59868.417969
1318.322266	60124.960938
1317.231445	59726.472656
1316.140625	59588.718750
1315.048828	59451.007813
1313.958008	60117.105469
1312.866211	60469.082031
1311.774414	60028.589844
1310.682617	60149.023438
1309.589844	60038.023438
1308.498047	60596.625000
1307.405273	60305.429688
1306.312500	60238.925781
1305.218750	60390.324219
1304.125977	60277.144531
1303.032227	60310.687500
1301.939453	60504.199219
1300.845703	60748.738281
1299.750977	61008.738281
1298.657227	61017.679688
1297.562500	61313.058594
1296.467773	61699.343750
1295.373047	61404.062500
1294.278320	61557.167969
1293.183594	61443.957031
1292.087891	61539.316406
1290.992188	61399.527344
1289.896484	62011.562500
1288.800781	61984.812500
1287.704102	61532.437500
1286.608398	61680.875000
1285.511719	62077.453125
1284.415039	61915.542969
1283.317383	61811.289063
1282.220703	61188.800781
1281.123047	60940.773438
1280.025391	60929.730469
1278.927734	60898.769531
1277.830078	60336.644531
1276.731445	59500.332031
1275.633789	60343.539063
1274.535156	59255.355469
1273.436523	59510.007813
1272.336914	59497.011719
1271.238281	59024.167969
1270.138672	58562.542969
1269.039063	58567.398438
1267.939453	58225.339844
1266.839844	58579.300781
1265.739258	57844.191406
1264.638672	58087.667969
1263.538086	58284.687500
1262.437500	57470.550781
1261.336914	57164.363281
1260.235352	57127.511719
1259.134766	57084.054688
1258.033203	57071.496094
1256.930664	56772.207031
1255.829102	57178.691406
1254.726563	56173.953125
1253.625000	55978.589844
1252.522461	56149.164063
1251.418945	55793.007813
1250.316406	55756.445313
1249.212891	56043.707031
1248.110352	55584.246094
1247.006836	55138.160156
1245.902344	55969.164063
1244.798828	55626.625000
1243.694336	55440.460938
1242.589844	55562.421875
1241.485352	55523.734375
1240.380859	55771.007813
1239.276367	55675.113281
1238.170898	55381.355469
1237.065430	55597.734375
1235.959961	54943.621094
1234.854492	54997.375000
1233.748047	55481.757813
1232.642578	55019.136719
1231.536133	55230.984375
1230.429688	54779.550781
1229.322266	55127.484375
1228.215820	55176.742188
1227.108398	54885.777344
1226.000977	55090.859375
1224.893555	54646.433594
1223.786133	54805.410156
1222.677734	54968.718750
1221.569336	54480.691406
1220.460938	54698.800781
1219.352539	54634.058594
1218.244141	54584.679688
1217.134766	54384.121094
1216.025391	54503.492188
1214.916016	54579.011719
1213.806641	54201.160156
1212.697266	54000.808594
1211.586914	54321.566406
1210.476563	54381.730469
1209.366211	54877.371094
1208.255859	54364.140625
1207.145508	54233.929688
1206.034180	54326.867188
1204.922852	54463.503906
1203.811523	54191.222656
1202.700195	54592.343750
1201.587891	54221.777344
1200.476563	54683.929688
1199.364258	54202.050781
1198.251953	55068.156250
1197.138672	55798.535156
1196.026367	55380.035156
1194.913086	55378.687500
1193.799805	55113.214844
1192.686523	55321.429688
1191.573242	55835.058594
1190.458984	55665.632813
1189.344727	55448.277344
1188.230469	55479.617188
1187.116211	55417.187500
1186.001953	55492.121094
1184.886719	55379.570313
1183.772461	55334.617188
1182.657227	55015.132813
1181.541016	55138.003906
1180.425781	55025.589844
1179.309570	55009.035156
1178.193359	55460.605469
1177.077148	55052.128906
1175.960938	54922.390625
1174.844727	54925.441406
1173.727539	54702.210938
1172.610352	54794.484375
1171.493164	54899.773438
1170.375977	55072.429688
