#Wave		#Intensity
2001.248047	42214.917969
2000.278320	41701.078125
1999.308594	42403.023438
1998.338867	42225.234375
1997.369141	41889.683594
1996.398438	42207.988281
1995.428711	42170.566406
1994.458008	42278.382813
1993.487305	42513.839844
1992.516602	42361.238281
1991.545898	42473.964844
1990.574219	42223.839844
1989.603516	42439.117188
1988.631836	41928.949219
1987.660156	42119.191406
1986.688477	42071.828125
1985.715820	41904.480469
1984.744141	42627.023438
1983.771484	42357.171875
1982.798828	42259.820313
1981.826172	42464.785156
1980.853516	42402.414063
1979.880859	42252.656250
1978.907227	42534.914063
1977.933594	42639.824219
1976.959961	42467.632813
1975.986328	42779.648438
1975.012695	42642.421875
1974.039063	42737.253906
1973.064453	43101.433594
1972.089844	42360.707031
1971.115234	43036.500000
1970.140625	42926.761719
1969.166016	42819.554688
1968.190430	42817.054688
1967.215820	43253.085938
1966.240234	42934.117188
1965.264648	42886.757813
1964.289063	42956.460938
1963.312500	43028.625000
1962.336914	43145.574219
1961.360352	43292.351563
1960.383789	43142.925781
1959.407227	43048.292969
1958.430664	43085.542969
1957.454102	42956.128906
1956.476563	42953.585938
1955.499023	43072.882813
1954.521484	43065.343750
1953.543945	43400.820313
1952.566406	43010.511719
1951.587891	43534.718750
1950.610352	43656.281250
1949.631836	43141.937500
1948.653320	43320.640625
1947.674805	43178.980469
1946.696289	43191.281250
1945.716797	43704.964844
1944.737305	43196.015625
1943.758789	43372.066406
1942.779297	43399.207031
1941.798828	43505.703125
1940.819336	43326.972656
1939.838867	43651.640625
1938.859375	43966.273438
1937.878906	43120.796875
1936.898438	43685.710938
1935.916992	43663.195313
1934.936523	43985.031250
1933.955078	44091.265625
1932.974609	43617.968750
1931.993164	43793.554688
1931.010742	43662.101563
1930.029297	43921.773438
1929.047852	44166.500000
1928.065430	43668.851563
1927.083008	43772.523438
1926.100586	43636.238281
1925.118164	43690.414063
1924.135742	44075.898438
1923.152344	43877.820313
1922.168945	44324.921875
1921.185547	44158.992188
1920.202148	43711.445313
1919.218750	44081.753906
1918.235352	43940.652344
1917.250977	44093.468750
1916.266602	43446.242188
1915.282227	44253.285156
1914.297852	44134.457031
1913.313477	43968.777344
1912.328125	43887.050781
1911.343750	43874.417969
1910.358398	44128.175781
1909.373047	43876.296875
1908.387695	44290.226563
1907.401367	44667.031250
1906.416016	44062.722656
1905.429688	44010.632813
1904.443359	43690.000000
1903.457031	44320.375000
1902.470703	44652.500000
1901.483398	44198.933594
1900.497070	44432.472656
1899.509766	44380.367188
1898.522461	44510.414063
1897.535156	44340.183594
1896.546875	44465.269531
1895.559570	44777.269531
1894.571289	44530.828125
1893.583008	44402.515625
1892.594727	44598.796875
1891.606445	44999.046875
1890.618164	44465.164063
1889.628906	44700.644531
1888.639648	44734.566406
1887.650391	44640.734375
1886.661133	45158.507813
1885.671875	44175.664063
1884.682617	44553.386719
1883.692383	44852.417969
1882.702148	44689.914063
1881.711914	44831.761719
1880.721680	44617.789063
1879.731445	45206.062500
1878.740234	44702.679688
1877.749023	45016.070313
1876.757813	44863.507813
1875.766602	45098.312500
1874.775391	44970.292969
1873.784180	45263.808594
1872.791992	45143.152344
1871.799805	44819.214844
1870.807617	45426.097656
1869.815430	44933.250000
1868.823242	45133.468750
1867.830078	45558.824219
1866.837891	45161.660156
1865.844727	44940.828125
1864.851563	45184.933594
1863.858398	45536.589844
1862.864258	45819.632813
1861.871094	45412.984375
1860.876953	45840.199219
1859.882813	45717.250000
1858.888672	45787.421875
1857.894531	45725.609375
1856.899414	46103.601563
1855.905273	46017.324219
1854.910156	46282.777344
1853.915039	46594.531250
1852.919922	45953.988281
1851.923828	46404.828125
1850.928711	46367.375000
1849.932617	46530.035156
1848.936523	46172.960938
1847.940430	46518.546875
1846.944336	46790.839844
1845.947266	45955.957031
1844.951172	46337.960938
1843.954102	46944.093750
1842.957031	47379.406250
1841.959961	46976.312500
1840.962891	46931.500000
1839.964844	47235.039063
1838.966797	47302.226563
1837.969727	47313.378906
1836.970703	47375.656250
1835.972656	47299.160156
1834.974609	47378.449219
1833.975586	47036.742188
1832.976563	47595.332031
1831.978516	47535.871094
1830.978516	47369.414063
1829.979492	47803.632813
1828.980469	47649.343750
1827.980469	47747.906250
1826.980469	47734.636719
1825.980469	47757.820313
1824.980469	47863.597656
1823.979492	48287.539063
1822.979492	48101.746094
1821.978516	47508.070313
1820.977539	48118.789063
1819.976563	47588.429688
1818.975586	48140.667969
1817.973633	47855.562500
1816.972656	47861.687500
1815.970703	48178.292969
1814.968750	48320.167969
1813.966797	48823.285156
1812.963867	48063.125000
1811.961914	47802.566406
1810.958984	48441.218750
1809.956055	48498.105469
1808.953125	48625.222656
1807.950195	48621.496094
1806.946289	48714.640625
1805.943359	48538.980469
1804.939453	48871.777344
1803.935547	48354.847656
1802.930664	48643.996094
1801.926758	48468.460938
1800.922852	48951.019531
1799.917969	48702.925781
1798.913086	49124.808594
1797.908203	49263.640625
1796.903320	48858.476563
1795.897461	49330.863281
1794.891602	49520.332031
1793.886719	49772.550781
1792.880859	49901.472656
1791.874023	49890.253906
1790.868164	49758.289063
1789.862305	50056.156250
1788.855469	50083.539063
1787.848633	49900.914063
1786.841797	49686.980469
1785.833984	49905.019531
1784.827148	50130.214844
1783.819336	49991.121094
1782.812500	50435.671875
1781.804688	50352.023438
1780.795898	50232.242188
1779.788086	50727.128906
1778.779297	49987.980469
1777.771484	50321.296875
1776.762695	50396.730469
1775.753906	50546.796875
1774.744141	50005.667969
1773.735352	50596.367188
1772.725586	51129.078125
1771.715820	50592.937500
1770.706055	50478.117188
1769.696289	50582.285156
1768.686523	51275.792969
1767.675781	51254.710938
1766.666016	50911.394531
1765.655273	51534.742188
1764.644531	50987.160156
1763.632813	51360.304688
1762.622070	51589.136719
1761.610352	51685.738281
1760.598633	51851.964844
1759.586914	51922.062500
1758.575195	51605.511719
1757.563477	51620.398438
1756.550781	51474.445313
1755.538086	52182.976563
1754.525391	51907.390625
1753.512695	51886.218750
1752.500000	52196.089844
1751.486328	52138.894531
1750.473633	52158.453125
1749.459961	52564.007813
1748.446289	52072.890625
1747.432617	52598.148438
1746.417969	52562.488281
1745.404297	52907.781250
1744.389648	53063.707031
1743.375000	52980.078125
1742.360352	52676.171875
1741.344727	53018.796875
1740.330078	53155.437500
1739.314453	53375.792969
1738.298828	53631.960938
1737.283203	53883.253906
1736.267578	53548.402344
1735.251953	53986.160156
1734.235352	54686.796875
1733.218750	54763.187500
1732.202148	54653.101563
1731.185547	55152.484375
1730.168945	55326.714844
1729.151367	55954.808594
1728.133789	56035.675781
1727.117188	56598.933594
1726.098633	56853.960938
1725.081055	57113.671875
1724.063477	57378.062500
1723.044922	57425.183594
1722.026367	57579.656250
1721.007813	58490.343750
1719.989258	58322.558594
1718.970703	58393.316406
1717.951172	58614.265625
1716.931641	58591.964844
1715.912109	58891.453125
1714.892578	59112.191406
1713.873047	59013.558594
1712.853516	59589.156250
1711.833008	59773.917969
1710.812500	59713.316406
1709.791992	59552.730469
1708.771484	59342.207031
1707.750000	59484.027344
1706.729492	59813.796875
1705.708008	59274.976563
1704.686523	59450.031250
1703.665039	59679.726563
1702.642578	59264.871094
1701.621094	59206.812500
1700.598633	59327.066406
1699.576172	59121.648438
1698.553711	59139.683594
1697.531250	58798.937500
1696.507813	58959.554688
1695.485352	59122.488281
1694.461914	58836.535156
1693.438477	58515.066406
1692.415039	58941.488281
1691.390625	59009.359375
1690.367188	59380.957031
1689.342773	58525.765625
1688.318359	58816.656250
1687.293945	59356.480469
1686.269531	59284.296875
1685.244141	59968.468750
1684.218750	59277.488281
1683.194336	59902.160156
1682.168945	59919.968750
1681.142578	59947.246094
1680.117188	59763.683594
1679.090820	59805.183594
1678.064453	60102.410156
1677.038086	60131.992188
1676.011719	60639.730469
1674.985352	60046.750000
1673.958008	60675.000000
1672.931641	60347.199219
1671.904297	60480.781250
1670.876953	60157.855469
1669.848633	60988.988281
1668.821289	60354.003906
1667.792969	60929.511719
1666.764648	60649.265625
1665.736328	61203.246094
1664.708008	60925.410156
1663.679688	61235.839844
1662.650391	61187.175781
1661.621094	61691.070313
1660.591797	61484.160156
1659.562500	61872.156250
1658.533203	61851.726563
1657.502930	61821.859375
1656.472656	61898.167969
1655.442383	61915.476563
1654.412109	61897.398438
1653.381836	62299.039063
1652.351563	62087.582031
1651.320313	62170.832031
1650.289063	62426.089844
1649.257813	62403.210938
1648.226563	62875.070313
1647.194336	62409.296875
1646.163086	62711.417969
1645.130859	62730.878906
1644.098633	62613.792969
1643.066406	63059.289063
1642.033203	63019.835938
1641.000977	63130.984375
1639.967773	63086.824219
1638.934570	63221.433594
1637.901367	63696.984375
1636.868164	65164.585938
1635.833984	64988.488281
1634.800781	64812.554688
1633.766602	64636.457031
1632.732422	64460.359375
1631.697266	64239.816406
1630.663086	64496.144531
1629.627930	64597.390625
1628.593750	65024.953125
1627.558594	65680.070313
1626.522461	65698.890625
1625.487305	65910.132813
1624.451172	66158.835938
1623.416016	66963.398438
1622.379883	66967.898438
1621.343750	67507.054688
1620.306641	67935.812500
1619.270508	68394.890625
1618.233398	69563.953125
1617.196289	70263.929688
1616.159180	71650.125000
1615.122070	72808.601563
1614.083984	74451.468750
1613.046875	75690.984375
1612.008789	77035.414063
1610.970703	77560.078125
1609.932617	77892.648438
1608.893555	77934.929688
1607.855469	77488.234375
1606.816406	76704.859375
1605.777344	75262.242188
1604.738281	74343.906250
1603.698242	73570.851563
1602.659180	72279.156250
1601.619141	71992.843750
1600.579102	70975.257813
1599.539063	70266.421875
1598.499023	70024.992188
1597.458008	68714.039063
1596.417969	68356.218750
1595.376953	68323.023438
1594.335938	68555.929688
1593.294922	68179.648438
1592.252930	67738.171875
1591.210938	67989.710938
1590.169922	67256.859375
1589.127930	67739.265625
1588.084961	67727.187500
1587.042969	67351.437500
1586.000000	67211.234375
1584.958008	67646.687500
1583.915039	67343.375000
1582.872070	67564.320313
1581.828125	67619.820313
1580.785156	68210.898438
1579.741211	68368.695313
1578.697266	68146.992188
1577.653320	68269.828125
1576.609375	68748.664063
1575.564453	68443.242188
1574.520508	69370.828125
1573.475586	69479.398438
1572.430664	70248.335938
1571.384766	70207.898438
1570.339844	70144.234375
1569.293945	70745.289063
1568.249023	70170.320313
1567.202148	69992.835938
1566.156250	69178.937500
1565.110352	68873.953125
1564.063477	68494.765625
1563.017578	68201.617188
1561.970703	67917.851563
1560.922852	67624.906250
1559.875977	66988.632813
1558.829102	66972.031250
1557.781250	66347.695313
1556.733398	66124.796875
1555.685547	66525.734375
1554.636719	66064.085938
1553.588867	65287.367188
1552.540039	65713.718750
1551.491211	65428.562500
1550.442383	65655.492188
1549.393555	64988.253906
1548.344727	65041.488281
1547.294922	65782.390625
1546.245117	64914.070313
1545.195313	65159.394531
1544.145508	64673.335938
1543.094727	65096.773438
1542.044922	64812.160156
1540.994141	65036.500000
1539.943359	64451.359375
1538.892578	64120.761719
1537.840820	64335.851563
1536.790039	64185.667969
1535.738281	64023.984375
1534.686523	64610.957031
1533.634766	64557.824219
1532.583008	64296.835938
1531.530273	63504.808594
1530.477539	63504.996094
1529.424805	63440.542969
1528.372070	63173.007813
1527.319336	63260.937500
1526.265625	63078.886719
1525.212891	62924.585938
1524.159180	62977.906250
1523.105469	63123.445313
1522.051758	63167.488281
1520.997070	62672.105469
1519.942383	62670.113281
1518.888672	61640.390625
1517.833984	61475.000000
1516.778320	61830.253906
1515.723633	61720.156250
1514.667969	61458.121094
1513.612305	61152.429688
1512.556641	61127.675781
1511.500977	61052.292969
1510.445313	60328.050781
1509.388672	61060.343750
1508.332031	60734.285156
1507.275391	60201.363281
1506.218750	60459.609375
1505.162109	60161.414063
1504.104492	60481.632813
1503.047852	60245.582031
1501.990234	59977.449219
1500.931641	59879.410156
1499.874023	59910.027344
1498.816406	59816.625000
1497.757813	59613.039063
1496.699219	60233.667969
1495.640625	59529.710938
1494.582031	59195.472656
1493.522461	59721.761719
1492.462891	59263.726563
1491.403320	59599.445313
1490.343750	60068.042969
1489.284180	59607.890625
1488.224609	59484.882813
1487.164063	59364.207031
1486.103516	59527.722656
1485.042969	59899.675781
1483.982422	59733.167969
1482.920898	59871.332031
1481.860352	59759.839844
1480.798828	60158.949219
1479.737305	59374.449219
1478.675781	59945.128906
1477.613281	60078.539063
1476.550781	59408.863281
1475.489258	59670.414063
1474.426758	59623.121094
1473.363281	59358.609375
1472.300781	59738.906250
1471.237305	59927.054688
1470.174805	59733.472656
1469.111328	60296.289063
1468.046875	60143.828125
1466.983398	59966.292969
1465.919922	60316.367188
1464.855469	59965.328125
1463.791016	60383.757813
1462.726563	60432.269531
1461.661133	60565.195313
1460.596680	60609.085938
1459.531250	60187.574219
1458.465820	60352.398438
1457.400391	60453.308594
1456.334961	60426.496094
1455.268555	60559.265625
1454.202148	61118.207031
1453.135742	60742.621094
1452.069336	60886.648438
1451.002930	60693.472656
1449.935547	60816.953125
1448.869141	60617.023438
1447.801758	61009.128906
1446.734375	61018.660156
1445.666016	61417.375000
1444.598633	61244.777344
1443.530273	61656.957031
1442.461914	61111.312500
1441.393555	61812.203125
1440.325195	62274.078125
1439.256836	62387.933594
1438.187500	62504.015625
1437.118164	63065.507813
1436.048828	62861.031250
1434.979492	63724.414063
1433.909180	64228.585938
1432.839844	63501.652344
1431.769531	63796.781250
1430.699219	64175.796875
1429.627930	64295.910156
1428.557617	64608.882813
1427.486328	64794.675781
1426.416016	64590.191406
1425.343750	64691.988281
1424.272461	65102.167969
1423.201172	64836.511719
1422.128906	65056.085938
1421.056641	64817.726563
1419.984375	65136.933594
1418.912109	65100.292969
1417.839844	65108.968750
1416.766602	64576.316406
1415.693359	64691.515625
1414.620117	64367.425781
1413.546875	65213.800781
1412.473633	63914.230469
1411.399414	64199.171875
1410.325195	64434.234375
1409.250977	64472.406250
1408.176758	64573.890625
1407.102539	64743.171875
1406.027344	64622.996094
1404.952148	64661.093750
1403.876953	65442.742188
1402.801758	65268.261719
1401.726563	65132.253906
1400.650391	65610.695313
1399.574219	65596.625000
1398.498047	65056.433594
1397.421875	65259.195313
1396.345703	65161.667969
1395.268555	64617.324219
1394.191406	65149.480469
1393.114258	65108.417969
1392.037109	65198.195313
1390.959961	64929.359375
1389.881836	65400.187500
1388.804688	65474.070313
1387.726563	65119.671875
1386.647461	65914.718750
1385.569336	66071.828125
1384.491211	65755.796875
1383.412109	66728.226563
1382.333008	66713.953125
1381.253906	67260.312500
1380.173828	67439.531250
1379.094727	66864.695313
1378.014648	67280.203125
1376.934570	66939.585938
1375.854492	66407.882813
1374.773438	66337.437500
1373.693359	66219.789063
1372.612305	65252.320313
1371.531250	65867.718750
1370.450195	65473.765625
1369.369141	65163.097656
1368.287109	65593.937500
1367.205078	64593.750000
1366.123047	64665.199219
1365.041016	64105.640625
1363.958984	63869.574219
1362.875977	63673.988281
1361.793945	63651.281250
1360.710938	63738.527344
1359.626953	63922.207031
1358.543945	63127.855469
1357.460938	63858.773438
1356.376953	62979.507813
1355.292969	63369.429688
1354.208984	62777.464844
1353.124023	62898.355469
1352.040039	62739.121094
1350.955078	62853.246094
1349.870117	62514.890625
1348.785156	62248.316406
1347.700195	61948.250000
1346.614258	62140.773438
1345.528320	62496.617188
1344.442383	61773.718750
1343.356445	62406.925781
1342.270508	62046.687500
1341.183594	62391.097656
1340.096680	62534.125000
1339.009766	61975.070313
1337.922852	62319.292969
1336.835938	62582.933594
1335.748047	62354.878906
1334.661133	62500.003906
1333.573242	62272.039063
1332.484375	63051.386719
1331.396484	62669.328125
1330.307617	62086.476563
1329.219727	62794.000000
1328.130859	62889.773438
1327.041992	62802.542969
1325.952148	62817.964844
1324.863281	62643.781250
1323.773438	62882.230469
1322.683594	62895.386719
1321.593750	62161.726563
1320.502930	62977.406250
1319.413086	62328.671875
1318.322266	62304.031250
1317.231445	62508.851563
1316.140625	62359.457031
1315.048828	62163.347656
1313.958008	62392.566406
1312.866211	62657.312500
1311.774414	61835.835938
1310.682617	62581.242188
1309.589844	62193.917969
1308.498047	62990.148438
1307.405273	63003.214844
1306.312500	62765.003906
1305.218750	62769.210938
1304.125977	63493.617188
1303.032227	63977.734375
1301.939453	64041.703125
1300.845703	64150.082031
1299.750977	65182.457031
1298.657227	65441.601563
1297.562500	66213.570313
1296.467773	66174.945313
1295.373047	66540.304688
1294.278320	66510.500000
1293.183594	66995.476563
1292.087891	66885.742188
1290.992188	66764.945313
1289.896484	66551.046875
1288.800781	65813.960938
1287.704102	65307.691406
1286.608398	65364.574219
1285.511719	65272.957031
1284.415039	64935.437500
1283.317383	64768.609375
1282.220703	64382.570313
1281.123047	63910.308594
1280.025391	63358.507813
1278.927734	63242.988281
1277.830078	63176.199219
1276.731445	62695.632813
1275.633789	62721.882813
1274.535156	62816.691406
1273.436523	62500.937500
1272.336914	62184.906250
1271.238281	61869.152344
1270.138672	61553.121094
1269.039063	61237.085938
1267.939453	61440.316406
1266.839844	60419.570313
1265.739258	60472.667969
1264.638672	60148.109375
1263.538086	60282.933594
1262.437500	60093.183594
1261.336914	60031.519531
1260.235352	60225.863281
1259.134766	59806.757813
1258.033203	59603.984375
1256.930664	59522.593750
1255.829102	59410.355469
1254.726563	58799.871094
1253.625000	58101.429688
1252.522461	58860.085938
1251.418945	58492.421875
1250.316406	58651.453125
1249.212891	58299.375000
1248.110352	58478.203125
1247.006836	58386.113281
1245.902344	58593.476563
1244.798828	58336.304688
1243.694336	57889.957031
1242.589844	58317.328125
1241.485352	58044.941406
1240.380859	58397.335938
1239.276367	58045.855469
1238.170898	58074.894531
1237.065430	58007.191406
1235.959961	58218.656250
1234.854492	58379.496094
1233.748047	57920.664063
1232.642578	58103.460938
1231.536133	57846.910156
1230.429688	57763.933594
1229.322266	57867.613281
1228.215820	57595.867188
1227.108398	57866.339844
1226.000977	58547.066406
1224.893555	58229.265625
1223.786133	58297.656250
1222.677734	58418.656250
1221.569336	58548.378906
1220.460938	58594.742188
1219.352539	58055.812500
1218.244141	58054.027344
1217.134766	58161.800781
1216.025391	57800.691406
1214.916016	58245.796875
1213.806641	57481.832031
1212.697266	57773.550781
1211.586914	57688.613281
1210.476563	58262.542969
1209.366211	57781.433594
1208.255859	57970.035156
1207.145508	58184.820313
1206.034180	58060.500000
1204.922852	57947.156250
1203.811523	57818.546875
1202.700195	57952.308594
1201.587891	58431.351563
1200.476563	58012.078125
1199.364258	58868.914063
1198.251953	58049.949219
1197.138672	58664.031250
1196.026367	58939.414063
1194.913086	58793.324219
1193.799805	59334.890625
1192.686523	59166.953125
1191.573242	59009.984375
1190.458984	58761.441406
1189.344727	58990.683594
1188.230469	58567.757813
1187.116211	58426.265625
1186.001953	58568.234375
1184.886719	58891.062500
1183.772461	58346.410156
1182.657227	58176.722656
1181.541016	58760.859375
1180.425781	58037.917969
1179.309570	58147.121094
1178.193359	58051.613281
1177.077148	57503.339844
1175.960938	57612.570313
1174.844727	57188.613281
1173.727539	57060.703125
1172.610352	57226.507813
1171.493164	56624.496094
1170.375977	56694.636719
