#Wave		#Intensity
2001.221680	36382.058594
2000.251953	35943.417969
1999.282227	36287.992188
1998.312500	36224.027344
1997.342773	36182.632813
1996.372070	36126.218750
1995.402344	36337.789063
1994.431641	36459.144531
1993.460938	36365.156250
1992.490234	36471.441406
1991.518555	36064.660156
1990.547852	36338.601563
1989.576172	36284.722656
1988.604492	36323.406250
1987.632813	36066.980469
1986.661133	36288.214844
1985.689453	36279.378906
1984.716797	36478.000000
1983.745117	36569.093750
1982.772461	36222.886719
1981.799805	36371.449219
1980.827148	36492.480469
1979.853516	36428.664063
1978.880859	36392.335938
1977.907227	36890.261719
1976.933594	36461.988281
1975.959961	36390.730469
1974.986328	36761.136719
1974.011719	36542.660156
1973.038086	36800.667969
1972.063477	36619.664063
1971.088867	36932.421875
1970.114258	36581.933594
1969.138672	36401.058594
1968.164063	37134.851563
1967.188477	36854.273438
1966.212891	36852.812500
1965.237305	37157.718750
1964.261719	37176.125000
1963.286133	36798.625000
1962.309570	37245.273438
1961.333984	36907.718750
1960.357422	37087.906250
1959.380859	37270.523438
1958.404297	36953.035156
1957.426758	37374.386719
1956.450195	37367.851563
1955.472656	37376.230469
1954.495117	37379.636719
1953.517578	37798.128906
1952.540039	37070.824219
1951.561523	37454.437500
1950.583008	37306.277344
1949.605469	37048.882813
1948.626953	37732.785156
1947.647461	37346.285156
1946.668945	37079.085938
1945.690430	37472.210938
1944.710938	37291.937500
1943.731445	37481.425781
1942.751953	37497.191406
1941.772461	37512.957031
1940.791992	37528.738281
1939.812500	37544.503906
1938.832031	37560.285156
1937.851563	37576.066406
1936.871094	37591.847656
1935.890625	37607.628906
1934.909180	37623.425781
1933.928711	37639.207031
1932.947266	37655.003906
1931.965820	37670.800781
1930.984375	37686.597656
1930.002930	37702.394531
1929.020508	37718.207031
1928.038086	37734.019531
1927.056641	37749.816406
1926.074219	37765.628906
1925.090820	37781.457031
1924.108398	37797.269531
1923.125000	37813.097656
1922.142578	37828.910156
1921.159180	37844.738281
1920.175781	37830.691406
1919.191406	37433.738281
1918.208008	37244.402344
1917.223633	37403.332031
1916.240234	37577.015625
1915.255859	37728.421875
1914.271484	37608.269531
1913.286133	37606.613281
1912.301758	37271.859375
1911.316406	37706.906250
1910.331055	37636.164063
1909.345703	37464.339844
1908.360352	37561.324219
1907.375000	37421.617188
1906.388672	37106.957031
1905.402344	37332.097656
1904.416016	37697.597656
1903.429688	37782.132813
1902.443359	37960.230469
1901.457031	37682.687500
1900.469727	37481.562500
1899.482422	37822.093750
1898.495117	37367.500000
1897.507813	37515.976563
1896.520508	37511.855469
1895.532227	37549.550781
1894.543945	37734.808594
1893.556641	37514.242188
1892.568359	37925.636719
1891.579102	37068.417969
1890.590820	37401.093750
1889.601563	37696.789063
1888.613281	37783.539063
1887.624023	37722.859375
1886.634766	37944.656250
1885.644531	37908.527344
1884.655273	38154.761719
1883.665039	38305.171875
1882.674805	37832.109375
1881.684570	38213.191406
1880.694336	37865.441406
1879.704102	37664.996094
1878.712891	37923.269531
1877.722656	37808.707031
1876.731445	37976.144531
1875.740234	37976.828125
1874.748047	37960.355469
1873.756836	37990.441406
1872.764648	38160.175781
1871.773438	38082.429688
1870.781250	38234.937500
1869.788086	38179.246094
1868.795898	37509.027344
1867.803711	38099.734375
1866.810547	37985.347656
1865.817383	38463.191406
1864.824219	38395.265625
1863.831055	38302.898438
1862.837891	38144.527344
1861.843750	38220.964844
1860.849609	38488.078125
1859.855469	38322.417969
1858.861328	38645.628906
1857.867188	37930.179688
1856.872070	38248.457031
1855.877930	38669.218750
1854.882813	38100.679688
1853.887695	38091.535156
1852.892578	38538.953125
1851.896484	38424.769531
1850.901367	38393.605469
1849.905273	38311.207031
1848.909180	38726.546875
1847.913086	38983.183594
1846.916992	38573.906250
1845.919922	38389.109375
1844.923828	38952.859375
1843.926758	38941.132813
1842.929688	38902.597656
1841.932617	38812.898438
1840.935547	38764.652344
1839.937500	38886.933594
1838.939453	39179.656250
1837.942383	39377.304688
1836.943359	38915.097656
1835.945313	39312.324219
1834.947266	39492.804688
1833.948242	39013.785156
1832.949219	39162.621094
1831.951172	39897.636719
1830.951172	39241.250000
1829.952148	39817.933594
1828.953125	39737.984375
1827.953125	39492.773438
1826.953125	39954.875000
1825.953125	39692.695313
1824.953125	39671.128906
1823.952148	39394.515625
1822.952148	39846.589844
1821.951172	39378.210938
1820.950195	39830.125000
1819.949219	39942.046875
1818.948242	39859.777344
1817.946289	39864.886719
1816.945313	39836.027344
1815.943359	40583.382813
1814.941406	40122.714844
1813.939453	39996.832031
1812.936523	40186.156250
1811.934570	40290.574219
1810.931641	40535.515625
1809.928711	40283.640625
1808.925781	40329.839844
1807.921875	40475.332031
1806.918945	40499.679688
1805.915039	40550.652344
1804.912109	40548.343750
1803.908203	40608.968750
1802.903320	40776.054688
1801.899414	40894.687500
1800.894531	40981.828125
1799.890625	40807.703125
1798.885742	40587.687500
1797.880859	41151.167969
1796.875000	41571.812500
1795.870117	40948.117188
1794.864258	41450.812500
1793.858398	41131.804688
1792.852539	41141.460938
1791.846680	42006.160156
1790.840820	41448.136719
1789.833984	41701.593750
1788.828125	41843.910156
1787.821289	42104.445313
1786.814453	41855.691406
1785.806641	42034.093750
1784.799805	41872.281250
1783.791992	41958.957031
1782.784180	42115.539063
1781.776367	41883.867188
1780.768555	41488.351563
1779.760742	41970.312500
1778.751953	42536.453125
1777.743164	42384.375000
1776.735352	42381.710938
1775.725586	42771.644531
1774.716797	42870.050781
1773.708008	42980.460938
1772.698242	42931.945313
1771.688477	42830.496094
1770.678711	43311.441406
1769.668945	42824.992188
1768.659180	42800.585938
1767.648438	43449.640625
1766.637695	43401.085938
1765.626953	42890.914063
1764.616211	43046.800781
1763.605469	43123.316406
1762.593750	43009.964844
1761.583008	43341.136719
1760.571289	43400.738281
1759.559570	43277.785156
1758.547852	43491.062500
1757.535156	43620.226563
1756.523438	43662.929688
1755.510742	43960.023438
1754.498047	43942.652344
1753.485352	43706.957031
1752.472656	44217.375000
1751.458984	43792.238281
1750.445313	44304.855469
1749.432617	43822.308594
1748.417969	44044.683594
1747.404297	44477.886719
1746.390625	44570.667969
1745.375977	44301.636719
1744.361328	44875.890625
1743.346680	44824.843750
1742.332031	44974.957031
1741.317383	45163.324219
1740.302734	45399.496094
1739.287109	45568.566406
1738.271484	45314.039063
1737.255859	45896.960938
1736.240234	46104.125000
1735.223633	46139.015625
1734.208008	46506.269531
1733.191406	46823.183594
1732.174805	47376.628906
1731.158203	47597.675781
1730.140625	47782.800781
1729.124023	47676.390625
1728.106445	48289.003906
1727.088867	48626.750000
1726.071289	48541.730469
1725.053711	48919.894531
1724.035156	49376.691406
1723.017578	49623.308594
1721.999023	49531.007813
1720.980469	49775.121094
1719.961914	49883.187500
1718.942383	50267.851563
1717.923828	50654.765625
1716.904297	50574.273438
1715.884766	50219.699219
1714.865234	50387.156250
1713.844727	50535.492188
1712.825195	50357.394531
1711.804688	50710.523438
1710.784180	50115.695313
1709.763672	50428.261719
1708.743164	50152.695313
1707.722656	50534.164063
1706.701172	50427.636719
1705.679688	50463.910156
1704.658203	50262.269531
1703.636719	50372.289063
1702.615234	50039.941406
1701.592773	50009.671875
1700.571289	49753.574219
1699.548828	49970.554688
1698.526367	49819.109375
1697.502930	49753.253906
1696.480469	50316.945313
1695.457031	50049.132813
1694.433594	50052.132813
1693.410156	50069.375000
1692.386719	49690.171875
1691.363281	50020.765625
1690.338867	49738.992188
1689.314453	50161.988281
1688.290039	50143.601563
1687.265625	50096.761719
1686.241211	50011.992188
1685.215820	50294.746094
1684.191406	50736.218750
1683.166016	50480.730469
1682.140625	50267.980469
1681.115234	50939.039063
1680.088867	50804.453125
1679.062500	50534.910156
1678.037109	50892.980469
1677.010742	51385.875000
1675.983398	51045.355469
1674.957031	51355.804688
1673.930664	51604.617188
1672.903320	51742.140625
1671.875977	51259.863281
1670.848633	51730.867188
1669.820313	51875.386719
1668.792969	51854.355469
1667.764648	51594.585938
1666.736328	51956.472656
1665.708008	52358.402344
1664.679688	52214.441406
1663.651367	52160.285156
1662.622070	52439.152344
1661.592773	52654.156250
1660.563477	52843.117188
1659.534180	52732.234375
1658.504883	52144.660156
1657.474609	52890.468750
1656.444336	53109.914063
1655.415039	53003.769531
1654.383789	53737.230469
1653.353516	53878.589844
1652.323242	53753.496094
1651.291992	53692.089844
1650.260742	54111.460938
1649.229492	54125.406250
1648.198242	54907.343750
1647.166016	54336.996094
1646.134766	55170.425781
1645.102539	55059.371094
1644.070313	55303.832031
1643.038086	55778.871094
1642.004883	55801.902344
1640.972656	56048.445313
1639.939453	56403.113281
1638.906250	56999.917969
1637.873047	56973.320313
1636.839844	57689.718750
1635.805664	57782.890625
1634.772461	58075.816406
1633.738281	58460.281250
1632.704102	58912.746094
1631.668945	58690.843750
1630.634766	59650.421875
1629.599609	59682.082031
1628.565430	60836.011719
1627.530273	61189.046875
1626.494141	61119.480469
1625.458984	61545.078125
1624.422852	62826.890625
1623.387695	63390.429688
1622.351563	64317.300781
1621.315430	65623.718750
1620.278320	66903.882813
1619.242188	68101.539063
1618.205078	69807.359375
1617.167969	71470.382813
1616.130859	73369.445313
1615.093750	75712.898438
1614.055664	77528.546875
1613.018555	79324.820313
1611.980469	80347.843750
1610.942383	81300.281250
1609.904297	81561.968750
1608.865234	80506.164063
1607.827148	79998.179688
1606.788086	78447.132813
1605.749023	76583.242188
1604.709961	74893.046875
1603.669922	73593.875000
1602.630859	72157.250000
1601.590820	70459.390625
1600.550781	69974.843750
1599.510742	68539.625000
1598.470703	68314.851563
1597.429688	67496.976563
1596.389648	66896.539063
1595.348633	66891.617188
1594.307617	67141.117188
1593.265625	66965.789063
1592.224609	66902.523438
1591.182617	66603.648438
1590.140625	66393.515625
1589.098633	65738.039063
1588.056641	66150.671875
1587.014648	66089.921875
1585.971680	66029.195313
1584.928711	65740.101563
1583.886719	66133.796875
1582.842773	66019.500000
1581.799805	65856.328125
1580.755859	65993.625000
1579.712891	66023.765625
1578.668945	66582.320313
1577.625000	66251.578125
1576.580078	66560.890625
1575.536133	67100.429688
1574.491211	67379.242188
1573.446289	67560.257813
1572.401367	67320.312500
1571.356445	67596.601563
1570.311523	67531.070313
1569.265625	67790.945313
1568.219727	67795.117188
1567.173828	67234.710938
1566.127930	67036.875000
1565.082031	66495.382813
1564.035156	66871.296875
1562.988281	66139.640625
1561.941406	65654.296875
1560.894531	65858.414063
1559.847656	65781.687500
1558.799805	65025.214844
1557.751953	65440.410156
1556.704102	64814.140625
1555.656250	64654.164063
1554.608398	64835.042969
1553.560547	64515.175781
1552.511719	64183.832031
1551.462891	64193.222656
1550.414063	64177.121094
1549.365234	64056.792969
1548.315430	64765.582031
1547.265625	64017.695313
1546.216797	64075.707031
1545.166992	64066.574219
1544.116211	64175.464844
1543.066406	64400.003906
1542.015625	64511.105469
1540.965820	63447.171875
1539.915039	63692.523438
1538.863281	63241.832031
1537.812500	62932.312500
1536.760742	63665.308594
1535.709961	63344.265625
1534.658203	63187.378906
1533.605469	62483.058594
1532.553711	62437.242188
1531.501953	62222.863281
1530.449219	62059.351563
1529.396484	62219.078125
1528.343750	61974.839844
1527.290039	61576.078125
1526.237305	61101.320313
1525.183594	60735.144531
1524.129883	61446.171875
1523.076172	60819.492188
1522.022461	61433.414063
1520.968750	60841.527344
1519.914063	60701.578125
1518.859375	60531.722656
1517.804688	60454.078125
1516.750000	60028.632813
1515.694336	60262.015625
1514.639648	60090.042969
1513.583984	60544.339844
1512.528320	59893.597656
1511.472656	60023.261719
1510.416016	59879.058594
1509.360352	59405.917969
1508.303711	59135.363281
1507.247070	59534.136719
1506.190430	59355.621094
1505.132813	58896.699219
1504.076172	58706.867188
1503.018555	58845.730469
1501.960938	58580.148438
1500.903320	58461.683594
1499.844727	58083.710938
1498.787109	57800.023438
1497.728516	57488.886719
1496.669922	57552.050781
1495.611328	57066.625000
1494.552734	56918.710938
1493.493164	56805.261719
1492.434570	56996.957031
1491.375000	56303.250000
1490.315430	56380.304688
1489.254883	56049.210938
1488.195313	56467.839844
1487.134766	55916.816406
1486.074219	55812.839844
1485.013672	55887.609375
1483.953125	55840.937500
1482.892578	56213.410156
1481.831055	55603.378906
1480.769531	55609.437500
1479.708008	55750.542969
1478.646484	56271.519531
1477.583984	55874.714844
1476.522461	56253.628906
1475.459961	56115.441406
1474.397461	55833.222656
1473.334961	55539.667969
1472.271484	55936.652344
1471.208984	55775.753906
1470.145508	55646.910156
1469.082031	55582.085938
1468.018555	55912.515625
1466.954102	55817.968750
1465.890625	55604.699219
1464.826172	55916.675781
1463.761719	56139.500000
1462.697266	55846.390625
1461.631836	55756.496094
1460.567383	56148.066406
1459.501953	55802.640625
1458.436523	55580.500000
1457.371094	55962.765625
1456.305664	55911.679688
1455.239258	55972.308594
1454.172852	56249.445313
1453.107422	56148.191406
1452.040039	55939.886719
1450.973633	56636.027344
1449.907227	56209.054688
1448.839844	55898.371094
1447.772461	56382.394531
1446.705078	56800.226563
1445.637695	56639.812500
1444.569336	56356.570313
1443.500977	56189.460938
1442.432617	56122.496094
1441.364258	56649.160156
1440.295898	56518.460938
1439.227539	56974.378906
1438.158203	56868.671875
1437.088867	57024.359375
1436.019531	57298.148438
1434.950195	57417.347656
1433.879883	57675.062500
1432.810547	57844.109375
1431.740234	57636.164063
1430.669922	58048.070313
1429.598633	58291.859375
1428.528320	58469.742188
1427.457031	58962.957031
1426.386719	59036.292969
1425.314453	59134.550781
1424.243164	59466.355469
1423.171875	59569.031250
1422.099609	59993.582031
1421.027344	59998.660156
1419.955078	60280.203125
1418.882813	60484.609375
1417.810547	59993.472656
1416.737305	60274.859375
1415.664063	59999.066406
1414.590820	59829.781250
1413.517578	58908.996094
1412.444336	59323.902344
1411.370117	59329.070313
1410.295898	58739.191406
1409.221680	58391.566406
1408.147461	58102.871094
1407.073242	57875.328125
1405.998047	57885.261719
1404.922852	57370.757813
1403.847656	57401.109375
1402.772461	57352.363281
1401.697266	57310.410156
1400.621094	57946.121094
1399.544922	57705.324219
1398.468750	57699.453125
1397.392578	58108.980469
1396.316406	58188.804688
1395.239258	58686.105469
1394.162109	59654.816406
1393.084961	60327.640625
1392.007813	61203.222656
1390.930664	61246.320313
1389.852539	61760.652344
1388.774414	62757.230469
1387.696289	62926.242188
1386.618164	62955.468750
1385.540039	62941.871094
1384.460938	62608.386719
1383.382813	62126.363281
1382.303711	62049.863281
1381.223633	61984.644531
1380.144531	62022.996094
1379.064453	61892.527344
1377.985352	60990.250000
1376.905273	61321.242188
1375.825195	61350.675781
1374.744141	61024.742188
1373.664063	60577.496094
1372.583008	60247.316406
1371.501953	60002.671875
1370.420898	60016.574219
1369.338867	60839.414063
1368.257813	60325.191406
1367.175781	60365.972656
1366.093750	60788.535156
1365.011719	60579.972656
1363.929688	60818.242188
1362.846680	61597.386719
1361.763672	61444.886719
1360.680664	62322.355469
1359.597656	62714.929688
1358.514648	62443.421875
1357.430664	62683.328125
1356.346680	62676.500000
1355.262695	62156.300781
1354.178711	61028.863281
1353.094727	60744.449219
1352.009766	60012.011719
1350.925781	59277.597656
1349.840820	59065.316406
1348.755859	58886.703125
1347.669922	58457.382813
1346.584961	57790.925781
1345.499023	57874.496094
1344.413086	56901.808594
1343.327148	57014.585938
1342.240234	56805.203125
1341.154297	56289.480469
1340.067383	56353.109375
1338.980469	56727.476563
1337.893555	56587.582031
1336.805664	56373.980469
1335.718750	56522.449219
1334.630859	57012.679688
1333.542969	56198.238281
1332.455078	56429.285156
1331.367188	56939.355469
1330.278320	57025.066406
1329.189453	56829.496094
1328.100586	57618.175781
1327.011719	58002.703125
1325.922852	58105.996094
1324.833008	58200.324219
1323.743164	59104.140625
1322.653320	59802.500000
1321.563477	60745.820313
1320.473633	61733.378906
1319.382813	62540.070313
1318.291992	64012.660156
1317.201172	65413.429688
1316.110352	66936.195313
1315.019531	67879.414063
1313.927734	69015.992188
1312.835938	69364.132813
1311.744141	69529.640625
1310.652344	69472.554688
1309.560547	68828.132813
1308.467773	67545.515625
1307.375000	66685.929688
1306.282227	65473.097656
1305.189453	64569.726563
1304.095703	63339.925781
1303.002930	62346.144531
1301.909180	61950.449219
1300.815430	61283.855469
1299.721680	61406.035156
1298.626953	60866.363281
1297.533203	60599.996094
1296.438477	60271.562500
1295.343750	60427.125000
1294.248047	60385.113281
1293.153320	60653.753906
1292.057617	61006.589844
1290.961914	61046.558594
1289.866211	60986.714844
1288.770508	60831.554688
1287.674805	60964.628906
1286.578125	61230.640625
1285.481445	60878.281250
1284.384766	61824.398438
1283.288086	61157.496094
1282.190430	60521.843750
1281.092773	60338.152344
1279.996094	60296.226563
1278.897461	59738.539063
1277.799805	59667.960938
1276.702148	59546.507813
1275.603516	59748.105469
1274.504883	59279.394531
1273.406250	59149.222656
1272.307617	58773.656250
1271.208008	58449.066406
1270.108398	59528.199219
1269.008789	58253.289063
1267.909180	58240.519531
1266.809570	57914.042969
1265.708984	57589.894531
1264.609375	57590.492188
1263.508789	57546.929688
1262.407227	57479.097656
1261.306641	57342.863281
1260.206055	57122.816406
1259.104492	56805.769531
1258.002930	57022.679688
1256.901367	56736.636719
1255.798828	56655.777344
1254.697266	56486.753906
1253.594727	56428.011719
1252.492188	55844.734375
1251.389648	56090.218750
1250.286133	55859.718750
1249.183594	55477.312500
1248.080078	55683.078125
1246.976563	55247.988281
1245.872070	55731.117188
1244.768555	55505.281250
1243.664063	55268.527344
1242.560547	55419.121094
1241.455078	55285.859375
1240.350586	55141.648438
1239.246094	55122.839844
1238.140625	56023.132813
1237.035156	55630.437500
1235.929688	55613.738281
1234.824219	56005.800781
1233.717773	55314.496094
1232.612305	55671.316406
1231.505859	55417.402344
1230.399414	55194.324219
1229.291992	55401.660156
1228.185547	54948.164063
1227.078125	54887.703125
1225.970703	54757.035156
1224.863281	54527.687500
1223.755859	54498.035156
1222.647461	54321.449219
1221.539063	54193.164063
1220.430664	54271.011719
1219.322266	54230.457031
1218.213867	53983.906250
1217.104492	53498.597656
1215.995117	53125.195313
1214.885742	53783.617188
1213.776367	53066.460938
1212.666992	53479.410156
1211.556641	53296.738281
1210.446289	53661.335938
1209.335938	53658.140625
1208.225586	53779.664063
1207.115234	53929.582031
1206.003906	54339.722656
1204.892578	54421.683594
1203.781250	54398.667969
1202.669922	54478.398438
1201.557617	54481.601563
1200.446289	54578.765625
1199.333984	54914.042969
1198.221680	54812.300781
1197.108398	55435.703125
1195.996094	55268.394531
1194.882813	55356.582031
1193.769531	55721.957031
1192.656250	56272.710938
1191.542969	55452.917969
1190.428711	55887.886719
1189.314453	55672.671875
1188.200195	55156.574219
1187.085938	54891.414063
1185.971680	54598.007813
1184.856445	54692.691406
1183.741211	54253.414063
1182.625977	54934.242188
1181.510742	54806.597656
1180.395508	54831.464844
1179.279297	54605.886719
1178.163086	54537.152344
1177.046875	54738.378906
1175.930664	53999.273438
1174.813477	54274.507813
1173.697266	54321.187500
1172.580078	54072.003906
1171.462891	53820.734375
1170.344727	53732.644531
