#Wave		#Intensity
2001.248047	33895.757813
2000.278320	33479.671875
1999.308594	34140.449219
1998.338867	33793.718750
1997.369141	33963.183594
1996.398438	33849.550781
1995.428711	34154.179688
1994.458008	34125.679688
1993.487305	33551.433594
1992.516602	33883.484375
1991.545898	34047.742188
1990.574219	34051.804688
1989.603516	34008.332031
1988.631836	33699.738281
1987.660156	33743.871094
1986.688477	33920.503906
1985.715820	34339.574219
1984.744141	33916.152344
1983.771484	34572.488281
1982.798828	34171.660156
1981.826172	34080.750000
1980.853516	34207.179688
1979.880859	34103.804688
1978.907227	33725.804688
1977.933594	34149.304688
1976.959961	34013.542969
1975.986328	33875.332031
1975.012695	33901.851563
1974.039063	34100.492188
1973.064453	33722.882813
1972.089844	34382.847656
1971.115234	34037.730469
1970.140625	34562.789063
1969.166016	33931.113281
1968.190430	34117.074219
1967.215820	33886.859375
1966.240234	34458.902344
1965.264648	34191.339844
1964.289063	34499.148438
1963.312500	34114.644531
1962.336914	34253.070313
1961.360352	34518.386719
1960.383789	34355.566406
1959.407227	34384.390625
1958.430664	33905.703125
1957.454102	34245.511719
1956.476563	34679.699219
1955.499023	34203.691406
1954.521484	34607.902344
1953.543945	34253.863281
1952.566406	34598.277344
1951.587891	34366.113281
1950.610352	33845.851563
1949.631836	34575.148438
1948.653320	34643.601563
1947.674805	34729.406250
1946.696289	34571.894531
1945.716797	34285.363281
1944.737305	33926.964844
1943.758789	34387.500000
1942.779297	34445.980469
1941.798828	34400.261719
1940.819336	34322.320313
1939.838867	34494.835938
1938.859375	34491.277344
1937.878906	34505.066406
1936.898438	34910.402344
1935.916992	34631.738281
1934.936523	34467.121094
1933.955078	34438.792969
1932.974609	35153.414063
1931.993164	34518.343750
1931.010742	34660.832031
1930.029297	34805.746094
1929.047852	34802.125000
1928.065430	34375.394531
1927.083008	34953.203125
1926.100586	34618.113281
1925.118164	34958.269531
1924.135742	34858.183594
1923.152344	34459.007813
1922.168945	34697.667969
1921.185547	34736.070313
1920.202148	34628.675781
1919.218750	34970.933594
1918.235352	35014.203125
1917.250977	34605.531250
1916.266602	35100.691406
1915.282227	34820.515625
1914.297852	34839.093750
1913.313477	35099.507813
1912.328125	34446.906250
1911.343750	34820.773438
1910.358398	34955.257813
1909.373047	34941.730469
1908.387695	34984.914063
1907.401367	34631.183594
1906.416016	34950.460938
1905.429688	34769.363281
1904.443359	34997.335938
1903.457031	35001.050781
1902.470703	34741.214844
1901.483398	35323.687500
1900.497070	34709.332031
1899.509766	34944.492188
1898.522461	35014.660156
1897.535156	35225.074219
1896.546875	35204.132813
1895.559570	35158.593750
1894.571289	35142.585938
1893.583008	34811.808594
1892.594727	35349.078125
1891.606445	34954.460938
1890.618164	35321.921875
1889.628906	34959.394531
1888.639648	35459.398438
1887.650391	35197.691406
1886.661133	35395.371094
1885.671875	35020.800781
1884.682617	35405.039063
1883.692383	35371.820313
1882.702148	35156.984375
1881.711914	35278.417969
1880.721680	35625.531250
1879.731445	35643.804688
1878.740234	35120.027344
1877.749023	35258.542969
1876.757813	35002.265625
1875.766602	35447.171875
1874.775391	35477.710938
1873.784180	35559.695313
1872.791992	35668.601563
1871.799805	35427.167969
1870.807617	35420.941406
1869.815430	35517.570313
1868.823242	35655.781250
1867.830078	35576.078125
1866.837891	35454.792969
1865.844727	35820.519531
1864.851563	35579.343750
1863.858398	36074.566406
1862.864258	35195.074219
1861.871094	35890.710938
1860.876953	35666.800781
1859.882813	35601.863281
1858.888672	35480.730469
1857.894531	36100.066406
1856.899414	35886.046875
1855.905273	35928.589844
1854.910156	35590.113281
1853.915039	35925.722656
1852.919922	35763.148438
1851.923828	35900.882813
1850.928711	35835.992188
1849.932617	35722.320313
1848.936523	36116.160156
1847.940430	35517.042969
1846.944336	36093.699219
1845.947266	36209.273438
1844.951172	36351.625000
1843.954102	35991.773438
1842.957031	36160.917969
1841.959961	36037.589844
1840.962891	36002.011719
1839.964844	36473.117188
1838.966797	36498.359375
1837.969727	36367.746094
1836.970703	36660.808594
1835.972656	36371.984375
1834.974609	36372.882813
1833.975586	36164.511719
1832.976563	36396.574219
1831.978516	37032.343750
1830.978516	36690.199219
1829.979492	36795.593750
1828.980469	36881.500000
1827.980469	36998.976563
1826.980469	36836.917969
1825.980469	36898.468750
1824.980469	36913.835938
1823.979492	37108.949219
1822.979492	36932.406250
1821.978516	36969.609375
1820.977539	36878.125000
1819.976563	36895.898438
1818.975586	37204.902344
1817.973633	37244.449219
1816.972656	36992.855469
1815.970703	36877.179688
1814.968750	37222.339844
1813.966797	36905.406250
1812.963867	36874.660156
1811.961914	37316.589844
1810.958984	37028.886719
1809.956055	37322.824219
1808.953125	37447.066406
1807.950195	37474.378906
1806.946289	37240.121094
1805.943359	37294.089844
1804.939453	37268.148438
1803.935547	37680.328125
1802.930664	37424.414063
1801.926758	37393.617188
1800.922852	37266.062500
1799.917969	37631.988281
1798.913086	37898.632813
1797.908203	37551.015625
1796.903320	37655.597656
1795.897461	37484.593750
1794.891602	37738.980469
1793.886719	37804.812500
1792.880859	37411.609375
1791.874023	38006.445313
1790.868164	37970.761719
1789.862305	37894.039063
1788.855469	38133.593750
1787.848633	38049.628906
1786.841797	37958.449219
1785.833984	38347.457031
1784.827148	38077.734375
1783.819336	38155.433594
1782.812500	38368.152344
1781.804688	38354.148438
1780.795898	38234.074219
1779.788086	38273.121094
1778.779297	38666.402344
1777.771484	38365.621094
1776.762695	38570.843750
1775.753906	38761.539063
1774.744141	38906.406250
1773.735352	38981.402344
1772.725586	39037.105469
1771.715820	38835.253906
1770.706055	38912.621094
1769.696289	39045.300781
1768.686523	38870.011719
1767.675781	38944.921875
1766.666016	39024.613281
1765.655273	39457.714844
1764.644531	38919.476563
1763.632813	39025.566406
1762.622070	39290.214844
1761.610352	39408.210938
1760.598633	39487.726563
1759.586914	39588.832031
1758.575195	39248.042969
1757.563477	39946.988281
1756.550781	39474.226563
1755.538086	39640.054688
1754.525391	39724.234375
1753.512695	39983.531250
1752.500000	39868.515625
1751.486328	39907.035156
1750.473633	40096.617188
1749.459961	40319.691406
1748.446289	40636.175781
1747.432617	40267.085938
1746.417969	40358.214844
1745.404297	40504.410156
1744.389648	40367.894531
1743.375000	40902.027344
1742.360352	40767.882813
1741.344727	40674.480469
1740.330078	40741.492188
1739.314453	41215.339844
1738.298828	41325.300781
1737.283203	41198.367188
1736.267578	41329.816406
1735.251953	41353.593750
1734.235352	41477.792969
1733.218750	41668.890625
1732.202148	42275.835938
1731.185547	41960.054688
1730.168945	42676.648438
1729.151367	42382.406250
1728.133789	42807.250000
1727.117188	42962.074219
1726.098633	43028.492188
1725.081055	43221.417969
1724.063477	43197.054688
1723.044922	43905.371094
1722.026367	43871.351563
1721.007813	44207.125000
1719.989258	44530.851563
1718.970703	44317.867188
1717.951172	44777.371094
1716.931641	44500.046875
1715.912109	45145.269531
1714.892578	45242.132813
1713.873047	45517.664063
1712.853516	45123.664063
1711.833008	45551.562500
1710.812500	45388.695313
1709.791992	45421.132813
1708.771484	45241.675781
1707.750000	45709.703125
1706.729492	45418.410156
1705.708008	45860.062500
1704.686523	45863.832031
1703.665039	45998.414063
1702.642578	45624.031250
1701.621094	45658.746094
1700.598633	46233.082031
1699.576172	45680.589844
1698.553711	45729.523438
1697.531250	45809.332031
1696.507813	45962.750000
1695.485352	46199.242188
1694.461914	46302.660156
1693.438477	45883.695313
1692.415039	46324.226563
1691.390625	46391.960938
1690.367188	46426.449219
1689.342773	46425.332031
1688.318359	46697.019531
1687.293945	46657.902344
1686.269531	47240.097656
1685.244141	46935.351563
1684.218750	47510.175781
1683.194336	47354.796875
1682.168945	47592.843750
1681.142578	47854.496094
1680.117188	47654.128906
1679.090820	47382.777344
1678.064453	47994.785156
1677.038086	48088.074219
1676.011719	48202.632813
1674.985352	48485.187500
1673.958008	48206.820313
1672.931641	48605.199219
1671.904297	48260.671875
1670.876953	48651.800781
1669.848633	48404.335938
1668.821289	48863.859375
1667.792969	48670.804688
1666.764648	48508.542969
1665.736328	49194.640625
1664.708008	49174.093750
1663.679688	49047.253906
1662.650391	48960.605469
1661.621094	49473.753906
1660.591797	49202.910156
1659.562500	49704.027344
1658.533203	49053.269531
1657.502930	49417.375000
1656.472656	49224.578125
1655.442383	49324.335938
1654.412109	49478.300781
1653.381836	49247.863281
1652.351563	49710.613281
1651.320313	49345.859375
1650.289063	49483.203125
1649.257813	49439.066406
1648.226563	49371.382813
1647.194336	49539.261719
1646.163086	49756.539063
1645.130859	49632.320313
1644.098633	49665.871094
1643.066406	50078.363281
1642.033203	49297.566406
1641.000977	49677.031250
1639.967773	49837.578125
1638.934570	49753.449219
1637.901367	50551.218750
1636.868164	50288.296875
1635.833984	50458.015625
1634.800781	49974.261719
1633.766602	50905.363281
1632.732422	50565.019531
1631.697266	50816.781250
1630.663086	51430.156250
1629.627930	51512.589844
1628.593750	51531.601563
1627.558594	51329.937500
1626.522461	51400.605469
1625.487305	51985.160156
1624.451172	52250.417969
1623.416016	51511.570313
1622.379883	52121.585938
1621.343750	52661.035156
1620.306641	52363.281250
1619.270508	53143.933594
1618.233398	53743.839844
1617.196289	54266.203125
1616.159180	55142.152344
1615.122070	56172.390625
1614.083984	57087.500000
1613.046875	57555.027344
1612.008789	58113.695313
1610.970703	58882.835938
1609.932617	58341.082031
1608.893555	58632.546875
1607.855469	58271.171875
1606.816406	56721.640625
1605.777344	56879.925781
1604.738281	56315.617188
1603.698242	55513.042969
1602.659180	55066.046875
1601.619141	53876.023438
1600.579102	53303.296875
1599.539063	53109.238281
1598.499023	53349.703125
1597.458008	52079.089844
1596.417969	51320.285156
1595.376953	51733.691406
1594.335938	51472.382813
1593.294922	51269.511719
1592.252930	51146.039063
1591.210938	50859.308594
1590.169922	50798.929688
1589.127930	50386.425781
1588.084961	50792.476563
1587.042969	50694.832031
1586.000000	50737.070313
1584.958008	51005.339844
1583.915039	51520.488281
1582.872070	51406.472656
1581.828125	51916.703125
1580.785156	52047.167969
1579.741211	52526.832031
1578.697266	52403.394531
1577.653320	52035.613281
1576.609375	52573.191406
1575.564453	53152.457031
1574.520508	52733.554688
1573.475586	53205.593750
1572.430664	53256.558594
1571.384766	53460.957031
1570.339844	53053.910156
1569.293945	52721.382813
1568.249023	52765.421875
1567.202148	52409.828125
1566.156250	51552.605469
1565.110352	51617.722656
1564.063477	51274.128906
1563.017578	51109.421875
1561.970703	50694.074219
1560.922852	50197.648438
1559.875977	49789.570313
1558.829102	49455.875000
1557.781250	49426.167969
1556.733398	49364.000000
1555.685547	49487.355469
1554.636719	49112.214844
1553.588867	49286.562500
1552.540039	48802.664063
1551.491211	49150.781250
1550.442383	48843.144531
1549.393555	48269.246094
1548.344727	48489.894531
1547.294922	48703.515625
1546.245117	48579.058594
1545.195313	48676.851563
1544.145508	48969.003906
1543.094727	49168.496094
1542.044922	48627.628906
1540.994141	48864.113281
1539.943359	49026.507813
1538.892578	48599.246094
1537.840820	48835.601563
1536.790039	49155.082031
1535.738281	49647.761719
1534.686523	49005.808594
1533.634766	49565.328125
1532.583008	49233.113281
1531.530273	49355.937500
1530.477539	49469.480469
1529.424805	49236.714844
1528.372070	49461.019531
1527.319336	48951.421875
1526.265625	49272.593750
1525.212891	49930.441406
1524.159180	49404.882813
1523.105469	49100.882813
1522.051758	49288.070313
1520.997070	49221.621094
1519.942383	49570.046875
1518.888672	49051.925781
1517.833984	48974.031250
1516.778320	48990.605469
1515.723633	48493.585938
1514.667969	48618.460938
1513.612305	48379.535156
1512.556641	48113.070313
1511.500977	48373.722656
1510.445313	48328.250000
1509.388672	48193.062500
1508.332031	47634.687500
1507.275391	47968.828125
1506.218750	48362.628906
1505.162109	47767.734375
1504.104492	48136.144531
1503.047852	48350.441406
1501.990234	47776.542969
1500.931641	47880.554688
1499.874023	47956.964844
1498.816406	48042.531250
1497.757813	48378.335938
1496.699219	48369.667969
1495.640625	48136.070313
1494.582031	48047.125000
1493.522461	48288.609375
1492.462891	48380.894531
1491.403320	48360.757813
1490.343750	48446.113281
1489.284180	48311.328125
1488.224609	48515.859375
1487.164063	48417.777344
1486.103516	47964.539063
1485.042969	47894.078125
1483.982422	48219.941406
1482.920898	48092.199219
1481.860352	47969.082031
1480.798828	48585.515625
1479.737305	48508.132813
1478.675781	48945.726563
1477.613281	49001.023438
1476.550781	48500.343750
1475.489258	48907.964844
1474.426758	49262.832031
1473.363281	48890.421875
1472.300781	49032.542969
1471.237305	48966.601563
1470.174805	49302.914063
1469.111328	48896.480469
1468.046875	49027.066406
1466.983398	49187.300781
1465.919922	49064.285156
1464.855469	49114.847656
1463.791016	49608.281250
1462.726563	49647.312500
1461.661133	49757.074219
1460.596680	49985.441406
1459.531250	49791.683594
1458.465820	49830.644531
1457.400391	49655.226563
1456.334961	49890.277344
1455.268555	49863.085938
1454.202148	50031.914063
1453.135742	50171.058594
1452.069336	50430.902344
1451.002930	50679.265625
1449.935547	50713.437500
1448.869141	50859.183594
1447.801758	50852.324219
1446.734375	51116.359375
1445.666016	51698.933594
1444.598633	51616.828125
1443.530273	52171.796875
1442.461914	52483.164063
1441.393555	52485.105469
1440.325195	53107.832031
1439.256836	52989.160156
1438.187500	53643.390625
1437.118164	53667.839844
1436.048828	53980.863281
1434.979492	54148.371094
1433.909180	54408.945313
1432.839844	54455.945313
1431.769531	54039.707031
1430.699219	54434.097656
1429.627930	54560.503906
1428.557617	54677.785156
1427.486328	55080.917969
1426.416016	54782.898438
1425.343750	55360.519531
1424.272461	55212.226563
1423.201172	55519.734375
1422.128906	55337.460938
1421.056641	56354.273438
1419.984375	56169.640625
1418.912109	56268.296875
1417.839844	55879.855469
1416.766602	56440.574219
1415.693359	56093.003906
1414.620117	55643.667969
1413.546875	55325.789063
1412.473633	55802.449219
1411.399414	54602.109375
1410.325195	54863.785156
1409.250977	54862.960938
1408.176758	54961.648438
1407.102539	55854.015625
1406.027344	55877.875000
1404.952148	56516.574219
1403.876953	56341.417969
1402.801758	56961.722656
1401.726563	57310.691406
1400.650391	57476.562500
1399.574219	57235.851563
1398.498047	57449.093750
1397.421875	57551.628906
1396.345703	56441.996094
1395.268555	56625.917969
1394.191406	56320.128906
1393.114258	55876.832031
1392.037109	55884.812500
1390.959961	55398.898438
1389.881836	55925.558594
1388.804688	55931.265625
1387.726563	55684.519531
1386.647461	56113.933594
1385.569336	56180.429688
1384.491211	57093.937500
1383.412109	57119.687500
1382.333008	57264.777344
1381.253906	57315.250000
1380.173828	57277.906250
1379.094727	57296.843750
1378.014648	57331.519531
1376.934570	57138.941406
1375.854492	57025.164063
1374.773438	56978.898438
1373.693359	56440.179688
1372.612305	55840.949219
1371.531250	55556.636719
1370.450195	55629.777344
1369.369141	55345.601563
1368.287109	54520.078125
1367.205078	54835.953125
1366.123047	54269.089844
1365.041016	54248.070313
1363.958984	54103.582031
1362.875977	54001.792969
1361.793945	53985.316406
1360.710938	54220.156250
1359.626953	53941.160156
1358.543945	53583.757813
1357.460938	53542.691406
1356.376953	53681.015625
1355.292969	53005.511719
1354.208984	53278.363281
1353.124023	53564.558594
1352.040039	53109.011719
1350.955078	53289.839844
1349.870117	53412.367188
1348.785156	52851.835938
1347.700195	53961.789063
1346.614258	53327.480469
1345.528320	53333.519531
1344.442383	53715.500000
1343.356445	53520.097656
1342.270508	53425.425781
1341.183594	53350.917969
1340.096680	53857.835938
1339.009766	53993.429688
1337.922852	53845.085938
1336.835938	54157.191406
1335.748047	53834.574219
1334.661133	54142.093750
1333.573242	54442.800781
1332.484375	54278.863281
1331.396484	54400.800781
1330.307617	54172.183594
1329.219727	53997.214844
1328.130859	54889.070313
1327.041992	54928.238281
1325.952148	54882.617188
1324.863281	54132.167969
1323.773438	54345.394531
1322.683594	54175.031250
1321.593750	54885.300781
1320.502930	54480.863281
1319.413086	54185.765625
1318.322266	54256.179688
1317.231445	53954.539063
1316.140625	54503.832031
1315.048828	54340.320313
1313.958008	54350.531250
1312.866211	54151.484375
1311.774414	54753.750000
1310.682617	54352.195313
1309.589844	54380.187500
1308.498047	54330.308594
1307.405273	55557.058594
1306.312500	55675.976563
1305.218750	56115.000000
1304.125977	56433.828125
1303.032227	57752.644531
1301.939453	58175.492188
1300.845703	59240.242188
1299.750977	60169.105469
1298.657227	61268.636719
1297.562500	62307.816406
1296.467773	63597.480469
1295.373047	63949.988281
1294.278320	64357.843750
1293.183594	64301.816406
1292.087891	64077.203125
1290.992188	63271.546875
1289.896484	62685.722656
1288.800781	61989.246094
1287.704102	61062.468750
1286.608398	60062.886719
1285.511719	60018.765625
1284.415039	58997.570313
1283.317383	58091.933594
1282.220703	57983.957031
1281.123047	57902.593750
1280.025391	57298.746094
1278.927734	56843.425781
1277.830078	56275.398438
1276.731445	56524.097656
1275.633789	56706.335938
1274.535156	56461.585938
1273.436523	55655.171875
1272.336914	55669.406250
1271.238281	55376.332031
1270.138672	55543.125000
1269.039063	55102.105469
1267.939453	54946.281250
1266.839844	54587.265625
1265.739258	54787.203125
1264.638672	54183.210938
1263.538086	54564.199219
1262.437500	53830.210938
1261.336914	54191.257813
1260.235352	53927.648438
1259.134766	54107.617188
1258.033203	53835.289063
1256.930664	53600.550781
1255.829102	53515.851563
1254.726563	53836.863281
1253.625000	53042.328125
1252.522461	53127.476563
1251.418945	53468.207031
1250.316406	52982.613281
1249.212891	52587.507813
1248.110352	52756.359375
1247.006836	52656.503906
1245.902344	52400.367188
1244.798828	52500.914063
1243.694336	52720.269531
1242.589844	52420.242188
1241.485352	52771.527344
1240.380859	51961.289063
1239.276367	52404.890625
1238.170898	52360.195313
1237.065430	52693.640625
1235.959961	52848.921875
1234.854492	52421.777344
1233.748047	52043.125000
1232.642578	52708.093750
1231.536133	52847.875000
1230.429688	52660.398438
1229.322266	52725.484375
1228.215820	53269.097656
1227.108398	53399.886719
1226.000977	53583.292969
1224.893555	53288.335938
1223.786133	54204.359375
1222.677734	53652.785156
1221.569336	54132.031250
1220.460938	53935.839844
1219.352539	53989.605469
1218.244141	53615.980469
1217.134766	52997.070313
1216.025391	53079.453125
1214.916016	53330.464844
1213.806641	52742.597656
1212.697266	52897.230469
1211.586914	52933.585938
1210.476563	53175.679688
1209.366211	52986.554688
1208.255859	53018.492188
1207.145508	53100.730469
1206.034180	53384.164063
1204.922852	53512.226563
1203.811523	53861.070313
1202.700195	53538.664063
1201.587891	53607.609375
1200.476563	53971.535156
1199.364258	53557.515625
1198.251953	53598.011719
1197.138672	54066.570313
1196.026367	54017.425781
1194.913086	54142.957031
1193.799805	54128.738281
1192.686523	54140.710938
1191.573242	54429.800781
1190.458984	54136.273438
1189.344727	54307.464844
1188.230469	54389.175781
1187.116211	53731.667969
1186.001953	54275.625000
1184.886719	53733.898438
1183.772461	53697.960938
1182.657227	53714.328125
1181.541016	53567.300781
1180.425781	53211.226563
1179.309570	53377.929688
1178.193359	53607.710938
1177.077148	53223.515625
1175.960938	53451.058594
1174.844727	53574.066406
1173.727539	52726.648438
1172.610352	52318.957031
1171.493164	52537.789063
1170.375977	52191.164063
