#Wave		#Intensity
2001.248047	37567.816406
2000.278320	37497.632813
1999.308594	37526.175781
1998.338867	37727.593750
1997.369141	37595.746094
1996.398438	37516.542969
1995.428711	37800.496094
1994.458008	37969.167969
1993.487305	37584.515625
1992.516602	38091.074219
1991.545898	37638.960938
1990.574219	37935.148438
1989.603516	38411.355469
1988.631836	38174.527344
1987.660156	37477.628906
1986.688477	37618.605469
1985.715820	37534.535156
1984.744141	37997.890625
1983.771484	37583.898438
1982.798828	38064.570313
1981.826172	38025.445313
1980.853516	38073.750000
1979.880859	37889.789063
1978.907227	38377.554688
1977.933594	38256.011719
1976.959961	38092.074219
1975.986328	37888.265625
1975.012695	38188.546875
1974.039063	37972.316406
1973.064453	38187.671875
1972.089844	38253.316406
1971.115234	38189.281250
1970.140625	38182.605469
1969.166016	38377.828125
1968.190430	37974.871094
1967.215820	38192.484375
1966.240234	38459.839844
1965.264648	38468.062500
1964.289063	38349.265625
1963.312500	38036.296875
1962.336914	38166.570313
1961.360352	37918.453125
1960.383789	38514.070313
1959.407227	38656.625000
1958.430664	38154.800781
1957.454102	38513.761719
1956.476563	38278.230469
1955.499023	38186.996094
1954.521484	38326.988281
1953.543945	38790.058594
1952.566406	38646.589844
1951.587891	38359.050781
1950.610352	38712.562500
1949.631836	38521.980469
1948.653320	38314.082031
1947.674805	38528.363281
1946.696289	38705.328125
1945.716797	38514.875000
1944.737305	38242.593750
1943.758789	38660.191406
1942.779297	38440.074219
1941.798828	38014.164063
1940.819336	38476.214844
1939.838867	38546.343750
1938.859375	38452.828125
1937.878906	38483.273438
1936.898438	38707.007813
1935.916992	38717.574219
1934.936523	38482.878906
1933.955078	38808.042969
1932.974609	38662.562500
1931.993164	38678.074219
1931.010742	38649.019531
1930.029297	38887.289063
1929.047852	38969.566406
1928.065430	39002.328125
1927.083008	39025.183594
1926.100586	38681.957031
1925.118164	38843.343750
1924.135742	38782.140625
1923.152344	38995.363281
1922.168945	38793.265625
1921.185547	38660.433594
1920.202148	39083.582031
1919.218750	38884.042969
1918.235352	39109.402344
1917.250977	38912.394531
1916.266602	38668.539063
1915.282227	38933.312500
1914.297852	38793.203125
1913.313477	38993.695313
1912.328125	38898.035156
1911.343750	39394.468750
1910.358398	38827.664063
1909.373047	39299.273438
1908.387695	39188.824219
1907.401367	39085.808594
1906.416016	39046.910156
1905.429688	39333.320313
1904.443359	39508.750000
1903.457031	39208.664063
1902.470703	38620.507813
1901.483398	38857.531250
1900.497070	39060.000000
1899.509766	39498.722656
1898.522461	39142.285156
1897.535156	39292.914063
1896.546875	38877.585938
1895.559570	39557.105469
1894.571289	39208.281250
1893.583008	39014.503906
1892.594727	39046.996094
1891.606445	39148.308594
1890.618164	39851.757813
1889.628906	39739.093750
1888.639648	39601.898438
1887.650391	39211.718750
1886.661133	39502.027344
1885.671875	39119.371094
1884.682617	39215.625000
1883.692383	39277.472656
1882.702148	39736.914063
1881.711914	39278.402344
1880.721680	39727.867188
1879.731445	39671.824219
1878.740234	39892.957031
1877.749023	39471.519531
1876.757813	39896.109375
1875.766602	39822.910156
1874.775391	39632.093750
1873.784180	39598.175781
1872.791992	39620.621094
1871.799805	39910.070313
1870.807617	39484.234375
1869.815430	39883.800781
1868.823242	39651.542969
1867.830078	39896.710938
1866.837891	40168.718750
1865.844727	39978.125000
1864.851563	40034.714844
1863.858398	39692.542969
1862.864258	39954.605469
1861.871094	40113.867188
1860.876953	40011.460938
1859.882813	40153.542969
1858.888672	40068.269531
1857.894531	40122.316406
1856.899414	40337.597656
1855.905273	40257.218750
1854.910156	40799.671875
1853.915039	40711.914063
1852.919922	40270.164063
1851.923828	40148.351563
1850.928711	40685.554688
1849.932617	40388.011719
1848.936523	40346.750000
1847.940430	41108.050781
1846.944336	40559.378906
1845.947266	40857.054688
1844.951172	40688.953125
1843.954102	40898.746094
1842.957031	40786.746094
1841.959961	40801.500000
1840.962891	41140.285156
1839.964844	40891.886719
1838.966797	41021.078125
1837.969727	41527.656250
1836.970703	41320.707031
1835.972656	41732.117188
1834.974609	41481.394531
1833.975586	41890.195313
1832.976563	41101.851563
1831.978516	41221.105469
1830.978516	41301.402344
1829.979492	42103.867188
1828.980469	42094.023438
1827.980469	41741.437500
1826.980469	41952.820313
1825.980469	41588.230469
1824.980469	41789.843750
1823.979492	42008.386719
1822.979492	42102.992188
1821.978516	41855.179688
1820.977539	41918.214844
1819.976563	41891.410156
1818.975586	42063.625000
1817.973633	42102.316406
1816.972656	41956.613281
1815.970703	42245.148438
1814.968750	42261.957031
1813.966797	41975.656250
1812.963867	42547.683594
1811.961914	41997.222656
1810.958984	42384.855469
1809.956055	42319.230469
1808.953125	42706.664063
1807.950195	42478.710938
1806.946289	42773.949219
1805.943359	42538.800781
1804.939453	42175.417969
1803.935547	42823.945313
1802.930664	42724.433594
1801.926758	42683.023438
1800.922852	42856.941406
1799.917969	43209.785156
1798.913086	42573.382813
1797.908203	43124.425781
1796.903320	43380.332031
1795.897461	43558.796875
1794.891602	43113.695313
1793.886719	43717.402344
1792.880859	43226.523438
1791.874023	43438.699219
1790.868164	43839.167969
1789.862305	43998.035156
1788.855469	43729.546875
1787.848633	43618.042969
1786.841797	43960.269531
1785.833984	43856.000000
1784.827148	44282.496094
1783.819336	44004.535156
1782.812500	44401.914063
1781.804688	44386.843750
1780.795898	44745.437500
1779.788086	44489.277344
1778.779297	44177.781250
1777.771484	44516.941406
1776.762695	44542.808594
1775.753906	44879.371094
1774.744141	45100.222656
1773.735352	44632.378906
1772.725586	44961.523438
1771.715820	45088.367188
1770.706055	44976.925781
1769.696289	45390.042969
1768.686523	45497.492188
1767.675781	45162.351563
1766.666016	45515.089844
1765.655273	45824.421875
1764.644531	45143.226563
1763.632813	45536.636719
1762.622070	45643.937500
1761.610352	46159.648438
1760.598633	45841.605469
1759.586914	45828.703125
1758.575195	46164.000000
1757.563477	46160.640625
1756.550781	46224.500000
1755.538086	46597.945313
1754.525391	46568.113281
1753.512695	46451.914063
1752.500000	46726.761719
1751.486328	47119.035156
1750.473633	46719.835938
1749.459961	47001.679688
1748.446289	47295.406250
1747.432617	47306.218750
1746.417969	47460.800781
1745.404297	47629.699219
1744.389648	47424.851563
1743.375000	47725.421875
1742.360352	47772.054688
1741.344727	48158.640625
1740.330078	48267.417969
1739.314453	47947.746094
1738.298828	48693.027344
1737.283203	48868.632813
1736.267578	48529.882813
1735.251953	48698.277344
1734.235352	49395.066406
1733.218750	49235.703125
1732.202148	49662.035156
1731.185547	49677.148438
1730.168945	50251.394531
1729.151367	50177.996094
1728.133789	50398.425781
1727.117188	50444.433594
1726.098633	50870.089844
1725.081055	51329.011719
1724.063477	51179.093750
1723.044922	52143.746094
1722.026367	52024.750000
1721.007813	52304.210938
1719.989258	52688.519531
1718.970703	53010.683594
1717.951172	53065.675781
1716.931641	52870.328125
1715.912109	53583.191406
1714.892578	53254.355469
1713.873047	53330.703125
1712.853516	53733.398438
1711.833008	53483.304688
1710.812500	53571.472656
1709.791992	53211.964844
1708.771484	53571.535156
1707.750000	53547.761719
1706.729492	53445.460938
1705.708008	53566.855469
1704.686523	53424.140625
1703.665039	53595.441406
1702.642578	53471.792969
1701.621094	53685.820313
1700.598633	53267.414063
1699.576172	53250.839844
1698.553711	53381.609375
1697.531250	52756.761719
1696.507813	53184.515625
1695.485352	52645.425781
1694.461914	52814.195313
1693.438477	53498.132813
1692.415039	53016.242188
1691.390625	53163.488281
1690.367188	53317.800781
1689.342773	52852.796875
1688.318359	52945.429688
1687.293945	52943.152344
1686.269531	53355.867188
1685.244141	53009.726563
1684.218750	53128.332031
1683.194336	53078.613281
1682.168945	52993.367188
1681.142578	53002.917969
1680.117188	53472.019531
1679.090820	53396.214844
1678.064453	53235.187500
1677.038086	53341.753906
1676.011719	53228.128906
1674.985352	53266.015625
1673.958008	53725.097656
1672.931641	53720.292969
1671.904297	53604.308594
1670.876953	53779.265625
1669.848633	54159.886719
1668.821289	54020.238281
1667.792969	54291.941406
1666.764648	54440.648438
1665.736328	54017.460938
1664.708008	54201.597656
1663.679688	54300.628906
1662.650391	54737.347656
1661.621094	54904.722656
1660.591797	54401.546875
1659.562500	55137.789063
1658.533203	54710.269531
1657.502930	55269.214844
1656.472656	55063.582031
1655.442383	55353.363281
1654.412109	55154.863281
1653.381836	55390.285156
1652.351563	55498.320313
1651.320313	55146.679688
1650.289063	55513.945313
1649.257813	55883.437500
1648.226563	55656.769531
1647.194336	55837.664063
1646.163086	56369.390625
1645.130859	55810.753906
1644.098633	56156.308594
1643.066406	56299.320313
1642.033203	56162.230469
1641.000977	56262.832031
1639.967773	56706.859375
1638.934570	57190.710938
1637.901367	56769.000000
1636.868164	57005.785156
1635.833984	57374.128906
1634.800781	57446.191406
1633.766602	57374.871094
1632.732422	58182.316406
1631.697266	57836.039063
1630.663086	58358.910156
1629.627930	58696.078125
1628.593750	58523.632813
1627.558594	58938.113281
1626.522461	58758.636719
1625.487305	59222.203125
1624.451172	59373.554688
1623.416016	59245.695313
1622.379883	60351.558594
1621.343750	60275.156250
1620.306641	61364.023438
1619.270508	62588.460938
1618.233398	63109.347656
1617.196289	64061.207031
1616.159180	65338.390625
1615.122070	66633.851563
1614.083984	68256.742188
1613.046875	69075.867188
1612.008789	70662.617188
1610.970703	70893.484375
1609.932617	70897.242188
1608.893555	70496.179688
1607.855469	69788.773438
1606.816406	69834.820313
1605.777344	68129.156250
1604.738281	67511.398438
1603.698242	66482.390625
1602.659180	65951.632813
1601.619141	64902.230469
1600.579102	64320.527344
1599.539063	64000.683594
1598.499023	63708.984375
1597.458008	63277.261719
1596.417969	62766.300781
1595.376953	61998.718750
1594.335938	62354.128906
1593.294922	61635.898438
1592.252930	61391.582031
1591.210938	61002.710938
1590.169922	60170.804688
1589.127930	60656.804688
1588.084961	60275.261719
1587.042969	59984.765625
1586.000000	59838.882813
1584.958008	60103.199219
1583.915039	60150.730469
1582.872070	60163.300781
1581.828125	60203.812500
1580.785156	60195.402344
1579.741211	60324.363281
1578.697266	59736.285156
1577.653320	60644.984375
1576.609375	60545.738281
1575.564453	60965.367188
1574.520508	61080.105469
1573.475586	61420.410156
1572.430664	61260.621094
1571.384766	61905.339844
1570.339844	61994.250000
1569.293945	61378.902344
1568.249023	62039.511719
1567.202148	61449.929688
1566.156250	61397.148438
1565.110352	60348.027344
1564.063477	60711.113281
1563.017578	59948.050781
1561.970703	60123.046875
1560.922852	60889.800781
1559.875977	60113.183594
1558.829102	60325.171875
1557.781250	60569.554688
1556.733398	60125.050781
1555.685547	60529.375000
1554.636719	60365.550781
1553.588867	60007.078125
1552.540039	60288.367188
1551.491211	60333.210938
1550.442383	59824.339844
1549.393555	60144.882813
1548.344727	59580.640625
1547.294922	59750.605469
1546.245117	59260.710938
1545.195313	59500.105469
1544.145508	59202.507813
1543.094727	59451.074219
1542.044922	59098.066406
1540.994141	59200.839844
1539.943359	59109.320313
1538.892578	58828.230469
1537.840820	58935.613281
1536.790039	59299.515625
1535.738281	59293.535156
1534.686523	59343.007813
1533.634766	58724.843750
1532.583008	59139.324219
1531.530273	59052.542969
1530.477539	59041.984375
1529.424805	58715.167969
1528.372070	58633.117188
1527.319336	58599.554688
1526.265625	58261.453125
1525.212891	58500.164063
1524.159180	58625.773438
1523.105469	58223.273438
1522.051758	58796.160156
1520.997070	58329.226563
1519.942383	58210.464844
1518.888672	58257.660156
1517.833984	58003.019531
1516.778320	58029.496094
1515.723633	57818.742188
1514.667969	57895.898438
1513.612305	57662.214844
1512.556641	57511.484375
1511.500977	58019.011719
1510.445313	58008.625000
1509.388672	57402.382813
1508.332031	57557.718750
1507.275391	57821.089844
1506.218750	57893.511719
1505.162109	57604.972656
1504.104492	57592.359375
1503.047852	58007.199219
1501.990234	57443.062500
1500.931641	57800.343750
1499.874023	57686.628906
1498.816406	57318.042969
1497.757813	58109.109375
1496.699219	58107.882813
1495.640625	57879.421875
1494.582031	57738.246094
1493.522461	58049.121094
1492.462891	57614.328125
1491.403320	57477.855469
1490.343750	57206.128906
1489.284180	57693.414063
1488.224609	57646.394531
1487.164063	57438.957031
1486.103516	57357.621094
1485.042969	57214.453125
1483.982422	57050.718750
1482.920898	57120.652344
1481.860352	56336.421875
1480.798828	56866.644531
1479.737305	57057.886719
1478.675781	56601.363281
1477.613281	57046.582031
1476.550781	57235.394531
1475.489258	56497.722656
1474.426758	56798.625000
1473.363281	56658.101563
1472.300781	56378.164063
1471.237305	57115.511719
1470.174805	56323.660156
1469.111328	56729.421875
1468.046875	56732.953125
1466.983398	56864.390625
1465.919922	56847.335938
1464.855469	57177.355469
1463.791016	57274.394531
1462.726563	57013.039063
1461.661133	57543.667969
1460.596680	57161.421875
1459.531250	57899.429688
1458.465820	57736.214844
1457.400391	57778.304688
1456.334961	57852.292969
1455.268555	57803.152344
1454.202148	58114.152344
1453.135742	58062.699219
1452.069336	57690.000000
1451.002930	58135.246094
1449.935547	57544.015625
1448.869141	58191.792969
1447.801758	58087.996094
1446.734375	58200.488281
1445.666016	58699.851563
1444.598633	58288.808594
1443.530273	58699.242188
1442.461914	58938.921875
1441.393555	59474.175781
1440.325195	59781.839844
1439.256836	59459.625000
1438.187500	59519.410156
1437.118164	59908.710938
1436.048828	60461.476563
1434.979492	60271.128906
1433.909180	61421.027344
1432.839844	61557.609375
1431.769531	60754.078125
1430.699219	61247.156250
1429.627930	61442.703125
1428.557617	61806.117188
1427.486328	61264.050781
1426.416016	61287.062500
1425.343750	61491.527344
1424.272461	61215.132813
1423.201172	61256.277344
1422.128906	60531.156250
1421.056641	60955.453125
1419.984375	60810.785156
1418.912109	60786.253906
1417.839844	60752.667969
1416.766602	60304.601563
1415.693359	60108.058594
1414.620117	60536.488281
1413.546875	60296.960938
1412.473633	59831.179688
1411.399414	60420.089844
1410.325195	60472.566406
1409.250977	60233.210938
1408.176758	60887.312500
1407.102539	60932.886719
1406.027344	60745.570313
1404.952148	60870.265625
1403.876953	61162.156250
1402.801758	61257.351563
1401.726563	61210.175781
1400.650391	61617.042969
1399.574219	61612.726563
1398.498047	61226.796875
1397.421875	61741.800781
1396.345703	61769.054688
1395.268555	61694.738281
1394.191406	62171.011719
1393.114258	62331.273438
1392.037109	62338.089844
1390.959961	62448.640625
1389.881836	62906.390625
1388.804688	62653.835938
1387.726563	63444.964844
1386.647461	63717.484375
1385.569336	63926.812500
1384.491211	64210.406250
1383.412109	64511.914063
1382.333008	64556.585938
1381.253906	64997.511719
1380.173828	65100.605469
1379.094727	65169.898438
1378.014648	65218.910156
1376.934570	65632.390625
1375.854492	65706.039063
1374.773438	65278.105469
1373.693359	64240.929688
1372.612305	64449.679688
1371.531250	64716.796875
1370.450195	64651.187500
1369.369141	64385.609375
1368.287109	63742.679688
1367.205078	63661.550781
1366.123047	63569.214844
1365.041016	63216.441406
1363.958984	63438.523438
1362.875977	62798.578125
1361.793945	62461.832031
1360.710938	62367.539063
1359.626953	62152.136719
1358.543945	62253.070313
1357.460938	62120.738281
1356.376953	61649.871094
1355.292969	61638.746094
1354.208984	61551.414063
1353.124023	61013.667969
1352.040039	61300.656250
1350.955078	61600.976563
1349.870117	61278.527344
1348.785156	60718.812500
1347.700195	60584.707031
1346.614258	60752.855469
1345.528320	60088.335938
1344.442383	60516.089844
1343.356445	61057.792969
1342.270508	60315.277344
1341.183594	60919.441406
1340.096680	60655.750000
1339.009766	60072.441406
1337.922852	60461.718750
1336.835938	60631.828125
1335.748047	60413.062500
1334.661133	60560.773438
1333.573242	60397.937500
1332.484375	60608.125000
1331.396484	60583.773438
1330.307617	61126.492188
1329.219727	60898.929688
1328.130859	61113.328125
1327.041992	60903.695313
1325.952148	61026.542969
1324.863281	60843.761719
1323.773438	60493.789063
1322.683594	60855.210938
1321.593750	60728.289063
1320.502930	61149.714844
1319.413086	60938.093750
1318.322266	61062.988281
1317.231445	60918.285156
1316.140625	60775.859375
1315.048828	61702.382813
1313.958008	61210.304688
1312.866211	60932.105469
1311.774414	61177.035156
1310.682617	61328.414063
1309.589844	61157.128906
1308.498047	61588.734375
1307.405273	61650.984375
1306.312500	61622.042969
1305.218750	61750.957031
1304.125977	61595.296875
1303.032227	61913.074219
1301.939453	61659.667969
1300.845703	61946.207031
1299.750977	62321.492188
1298.657227	62432.359375
1297.562500	62234.539063
1296.467773	62638.421875
1295.373047	62567.152344
1294.278320	63159.457031
1293.183594	63052.613281
1292.087891	63360.648438
1290.992188	63307.035156
1289.896484	63399.796875
1288.800781	63452.617188
1287.704102	63334.718750
1286.608398	62977.484375
1285.511719	63830.324219
1284.415039	63652.593750
1283.317383	63260.042969
1282.220703	62852.128906
1281.123047	62617.085938
1280.025391	62021.242188
1278.927734	62793.625000
1277.830078	61857.121094
1276.731445	62000.808594
1275.633789	61646.652344
1274.535156	61668.660156
1273.436523	61279.296875
1272.336914	61263.765625
1271.238281	60951.992188
1270.138672	60856.945313
1269.039063	60540.933594
1267.939453	60101.292969
1266.839844	60264.925781
1265.739258	60125.886719
1264.638672	59845.558594
1263.538086	59984.851563
1262.437500	59464.015625
1261.336914	59614.359375
1260.235352	59559.410156
1259.134766	59208.820313
1258.033203	58538.488281
1256.930664	59096.914063
1255.829102	58839.210938
1254.726563	58835.148438
1253.625000	58465.156250
1252.522461	58388.429688
1251.418945	58560.734375
1250.316406	58481.808594
1249.212891	58365.460938
1248.110352	58711.656250
1247.006836	57888.460938
1245.902344	58252.226563
1244.798828	57889.460938
1243.694336	58092.429688
1242.589844	57923.457031
1241.485352	58022.941406
1240.380859	58313.750000
1239.276367	58217.394531
1238.170898	58274.988281
1237.065430	58191.855469
1235.959961	57983.468750
1234.854492	57632.308594
1233.748047	57558.121094
1232.642578	57510.324219
1231.536133	58079.730469
1230.429688	57566.292969
1229.322266	57630.484375
1228.215820	57288.539063
1227.108398	57493.222656
1226.000977	57410.359375
1224.893555	56822.898438
1223.786133	57181.101563
1222.677734	57328.625000
1221.569336	56962.968750
1220.460938	56555.785156
1219.352539	57251.339844
1218.244141	56550.570313
1217.134766	56457.023438
1216.025391	56424.851563
1214.916016	56548.210938
1213.806641	56708.750000
1212.697266	56087.531250
1211.586914	56885.164063
1210.476563	56531.171875
1209.366211	55938.765625
1208.255859	56046.746094
1207.145508	56439.078125
1206.034180	55840.445313
1204.922852	56322.328125
1203.811523	56344.878906
1202.700195	55991.417969
1201.587891	56062.101563
1200.476563	55979.789063
1199.364258	56542.035156
1198.251953	56523.011719
1197.138672	56897.121094
1196.026367	56878.031250
1194.913086	56738.867188
1193.799805	56647.773438
1192.686523	57250.738281
1191.573242	56897.730469
1190.458984	57218.992188
1189.344727	56839.937500
1188.230469	56663.839844
1187.116211	56594.652344
1186.001953	56416.480469
1184.886719	56345.175781
1183.772461	56568.101563
1182.657227	56143.808594
1181.541016	55761.058594
1180.425781	56097.222656
1179.309570	56250.332031
1178.193359	55959.210938
1177.077148	55920.718750
1175.960938	56315.363281
1174.844727	55787.187500
1173.727539	55648.652344
1172.610352	55310.039063
1171.493164	55761.046875
1170.375977	55342.074219
