#Wave		#Intensity
2001.248047	36850.949219
2000.278320	36996.328125
1999.308594	37365.785156
1998.338867	37379.304688
1997.369141	37395.328125
1996.398438	37351.226563
1995.428711	37853.085938
1994.458008	37320.660156
1993.487305	36998.707031
1992.516602	37465.316406
1991.545898	37551.371094
1990.574219	36879.238281
1989.603516	37855.972656
1988.631836	37284.074219
1987.660156	37737.714844
1986.688477	37398.570313
1985.715820	37452.035156
1984.744141	37295.523438
1983.771484	37473.937500
1982.798828	37874.671875
1981.826172	37658.207031
1980.853516	37336.906250
1979.880859	37630.062500
1978.907227	37558.566406
1977.933594	37474.613281
1976.959961	37378.207031
1975.986328	37830.867188
1975.012695	37489.902344
1974.039063	37720.347656
1973.064453	37958.195313
1972.089844	37363.011719
1971.115234	37747.945313
1970.140625	37803.671875
1969.166016	37527.867188
1968.190430	37735.628906
1967.215820	37534.679688
1966.240234	37979.031250
1965.264648	37768.144531
1964.289063	37622.078125
1963.312500	37540.800781
1962.336914	37827.996094
1961.360352	37953.300781
1960.383789	37521.105469
1959.407227	38233.632813
1958.430664	37804.027344
1957.454102	37638.222656
1956.476563	37900.222656
1955.499023	37555.433594
1954.521484	38063.468750
1953.543945	37994.671875
1952.566406	37983.050781
1951.587891	37949.074219
1950.610352	37669.164063
1949.631836	37940.761719
1948.653320	37660.945313
1947.674805	37954.792969
1946.696289	37709.828125
1945.716797	38068.097656
1944.737305	38011.800781
1943.758789	37794.242188
1942.779297	37926.550781
1941.798828	37761.164063
1940.819336	38317.500000
1939.838867	38060.359375
1938.859375	38296.644531
1937.878906	38198.230469
1936.898438	38060.195313
1935.916992	38065.921875
1934.936523	38262.394531
1933.955078	38060.019531
1932.974609	38310.906250
1931.993164	38205.152344
1931.010742	38238.070313
1930.029297	38704.128906
1929.047852	37888.109375
1928.065430	38757.375000
1927.083008	38221.175781
1926.100586	38338.152344
1925.118164	38361.109375
1924.135742	38351.914063
1923.152344	37816.160156
1922.168945	38686.984375
1921.185547	38225.492188
1920.202148	38337.390625
1919.218750	38113.277344
1918.235352	38464.742188
1917.250977	38248.089844
1916.266602	38646.316406
1915.282227	38437.109375
1914.297852	38489.609375
1913.313477	38406.359375
1912.328125	38742.589844
1911.343750	38570.511719
1910.358398	38896.726563
1909.373047	38685.222656
1908.387695	38587.207031
1907.401367	38900.917969
1906.416016	38866.984375
1905.429688	38722.164063
1904.443359	38907.554688
1903.457031	39028.832031
1902.470703	39236.269531
1901.483398	38980.664063
1900.497070	38456.765625
1899.509766	38582.953125
1898.522461	38935.535156
1897.535156	39204.324219
1896.546875	38830.835938
1895.559570	39362.765625
1894.571289	39023.812500
1893.583008	39198.941406
1892.594727	39189.605469
1891.606445	38912.312500
1890.618164	39205.343750
1889.628906	38947.800781
1888.639648	39245.632813
1887.650391	39516.335938
1886.661133	39253.960938
1885.671875	39362.484375
1884.682617	39451.328125
1883.692383	39449.312500
1882.702148	39297.574219
1881.711914	39450.183594
1880.721680	39676.339844
1879.731445	39711.074219
1878.740234	39571.656250
1877.749023	39493.589844
1876.757813	39915.722656
1875.766602	39724.855469
1874.775391	39840.425781
1873.784180	39860.382813
1872.791992	39583.867188
1871.799805	39870.875000
1870.807617	39832.027344
1869.815430	39864.210938
1868.823242	40300.363281
1867.830078	39815.929688
1866.837891	40220.117188
1865.844727	40210.601563
1864.851563	40333.207031
1863.858398	39800.175781
1862.864258	40367.945313
1861.871094	40333.949219
1860.876953	39960.117188
1859.882813	40302.656250
1858.888672	40256.464844
1857.894531	40220.062500
1856.899414	40730.953125
1855.905273	40135.078125
1854.910156	40528.570313
1853.915039	40482.371094
1852.919922	40802.414063
1851.923828	40793.773438
1850.928711	40785.144531
1849.932617	40776.503906
1848.936523	40767.863281
1847.940430	40759.222656
1846.944336	40793.515625
1845.947266	40742.445313
1844.951172	40693.828125
1843.954102	40920.683594
1842.957031	41125.519531
1841.959961	41505.730469
1840.962891	41617.808594
1839.964844	41352.277344
1838.966797	41235.402344
1837.969727	41359.636719
1836.970703	41418.093750
1835.972656	41710.210938
1834.974609	41403.515625
1833.975586	41306.191406
1832.976563	41773.339844
1831.978516	41719.769531
1830.978516	41826.730469
1829.979492	41792.617188
1828.980469	41775.531250
1827.980469	41962.640625
1826.980469	41947.957031
1825.980469	41809.355469
1824.980469	41993.921875
1823.979492	42137.128906
1822.979492	41828.554688
1821.978516	42107.714844
1820.977539	42068.738281
1819.976563	42403.585938
1818.975586	42323.304688
1817.973633	41944.593750
1816.972656	42313.246094
1815.970703	42230.593750
1814.968750	41946.675781
1813.966797	42429.093750
1812.963867	42385.253906
1811.961914	42372.933594
1810.958984	41846.832031
1809.956055	42384.652344
1808.953125	42406.253906
1807.950195	42800.871094
1806.946289	42759.417969
1805.943359	42599.335938
1804.939453	42562.773438
1803.935547	42235.757813
1802.930664	43264.113281
1801.926758	43234.707031
1800.922852	42735.976563
1799.917969	42771.933594
1798.913086	42807.886719
1797.908203	42843.843750
1796.903320	42879.796875
1795.897461	42915.789063
1794.891602	42951.777344
1793.886719	43490.273438
1792.880859	43987.511719
1791.874023	43735.792969
1790.868164	43583.179688
1789.862305	43324.375000
1788.855469	43584.699219
1787.848633	43820.792969
1786.841797	43595.863281
1785.833984	43863.238281
1784.827148	43894.093750
1783.819336	44115.488281
1782.812500	43692.910156
1781.804688	44131.261719
1780.795898	44277.757813
1779.788086	44002.398438
1778.779297	44098.253906
1777.771484	44702.468750
1776.762695	44586.167969
1775.753906	44925.132813
1774.744141	44305.527344
1773.735352	44403.644531
1772.725586	44858.007813
1771.715820	45136.507813
1770.706055	44842.164063
1769.696289	44913.644531
1768.686523	45011.558594
1767.675781	45056.523438
1766.666016	45113.492188
1765.655273	45052.625000
1764.644531	45261.019531
1763.632813	45789.003906
1762.622070	45432.468750
1761.610352	45631.066406
1760.598633	45887.250000
1759.586914	45581.316406
1758.575195	46108.765625
1757.563477	46182.250000
1756.550781	46466.953125
1755.538086	46389.136719
1754.525391	46352.140625
1753.512695	46451.914063
1752.500000	46539.656250
1751.486328	46732.894531
1750.473633	47007.593750
1749.459961	46591.695313
1748.446289	46664.960938
1747.432617	47035.390625
1746.417969	47036.656250
1745.404297	47023.546875
1744.389648	47434.433594
1743.375000	47725.421875
1742.360352	47329.054688
1741.344727	47155.488281
1740.330078	47582.804688
1739.314453	48196.652344
1738.298828	47747.832031
1737.283203	48502.582031
1736.267578	48572.941406
1735.251953	48373.015625
1734.235352	48845.089844
1733.218750	49056.394531
1732.202148	49607.058594
1731.185547	49760.796875
1730.168945	50048.289063
1729.151367	50192.332031
1728.133789	49892.031250
1727.117188	50320.246094
1726.098633	50882.027344
1725.081055	51223.968750
1724.063477	51568.171875
1723.044922	51835.878906
1722.026367	52294.382813
1721.007813	51753.113281
1719.989258	52404.671875
1718.970703	52650.570313
1717.951172	53053.753906
1716.931641	53013.367188
1715.912109	53433.023438
1714.892578	53966.921875
1713.873047	53583.273438
1712.853516	53619.046875
1711.833008	53492.832031
1710.812500	53833.433594
1709.791992	53869.136719
1708.771484	53809.601563
1707.750000	53338.304688
1706.729492	53278.875000
1705.708008	53642.996094
1704.686523	53502.648438
1703.665039	53738.156250
1702.642578	53757.167969
1701.621094	53141.328125
1700.598633	53459.972656
1699.576172	53162.898438
1698.553711	53227.144531
1697.531250	53215.332031
1696.507813	53338.929688
1695.485352	53248.714844
1694.461914	52942.433594
1693.438477	52990.027344
1692.415039	52384.785156
1691.390625	52729.140625
1690.367188	53286.949219
1689.342773	53237.164063
1688.318359	52900.359375
1687.293945	52701.230469
1686.269531	53443.609375
1685.244141	53434.128906
1684.218750	53220.781250
1683.194336	53557.375000
1682.168945	53225.597656
1681.142578	53360.675781
1680.117188	53275.406250
1679.090820	53121.476563
1678.064453	53621.171875
1677.038086	53748.976563
1676.011719	53488.519531
1674.985352	53990.242188
1673.958008	53746.394531
1672.931641	53509.726563
1671.904297	53303.890625
1670.876953	53999.218750
1669.848633	54124.417969
1668.821289	53776.722656
1667.792969	53923.187500
1666.764648	54126.316406
1665.736328	54029.273438
1664.708008	53953.527344
1663.679688	54062.054688
1662.650391	54184.707031
1661.621094	54944.863281
1660.591797	53974.230469
1659.562500	54606.687500
1658.533203	54986.390625
1657.502930	55059.210938
1656.472656	55098.972656
1655.442383	55513.761719
1654.412109	55680.773438
1653.381836	54883.332031
1652.351563	54963.164063
1651.320313	55686.453125
1650.289063	55360.761719
1649.257813	55640.742188
1648.226563	55510.707031
1647.194336	55272.363281
1646.163086	55467.425781
1645.130859	55864.906250
1644.098633	55329.996094
1643.066406	56071.007813
1642.033203	56164.585938
1641.000977	56279.300781
1639.967773	55798.796875
1638.934570	56565.058594
1637.901367	56451.527344
1636.868164	56323.925781
1635.833984	56309.207031
1634.800781	57199.398438
1633.766602	56441.929688
1632.732422	56958.191406
1631.697266	57121.898438
1630.663086	57635.500000
1629.627930	57430.339844
1628.593750	57753.523438
1627.558594	57168.113281
1626.522461	58136.664063
1625.487305	58095.816406
1624.451172	58559.414063
1623.416016	58835.179688
1622.379883	58637.078125
1621.343750	59634.980469
1620.306641	60388.691406
1619.270508	60741.281250
1618.233398	62146.078125
1617.196289	63369.933594
1616.159180	65111.128906
1615.122070	66085.718750
1614.083984	67352.710938
1613.046875	69057.132813
1612.008789	69613.757813
1610.970703	70748.351563
1609.932617	69792.578125
1608.893555	69497.007813
1607.855469	68668.132813
1606.816406	67582.234375
1605.777344	66237.132813
1604.738281	64155.937500
1603.698242	63471.199219
1602.659180	62038.710938
1601.619141	60585.695313
1600.579102	59488.367188
1599.539063	59033.886719
1598.499023	58726.718750
1597.458008	57394.425781
1596.417969	57456.582031
1595.376953	57271.250000
1594.335938	56654.167969
1593.294922	56805.097656
1592.252930	55852.316406
1591.210938	55898.347656
1590.169922	55421.890625
1589.127930	55206.789063
1588.084961	55474.410156
1587.042969	54776.808594
1586.000000	54790.347656
1584.958008	54731.640625
1583.915039	54584.410156
1582.872070	55087.179688
1581.828125	54700.035156
1580.785156	54899.863281
1579.741211	55241.648438
1578.697266	55420.355469
1577.653320	55252.199219
1576.609375	55265.613281
1575.564453	55253.425781
1574.520508	55783.257813
1573.475586	55668.640625
1572.430664	55698.242188
1571.384766	56120.750000
1570.339844	55964.285156
1569.293945	55703.289063
1568.249023	55505.125000
1567.202148	54751.750000
1566.156250	54802.371094
1565.110352	54146.933594
1564.063477	54139.589844
1563.017578	53700.414063
1561.970703	53848.671875
1560.922852	53159.050781
1559.875977	52973.207031
1558.829102	53116.867188
1557.781250	53100.425781
1556.733398	52896.128906
1555.685547	53218.269531
1554.636719	52830.871094
1553.588867	52955.875000
1552.540039	53110.960938
1551.491211	53122.328125
1550.442383	52899.703125
1549.393555	53015.332031
1548.344727	52658.476563
1547.294922	52359.636719
1546.245117	52903.578125
1545.195313	52796.910156
1544.145508	52942.527344
1543.094727	52419.402344
1542.044922	52585.851563
1540.994141	52810.062500
1539.943359	52516.179688
1538.892578	52987.718750
1537.840820	52206.125000
1536.790039	52090.472656
1535.738281	51947.125000
1534.686523	51480.359375
1533.634766	51896.210938
1532.583008	51066.996094
1531.530273	51588.996094
1530.477539	50827.085938
1529.424805	50979.585938
1528.372070	50762.746094
1527.319336	50746.746094
1526.265625	50610.773438
1525.212891	50371.039063
1524.159180	50387.398438
1523.105469	50606.675781
1522.051758	50671.398438
1520.997070	50768.371094
1519.942383	50632.527344
1518.888672	50386.125000
1517.833984	50395.539063
1516.778320	50444.105469
1515.723633	50596.296875
1514.667969	50393.816406
1513.612305	50271.984375
1512.556641	50012.085938
1511.500977	50286.210938
1510.445313	50755.820313
1509.388672	50084.160156
1508.332031	50424.824219
1507.275391	50201.914063
1506.218750	50896.535156
1505.162109	50625.339844
1504.104492	50630.066406
1503.047852	50646.277344
1501.990234	51218.531250
1500.931641	50759.085938
1499.874023	50896.996094
1498.816406	50260.937500
1497.757813	50410.363281
1496.699219	50821.441406
1495.640625	50573.628906
1494.582031	50727.500000
1493.522461	50305.414063
1492.462891	50977.726563
1491.403320	50509.871094
1490.343750	50546.683594
1489.284180	50876.957031
1488.224609	50358.929688
1487.164063	50817.464844
1486.103516	50638.781250
1485.042969	50849.656250
1483.982422	50677.898438
1482.920898	51076.492188
1481.860352	50840.632813
1480.798828	50929.964844
1479.737305	51346.605469
1478.675781	51058.179688
1477.613281	51458.625000
1476.550781	50989.535156
1475.489258	50943.792969
1474.426758	51680.230469
1473.363281	51515.472656
1472.300781	51796.582031
1471.237305	51485.562500
1470.174805	51533.460938
1469.111328	51377.976563
1468.046875	51720.585938
1466.983398	52008.250000
1465.919922	52275.250000
1464.855469	51647.082031
1463.791016	51932.316406
1462.726563	52260.808594
1461.661133	52623.417969
1460.596680	52874.085938
1459.531250	52371.835938
1458.465820	52376.121094
1457.400391	52749.839844
1456.334961	52462.203125
1455.268555	52844.886719
1454.202148	53056.484375
1453.135742	52944.410156
1452.069336	53506.792969
1451.002930	53105.363281
1449.935547	53553.628906
1448.869141	53826.386719
1447.801758	53686.941406
1446.734375	53272.101563
1445.666016	54172.925781
1444.598633	54094.925781
1443.530273	54244.468750
1442.461914	54730.621094
1441.393555	54627.542969
1440.325195	54724.601563
1439.256836	54921.660156
1438.187500	55689.199219
1437.118164	55422.375000
1436.048828	56219.082031
1434.979492	56574.753906
1433.909180	56585.031250
1432.839844	56511.269531
1431.769531	56912.105469
1430.699219	57473.980469
1429.627930	57524.933594
1428.557617	57496.437500
1427.486328	57787.882813
1426.416016	57791.105469
1425.343750	57828.343750
1424.272461	57817.945313
1423.201172	57798.480469
1422.128906	57611.261719
1421.056641	57800.359375
1419.984375	56894.820313
1418.912109	57201.796875
1417.839844	57146.199219
1416.766602	56809.765625
1415.693359	57007.882813
1414.620117	56848.195313
1413.546875	56740.625000
1412.473633	56940.906250
1411.399414	56896.714844
1410.325195	56909.101563
1409.250977	57511.894531
1408.176758	57377.148438
1407.102539	57052.503906
1406.027344	57442.410156
1404.952148	57814.093750
1403.876953	58334.804688
1402.801758	57718.710938
1401.726563	57852.914063
1400.650391	57865.085938
1399.574219	57606.238281
1398.498047	58042.957031
1397.421875	57973.808594
1396.345703	58209.406250
1395.268555	57939.386719
1394.191406	58262.902344
1393.114258	58376.488281
1392.037109	57921.621094
1390.959961	58251.722656
1389.881836	58108.195313
1388.804688	58756.007813
1387.726563	58740.914063
1386.647461	58813.710938
1385.569336	59424.988281
1384.491211	59691.371094
1383.412109	60239.199219
1382.333008	59892.800781
1381.253906	60041.867188
1380.173828	60238.152344
1379.094727	60468.121094
1378.014648	60187.183594
1376.934570	60183.082031
1375.854492	60239.718750
1374.773438	60055.675781
1373.693359	59777.253906
1372.612305	59420.238281
1371.531250	59083.578125
1370.450195	58693.101563
1369.369141	58287.031250
1368.287109	58263.039063
1367.205078	57989.714844
1366.123047	57687.296875
1365.041016	57160.433594
1363.958984	56575.390625
1362.875977	56589.875000
1361.793945	56846.730469
1360.710938	56459.507813
1359.626953	55852.566406
1358.543945	55743.796875
1357.460938	56366.160156
1356.376953	55687.804688
1355.292969	55242.843750
1354.208984	55302.355469
1353.124023	55292.375000
1352.040039	54993.359375
1350.955078	54947.585938
1349.870117	55007.101563
1348.785156	54795.625000
1347.700195	54550.640625
1346.614258	55364.589844
1345.528320	54398.890625
1344.442383	55163.335938
1343.356445	54551.523438
1342.270508	54550.621094
1341.183594	54384.210938
1340.096680	55034.054688
1339.009766	54796.066406
1337.922852	54497.808594
1336.835938	54881.312500
1335.748047	54348.515625
1334.661133	54269.441406
1333.573242	54456.203125
1332.484375	54352.566406
1331.396484	54807.191406
1330.307617	54109.671875
1329.219727	54532.925781
1328.130859	54956.023438
1327.041992	54493.132813
1325.952148	54150.878906
1324.863281	54611.726563
1323.773438	54894.000000
1322.683594	54667.792969
1321.593750	54831.796875
1320.502930	55087.121094
1319.413086	54522.265625
1318.322266	54915.691406
1317.231445	54890.167969
1316.140625	54739.921875
1315.048828	54776.789063
1313.958008	54577.628906
1312.866211	54961.773438
1311.774414	54842.773438
1310.682617	54910.738281
1309.589844	54133.226563
1308.498047	54784.097656
1307.405273	54594.039063
1306.312500	55135.628906
1305.218750	54996.703125
1304.125977	55015.648438
1303.032227	55247.941406
1301.939453	55424.593750
1300.845703	55614.511719
1299.750977	55284.585938
1298.657227	55896.414063
1297.562500	56936.566406
1296.467773	57035.042969
1295.373047	57293.292969
1294.278320	56985.542969
1293.183594	57119.449219
1292.087891	57397.503906
1290.992188	57753.085938
1289.896484	57762.585938
1288.800781	57208.902344
1287.704102	56697.539063
1286.608398	56753.765625
1285.511719	56663.707031
1284.415039	56622.425781
1283.317383	56306.468750
1282.220703	56196.601563
1281.123047	56060.195313
1280.025391	55618.308594
1278.927734	55617.082031
1277.830078	55618.070313
1276.731445	55422.117188
1275.633789	54518.257813
1274.535156	54132.335938
1273.436523	54593.597656
1272.336914	53460.410156
1271.238281	54182.496094
1270.138672	53646.597656
1269.039063	53225.808594
1267.939453	52915.656250
1266.839844	52888.386719
1265.739258	53068.753906
1264.638672	52937.667969
1263.538086	52451.140625
1262.437500	52121.527344
1261.336914	51778.785156
1260.235352	51974.628906
1259.134766	51843.847656
1258.033203	51953.570313
1256.930664	51794.164063
1255.829102	51281.980469
1254.726563	51281.496094
1253.625000	51069.386719
1252.522461	51126.242188
1251.418945	50876.773438
1250.316406	51231.066406
1249.212891	50772.398438
1248.110352	51525.214844
1247.006836	50868.476563
1245.902344	50848.234375
1244.798828	50922.652344
1243.694336	50787.960938
1242.589844	50765.539063
1241.485352	50516.523438
1240.380859	50863.687500
1239.276367	50572.953125
1238.170898	50374.671875
1237.065430	50506.222656
1235.959961	50428.914063
1234.854492	50898.832031
1233.748047	50157.917969
1232.642578	50058.738281
1231.536133	50227.554688
1230.429688	50640.066406
1229.322266	50268.589844
1228.215820	50371.414063
1227.108398	50502.730469
1226.000977	49865.949219
1224.893555	50359.320313
1223.786133	50236.101563
1222.677734	50086.605469
1221.569336	50408.617188
1220.460938	50149.519531
1219.352539	50368.375000
1218.244141	50045.820313
1217.134766	49835.128906
1216.025391	50047.343750
1214.916016	50097.386719
1213.806641	50199.968750
1212.697266	50289.375000
1211.586914	50326.203125
1210.476563	50039.070313
1209.366211	50323.222656
1208.255859	50447.539063
1207.145508	50140.847656
1206.034180	50507.933594
1204.922852	50413.457031
1203.811523	50784.730469
1202.700195	50862.933594
1201.587891	50331.308594
1200.476563	50365.855469
1199.364258	50332.660156
1198.251953	50631.511719
1197.138672	50956.457031
1196.026367	50765.941406
1194.913086	51047.078125
1193.799805	50625.222656
1192.686523	50707.671875
1191.573242	50903.558594
1190.458984	50844.113281
1189.344727	50786.871094
1188.230469	50592.246094
1187.116211	50423.859375
1186.001953	50534.585938
1184.886719	50139.578125
1183.772461	49995.328125
1182.657227	49689.894531
1181.541016	50136.152344
1180.425781	49981.089844
1179.309570	50159.269531
1178.193359	49812.648438
1177.077148	49442.203125
1175.960938	49522.433594
1174.844727	49271.863281
1173.727539	49056.191406
1172.610352	49293.066406
1171.493164	49016.566406
1170.375977	48879.335938
