#Wave		#Intensity
2001.242188	41209.753906
2000.272461	41427.824219
1999.302734	41094.800781
1998.333008	41130.222656
1997.363281	41323.460938
1996.392578	41621.828125
1995.422852	41732.265625
1994.452148	41464.570313
1993.481445	41394.746094
1992.510742	41515.171875
1991.540039	41740.660156
1990.568359	41515.683594
1989.596680	41413.371094
1988.625977	41776.324219
1987.654297	41914.078125
1986.681641	41724.226563
1985.709961	41994.433594
1984.738281	41709.652344
1983.765625	41797.328125
1982.792969	42079.871094
1981.820313	42025.054688
1980.847656	41655.531250
1979.874023	42222.644531
1978.901367	41728.367188
1977.927734	42317.734375
1976.954102	42235.457031
1975.980469	42078.339844
1975.006836	42013.597656
1974.032227	41926.421875
1973.058594	42126.121094
1972.083984	42216.015625
1971.109375	42530.289063
1970.134766	42607.613281
1969.160156	42158.984375
1968.184570	42256.281250
1967.209961	42336.101563
1966.234375	42276.382813
1965.258789	42306.351563
1964.283203	42301.445313
1963.306641	42734.765625
1962.331055	42667.542969
1961.354492	42642.660156
1960.377930	42540.632813
1959.401367	42351.554688
1958.424805	42341.656250
1957.447266	42553.136719
1956.470703	42401.449219
1955.493164	42893.808594
1954.515625	43274.125000
1953.538086	42861.402344
1952.560547	43142.179688
1951.582031	42891.128906
1950.604492	42838.906250
1949.625977	43164.246094
1948.647461	42948.085938
1947.668945	43248.457031
1946.689453	43111.792969
1945.710938	43412.031250
1944.731445	43384.578125
1943.751953	43431.570313
1942.772461	43165.964844
1941.792969	43451.089844
1940.813477	43237.648438
1939.833008	43502.820313
1938.852539	43207.632813
1937.873047	43680.921875
1936.891602	43569.187500
1935.911133	43581.378906
1934.930664	43980.031250
1933.949219	43925.265625
1932.967773	44209.796875
1931.986328	43583.042969
1931.004883	43731.371094
1930.023438	43924.199219
1929.041016	43993.222656
1928.059570	44109.230469
1927.077148	44081.710938
1926.094727	44294.121094
1925.112305	44241.847656
1924.128906	44063.488281
1923.146484	43932.160156
1922.163086	44095.007813
1921.179688	43973.601563
1920.196289	44188.269531
1919.212891	44294.164063
1918.228516	44135.730469
1917.245117	44298.390625
1916.260742	44480.746094
1915.276367	44426.042969
1914.291992	44687.292969
1913.307617	44711.539063
1912.322266	44382.941406
1911.336914	44496.039063
1910.352539	44552.367188
1909.367188	44539.621094
1908.380859	44551.535156
1907.395508	44787.777344
1906.409180	44614.781250
1905.423828	44845.996094
1904.437500	44823.347656
1903.451172	45079.078125
1902.463867	44984.960938
1901.477539	44772.675781
1900.490234	45321.269531
1899.503906	44786.507813
1898.516602	45110.925781
1897.528320	44852.000000
1896.541016	44733.410156
1895.553711	45229.863281
1894.565430	45322.769531
1893.577148	45545.972656
1892.588867	44962.640625
1891.600586	45296.449219
1890.611328	45372.066406
1889.623047	45516.460938
1888.633789	45709.945313
1887.644531	45198.324219
1886.655273	45283.722656
1885.666016	45280.683594
1884.675781	45437.238281
1883.686523	45517.632813
1882.696289	45129.207031
1881.706055	45398.582031
1880.715820	45380.792969
1879.724609	45299.230469
1878.734375	45502.203125
1877.743164	45825.265625
1876.751953	46108.984375
1875.760742	45262.507813
1874.769531	45389.359375
1873.778320	45197.597656
1872.786133	45569.421875
1871.793945	45551.617188
1870.801758	45347.671875
1869.809570	45638.460938
1868.817383	45632.886719
1867.824219	45480.441406
1866.832031	45886.078125
1865.838867	45393.488281
1864.845703	46146.421875
1863.851563	45864.332031
1862.858398	46308.746094
1861.865234	46007.160156
1860.871094	45823.035156
1859.876953	46135.210938
1858.882813	46171.093750
1857.887695	46016.355469
1856.893555	46279.460938
1855.898438	46315.292969
1854.904297	46365.765625
1853.909180	46465.058594
1852.913086	46176.113281
1851.917969	46253.429688
1850.922852	46709.015625
1849.926758	46383.574219
1848.930664	46565.718750
1847.934570	46628.265625
1846.938477	46446.898438
1845.941406	46448.484375
1844.945313	46849.906250
1843.948242	46480.890625
1842.951172	46974.777344
1841.954102	46732.582031
1840.956055	47021.593750
1839.958984	46465.234375
1838.960938	46966.074219
1837.962891	47474.042969
1836.964844	46871.636719
1835.966797	47145.753906
1834.968750	47512.257813
1833.969727	47479.558594
1832.970703	47291.164063
1831.971680	47360.679688
1830.972656	47131.023438
1829.973633	47037.617188
1828.973633	47819.476563
1827.974609	47653.054688
1826.974609	47613.070313
1825.974609	47351.972656
1824.974609	47814.953125
1823.973633	47908.554688
1822.973633	47730.109375
1821.972656	47692.562500
1820.971680	47786.128906
1819.970703	47571.386719
1818.968750	48203.714844
1817.967773	48020.515625
1816.965820	48019.332031
1815.964844	47979.335938
1814.961914	48024.238281
1813.959961	47795.117188
1812.958008	48184.292969
1811.955078	47846.144531
1810.953125	48363.613281
1809.950195	48575.589844
1808.947266	48184.246094
1807.943359	48379.222656
1806.940430	48549.906250
1805.936523	48475.968750
1804.932617	48537.632813
1803.928711	48412.890625
1802.924805	49050.519531
1801.920898	48836.199219
1800.916016	48900.164063
1799.911133	49232.593750
1798.907227	48696.703125
1797.901367	49065.316406
1796.896484	49245.230469
1795.891602	49255.878906
1794.885742	49003.105469
1793.879883	49325.488281
1792.874023	49123.523438
1791.868164	49404.703125
1790.862305	49615.750000
1789.855469	49314.835938
1788.848633	49677.910156
1787.842773	49673.972656
1786.834961	50041.675781
1785.828125	49839.816406
1784.821289	50062.613281
1783.813477	49872.878906
1782.805664	49979.832031
1781.797852	49869.742188
1780.790039	49933.261719
1779.782227	50418.554688
1778.773438	50298.800781
1777.764648	50188.722656
1776.755859	50476.171875
1775.747070	50664.765625
1774.738281	50687.125000
1773.729492	50449.437500
1772.719727	50881.066406
1771.709961	50720.449219
1770.700195	51231.289063
1769.690430	51080.281250
1768.680664	51307.011719
1767.669922	51896.839844
1766.659180	51387.480469
1765.648438	51181.246094
1764.637695	51984.730469
1763.626953	51353.039063
1762.615234	51620.320313
1761.604492	51887.503906
1760.592773	52036.878906
1759.581055	51998.863281
1758.569336	52366.687500
1757.556641	52002.093750
1756.544922	52136.933594
1755.532227	52449.332031
1754.519531	53145.566406
1753.506836	52997.015625
1752.494141	52944.468750
1751.480469	53402.796875
1750.466797	52868.199219
1749.454102	53002.703125
1748.440430	53218.660156
1747.425781	53202.062500
1746.412109	53214.218750
1745.397461	53497.105469
1744.383789	53317.566406
1743.369141	53360.828125
1742.353516	53547.746094
1741.338867	53590.945313
1740.324219	53792.113281
1739.308594	54211.003906
1738.292969	54033.910156
1737.277344	54457.386719
1736.261719	54361.640625
1735.245117	54851.871094
1734.229492	54921.074219
1733.212891	55107.398438
1732.196289	55886.464844
1731.179688	55931.542969
1730.162109	56263.343750
1729.145508	56353.726563
1728.127930	56635.167969
1727.110352	56338.554688
1726.092773	56920.757813
1725.075195	57710.460938
1724.056641	57712.175781
1723.039063	57766.398438
1722.020508	58109.316406
1721.001953	58602.410156
1719.983398	58549.097656
1718.963867	58586.425781
1717.945313	58990.941406
1716.925781	59097.312500
1715.906250	59318.054688
1714.886719	59176.472656
1713.867188	59585.355469
1712.846680	59574.800781
1711.826172	59811.964844
1710.806641	59915.679688
1709.786133	59533.617188
1708.764648	59704.000000
1707.744141	59605.351563
1706.722656	59870.847656
1705.701172	59448.605469
1704.679688	58798.132813
1703.658203	59375.207031
1702.636719	59426.515625
1701.614258	58876.250000
1700.592773	59605.140625
1699.570313	58914.800781
1698.547852	58174.792969
1697.524414	58931.929688
1696.501953	58524.757813
1695.478516	58818.402344
1694.456055	58551.503906
1693.432617	57845.445313
1692.408203	58371.687500
1691.384766	58259.277344
1690.360352	57883.496094
1689.336914	57832.894531
1688.312500	58233.031250
1687.288086	57883.535156
1686.262695	58183.917969
1685.238281	57630.648438
1684.212891	57985.484375
1683.187500	57662.343750
1682.162109	57554.957031
1681.136719	57729.546875
1680.110352	57655.343750
1679.084961	57943.535156
1678.058594	57862.210938
1677.032227	58280.476563
1676.005859	57581.289063
1674.978516	58110.687500
1673.952148	58057.777344
1672.924805	58035.644531
1671.897461	57838.468750
1670.870117	58275.195313
1669.842773	58640.828125
1668.814453	58774.636719
1667.787109	57962.871094
1666.758789	58351.992188
1665.730469	58573.199219
1664.701172	58432.859375
1663.672852	58786.250000
1662.643555	58294.019531
1661.615234	58812.593750
1660.585938	58634.527344
1659.555664	58798.785156
1658.526367	58788.339844
1657.497070	58907.675781
1656.466797	58550.406250
1655.436523	59268.867188
1654.406250	59154.566406
1653.375977	59761.835938
1652.344727	59267.925781
1651.313477	59660.457031
1650.282227	59319.917969
1649.250977	60086.941406
1648.219727	59619.230469
1647.188477	59406.066406
1646.156250	60325.734375
1645.124023	59797.000000
1644.091797	60556.183594
1643.059570	60241.785156
1642.027344	60468.761719
1640.994141	60434.480469
1639.961914	60938.929688
1638.928711	60718.757813
1637.895508	60976.050781
1636.861328	60777.105469
1635.828125	60796.859375
1634.793945	61032.835938
1633.759766	61496.679688
1632.725586	61640.812500
1631.691406	61836.570313
1630.656250	62384.566406
1629.622070	61753.515625
1628.586914	62475.070313
1627.551758	62832.507813
1626.516602	63138.179688
1625.480469	63070.625000
1624.445313	63667.074219
1623.409180	63988.847656
1622.373047	63771.066406
1621.336914	64821.988281
1620.300781	65143.375000
1619.263672	66240.554688
1618.227539	67009.218750
1617.190430	68447.796875
1616.153320	70019.398438
1615.115234	71452.234375
1614.078125	73071.921875
1613.040039	74026.000000
1612.001953	74548.960938
1610.963867	76104.015625
1609.925781	76450.882813
1608.887695	75515.320313
1607.848633	74692.390625
1606.809570	73001.929688
1605.770508	72345.781250
1604.731445	70628.273438
1603.692383	69194.257813
1602.652344	68029.562500
1601.613281	67718.304688
1600.573242	66311.265625
1599.533203	65762.125000
1598.492188	65556.531250
1597.452148	64568.660156
1596.411133	64666.894531
1595.370117	64305.187500
1594.329102	64146.675781
1593.288086	64163.246094
1592.247070	63766.816406
1591.205078	63326.199219
1590.163086	63919.019531
1589.121094	63445.875000
1588.079102	63728.351563
1587.036133	63600.425781
1585.994141	63533.148438
1584.951172	63239.839844
1583.908203	63757.468750
1582.865234	63394.335938
1581.822266	63098.871094
1580.778320	63411.312500
1579.734375	63486.148438
1578.691406	63623.808594
1577.646484	63370.402344
1576.602539	63526.644531
1575.558594	63887.578125
1574.513672	63401.625000
1573.468750	64292.734375
1572.423828	63981.285156
1571.378906	64441.839844
1570.333008	64207.179688
1569.288086	63872.664063
1568.242188	64916.246094
1567.196289	64163.515625
1566.150391	64012.687500
1565.103516	63857.265625
1564.057617	63502.199219
1563.010742	63541.937500
1561.963867	63270.613281
1560.916992	63503.003906
1559.869141	63118.078125
1558.822266	63208.886719
1557.774414	63227.753906
1556.726563	63040.207031
1555.678711	62759.968750
1554.630859	62994.507813
1553.582031	62396.816406
1552.534180	62983.593750
1551.485352	62474.164063
1550.436523	62275.347656
1549.386719	62905.835938
1548.337891	62892.281250
1547.288086	62547.617188
1546.238281	62631.359375
1545.188477	62812.281250
1544.138672	62199.359375
1543.088867	62181.304688
1542.038086	62144.742188
1540.987305	62133.636719
1539.936523	62050.843750
1538.885742	62183.105469
1537.834961	61913.074219
1536.783203	62042.996094
1535.731445	62029.593750
1534.679688	61457.050781
1533.627930	61429.894531
1532.576172	61455.863281
1531.523438	60978.402344
1530.471680	61623.214844
1529.418945	61164.355469
1528.366211	60781.824219
1527.312500	61052.484375
1526.259766	61136.156250
1525.206055	61293.617188
1524.152344	61287.265625
1523.098633	60990.363281
1522.044922	61018.644531
1520.990234	60595.109375
1519.936523	60828.570313
1518.881836	60329.171875
1517.827148	60774.546875
1516.772461	60388.203125
1515.716797	61077.531250
1514.662109	60322.839844
1513.606445	60005.843750
1512.550781	60271.324219
1511.495117	60127.054688
1510.438477	60281.960938
1509.382813	60241.261719
1508.326172	60432.894531
1507.269531	60244.992188
1506.212891	59730.644531
1505.155273	59931.453125
1504.098633	60021.855469
1503.041016	59935.269531
1501.983398	59662.593750
1500.925781	59645.019531
1499.867188	59326.550781
1498.809570	59217.175781
1497.750977	59243.304688
1496.692383	59113.316406
1495.633789	59467.671875
1494.575195	59427.187500
1493.515625	59095.316406
1492.457031	59330.191406
1491.397461	59087.902344
1490.337891	59386.898438
1489.277344	59009.410156
1488.217773	59147.835938
1487.157227	58614.667969
1486.096680	59452.039063
1485.036133	59136.660156
1483.975586	58851.171875
1482.915039	59495.652344
1481.853516	59588.031250
1480.791992	59597.953125
1479.730469	59676.542969
1478.668945	59224.128906
1477.606445	59332.496094
1476.544922	59804.593750
1475.482422	59697.796875
1474.419922	59113.042969
1473.357422	59253.359375
1472.293945	59539.941406
1471.231445	58902.949219
1470.167969	59774.546875
1469.104492	59884.925781
1468.041016	59679.992188
1466.976563	60043.890625
1465.913086	59823.011719
1464.848633	60310.046875
1463.784180	59920.253906
1462.719727	60439.050781
1461.655273	60384.843750
1460.589844	60522.316406
1459.524414	60595.859375
1458.458984	60669.375000
1457.393555	61025.644531
1456.328125	61030.648438
1455.261719	60518.167969
1454.196289	60507.300781
1453.129883	60749.390625
1452.063477	60558.484375
1450.996094	60700.238281
1449.929688	61256.464844
1448.862305	60810.515625
1447.794922	61525.894531
1446.727539	61223.464844
1445.660156	61567.523438
1444.591797	61347.109375
1443.524414	62187.000000
1442.456055	61907.410156
1441.387695	61525.570313
1440.318359	61694.156250
1439.250000	61921.789063
1438.180664	62333.464844
1437.111328	62783.625000
1436.041992	63101.824219
1434.972656	63540.320313
1433.903320	63901.421875
1432.833008	63667.371094
1431.762695	64103.250000
1430.692383	64123.511719
1429.622070	65190.164063
1428.550781	64141.308594
1427.480469	64653.921875
1426.409180	64243.019531
1425.337891	64571.703125
1424.266602	64204.042969
1423.194336	64308.136719
1422.122070	63800.097656
1421.050781	64198.875000
1419.978516	63713.699219
1418.905273	63477.925781
1417.833008	63165.214844
1416.759766	63027.015625
1415.687500	63353.093750
1414.614258	63341.695313
1413.540039	63561.199219
1412.466797	62827.761719
1411.392578	63237.359375
1410.319336	63336.843750
1409.245117	63807.277344
1408.169922	63872.691406
1407.095703	64085.062500
1406.020508	63978.570313
1404.946289	63675.453125
1403.871094	64382.695313
1402.794922	64456.972656
1401.719727	63769.847656
1400.643555	63896.156250
1399.568359	64153.406250
1398.492188	64148.628906
1397.415039	64538.937500
1396.338867	64272.250000
1395.261719	65578.656250
1394.185547	65323.152344
1393.108398	65203.101563
1392.031250	65592.851563
1390.953125	65659.968750
1389.875977	66270.460938
1388.797852	66646.281250
1387.719727	66632.015625
1386.641602	67023.398438
1385.562500	67286.210938
1384.484375	67985.953125
1383.405273	68212.453125
1382.326172	68513.179688
1381.247070	68739.500000
1380.166992	68902.695313
1379.087891	68689.960938
1378.007813	68756.343750
1376.927734	69412.171875
1375.847656	68585.335938
1374.767578	68737.156250
1373.686523	68230.054688
1372.605469	68622.445313
1371.524414	67641.226563
1370.443359	67858.273438
1369.362305	67407.859375
1368.280273	67263.148438
1367.199219	66579.382813
1366.117188	66363.000000
1365.034180	66297.140625
1363.952148	66455.804688
1362.870117	66084.671875
1361.787109	65866.281250
1360.704102	65015.199219
1359.621094	65474.589844
1358.537109	65911.382813
1357.454102	64847.699219
1356.370117	65295.652344
1355.286133	64138.300781
1354.202148	64297.070313
1353.118164	64186.863281
1352.033203	64383.652344
1350.948242	64631.894531
1349.863281	63836.300781
1348.778320	64153.964844
1347.693359	64460.320313
1346.607422	63884.558594
1345.521484	63700.683594
1344.435547	63528.062500
1343.349609	63398.011719
1342.263672	63733.289063
1341.176758	63484.703125
1340.090820	63390.500000
1339.003906	63387.996094
1337.916016	63197.714844
1336.829102	63829.964844
1335.741211	63702.238281
1334.654297	62935.589844
1333.566406	62977.828125
1332.478516	63489.050781
1331.389648	63218.558594
1330.301758	63146.855469
1329.212891	62974.730469
1328.124023	63632.867188
1327.035156	63333.527344
1325.945313	63714.718750
1324.856445	63587.214844
1323.766602	63404.003906
1322.676758	63388.082031
1321.586914	63664.203125
1320.496094	63784.195313
1319.406250	63353.707031
1318.315430	63687.605469
1317.224609	63947.867188
1316.133789	63577.710938
1315.041992	63764.402344
1313.951172	62960.246094
1312.859375	63616.679688
1311.767578	63496.117188
1310.675781	64125.507813
1309.583008	64024.914063
1308.491211	63864.289063
1307.398438	64253.066406
1306.305664	64179.179688
1305.212891	63745.148438
1304.119141	64215.972656
1303.026367	64551.054688
1301.932617	64614.921875
1300.838867	64614.335938
1299.744141	64802.550781
1298.650391	64344.433594
1297.555664	65041.105469
1296.461914	65111.472656
1295.366211	65328.308594
1294.271484	64834.910156
1293.176758	65635.265625
1292.081055	65958.359375
1290.985352	65902.054688
1289.889648	65799.203125
1288.793945	66232.945313
1287.697266	66070.203125
1286.601563	66078.187500
1285.504883	65999.742188
1284.408203	65786.164063
1283.311523	65889.437500
1282.213867	64991.574219
1281.116211	65152.523438
1280.018555	64959.171875
1278.920898	65332.570313
1277.823242	64736.441406
1276.725586	64246.746094
1275.626953	64392.183594
1274.528320	64407.058594
1273.429688	64019.410156
1272.330078	64067.507813
1271.231445	63306.433594
1270.131836	63359.058594
1269.032227	62887.890625
1267.932617	62697.511719
1266.833008	62765.675781
1265.732422	62343.457031
1264.632813	62725.250000
1263.532227	62764.660156
1262.430664	61965.164063
1261.330078	62366.671875
1260.228516	61922.828125
1259.127930	61496.792969
1258.026367	61320.187500
1256.924805	61410.523438
1255.822266	61342.046875
1254.720703	61167.761719
1253.618164	61064.078125
1252.515625	60742.238281
1251.413086	60986.832031
1250.309570	61033.046875
1249.207031	60737.812500
1248.103516	60352.378906
1247.000000	60486.757813
1245.895508	60852.253906
1244.791992	60068.585938
1243.687500	60183.128906
1242.583008	60458.253906
1241.478516	60464.878906
1240.374023	60504.492188
1239.269531	60225.203125
1238.164063	60412.160156
1237.058594	60519.902344
1235.953125	60128.660156
1234.847656	60620.992188
1233.741211	60157.355469
1232.635742	60528.675781
1231.529297	60142.093750
1230.422852	60221.203125
1229.315430	60370.542969
1228.208984	59891.996094
1227.101563	59501.414063
1225.994141	59817.570313
1224.886719	60129.218750
1223.779297	59732.218750
1222.670898	60078.855469
1221.562500	59936.367188
1220.454102	58789.800781
1219.345703	59658.117188
1218.237305	59274.695313
1217.127930	59509.339844
1216.018555	59932.304688
1214.909180	59290.566406
1213.799805	59746.261719
1212.690430	59652.191406
1211.580078	59527.507813
1210.469727	59459.773438
1209.359375	59783.789063
1208.249023	59335.308594
1207.138672	59667.976563
1206.027344	59322.476563
1204.916016	59650.648438
1203.804688	59598.253906
1202.693359	59775.414063
1201.581055	59607.171875
1200.469727	59782.074219
1199.357422	59917.582031
1198.245117	60164.445313
1197.131836	60428.687500
1196.019531	60315.058594
1194.906250	60282.250000
1193.792969	60192.695313
1192.679688	60546.210938
1191.566406	60406.449219
1190.452148	60423.816406
1189.337891	60323.382813
1188.223633	60543.574219
1187.109375	60028.859375
1185.995117	59797.738281
1184.879883	59765.054688
1183.764648	59889.285156
1182.649414	60139.847656
1181.534180	59638.734375
1180.418945	59449.265625
1179.302734	59368.750000
1178.186523	59706.308594
1177.070313	59090.246094
1175.954102	58716.003906
1174.837891	59416.898438
1173.720703	59375.613281
1172.603516	59103.753906
1171.486328	58986.414063
1170.369141	58712.546875
