#Wave		#Intensity
2001.248047	33404.476563
2000.278320	34056.171875
1999.308594	33939.960938
1998.338867	33846.339844
1997.369141	34218.714844
1996.398438	34069.968750
1995.428711	34169.203125
1994.458008	34120.671875
1993.487305	34004.562500
1992.516602	34043.679688
1991.545898	34097.796875
1990.574219	33989.253906
1989.603516	34155.933594
1988.631836	34022.402344
1987.660156	34056.476563
1986.688477	34068.027344
1985.715820	34077.078125
1984.744141	33941.148438
1983.771484	34280.093750
1982.798828	34229.128906
1981.826172	34118.222656
1980.853516	34097.277344
1979.880859	34211.191406
1978.907227	34687.117188
1977.933594	34401.449219
1976.959961	34103.402344
1975.986328	34584.085938
1975.012695	34360.960938
1974.039063	34654.324219
1973.064453	34231.718750
1972.089844	34347.933594
1971.115234	34419.226563
1970.140625	34492.984375
1969.166016	34314.968750
1968.190430	34348.093750
1967.215820	34381.183594
1966.240234	34414.304688
1965.264648	34447.429688
1964.289063	34480.550781
1963.312500	34513.707031
1962.336914	34546.832031
1961.360352	34481.050781
1960.383789	34584.519531
1959.407227	34389.367188
1958.430664	34373.402344
1957.454102	34205.714844
1956.476563	34358.890625
1955.499023	34728.332031
1954.521484	34339.410156
1953.543945	34502.421875
1952.566406	34528.691406
1951.587891	34204.605469
1950.610352	35184.878906
1949.631836	34830.984375
1948.653320	35100.546875
1947.674805	34801.414063
1946.696289	34795.320313
1945.716797	34891.000000
1944.737305	34783.140625
1943.758789	34836.601563
1942.779297	34508.000000
1941.798828	35119.570313
1940.819336	34934.867188
1939.838867	34544.425781
1938.859375	35130.875000
1937.878906	35223.871094
1936.898438	34674.976563
1935.916992	35025.699219
1934.936523	35237.570313
1933.955078	35060.496094
1932.974609	35066.734375
1931.993164	35535.992188
1931.010742	35103.964844
1930.029297	35318.105469
1929.047852	35215.402344
1928.065430	35006.339844
1927.083008	35151.113281
1926.100586	34979.234375
1925.118164	35245.136719
1924.135742	34969.449219
1923.152344	35346.503906
1922.168945	34969.554688
1921.185547	35331.644531
1920.202148	35224.148438
1919.218750	35220.441406
1918.235352	34949.984375
1917.250977	34677.148438
1916.266602	34841.437500
1915.282227	35168.597656
1914.297852	35258.695313
1913.313477	35025.476563
1912.328125	35428.917969
1911.343750	34983.589844
1910.358398	35325.230469
1909.373047	35240.125000
1908.387695	35307.914063
1907.401367	34927.007813
1906.416016	35211.726563
1905.429688	35185.835938
1904.443359	34832.253906
1903.457031	35602.136719
1902.470703	35393.921875
1901.483398	35148.839844
1900.497070	34884.144531
1899.509766	35175.894531
1898.522461	35233.718750
1897.535156	35503.156250
1896.546875	35551.054688
1895.559570	35163.511719
1894.571289	35432.816406
1893.583008	35741.371094
1892.594727	35486.765625
1891.606445	35325.664063
1890.618164	35140.039063
1889.628906	35251.828125
1888.639648	35427.457031
1887.650391	35303.324219
1886.661133	35542.738281
1885.671875	35536.496094
1884.682617	35034.292969
1883.692383	35447.917969
1882.702148	35503.054688
1881.711914	35585.164063
1880.721680	35181.437500
1879.731445	35332.261719
1878.740234	35738.105469
1877.749023	35756.351563
1876.757813	35696.128906
1875.766602	35557.484375
1874.775391	35254.671875
1873.784180	35576.847656
1872.791992	35553.449219
1871.799805	35593.746094
1870.807617	35697.707031
1869.815430	35652.253906
1868.823242	35391.355469
1867.830078	35566.285156
1866.837891	35601.644531
1865.844727	35389.832031
1864.851563	35515.730469
1863.858398	36373.007813
1862.864258	35823.644531
1861.871094	35964.070313
1860.876953	35991.976563
1859.882813	35743.644531
1858.888672	35624.929688
1857.894531	35672.429688
1856.899414	35639.281250
1855.905273	35840.652344
1854.910156	36212.914063
1853.915039	35732.812500
1852.919922	35990.210938
1851.923828	36206.015625
1850.928711	36019.042969
1849.932617	36117.636719
1848.936523	35594.046875
1847.940430	35902.460938
1846.944336	36035.164063
1845.947266	36138.558594
1844.951172	36185.835938
1843.954102	36564.617188
1842.957031	36263.281250
1841.959961	36503.015625
1840.962891	36252.957031
1839.964844	36585.171875
1838.966797	36459.390625
1837.969727	36521.156250
1836.970703	36629.156250
1835.972656	36608.105469
1834.974609	36806.097656
1833.975586	36534.382813
1832.976563	36576.609375
1831.978516	37025.046875
1830.978516	36305.933594
1829.979492	36367.625000
1828.980469	36908.246094
1827.980469	36629.496094
1826.980469	36632.769531
1825.980469	36772.113281
1824.980469	37030.453125
1823.979492	36642.566406
1822.979492	36446.675781
1821.978516	36500.960938
1820.977539	37171.886719
1819.976563	36891.046875
1818.975586	36906.386719
1817.973633	36759.148438
1816.972656	37063.210938
1815.970703	36687.980469
1814.968750	37467.289063
1813.966797	37087.265625
1812.963867	37083.156250
1811.961914	36778.476563
1810.958984	37319.707031
1809.956055	37024.781250
1808.953125	36952.843750
1807.950195	37314.511719
1806.946289	37179.578125
1805.943359	37361.890625
1804.939453	37316.566406
1803.935547	37566.562500
1802.930664	37184.824219
1801.926758	36970.175781
1800.922852	37469.281250
1799.917969	37648.921875
1798.913086	37388.351563
1797.908203	37347.906250
1796.903320	37919.109375
1795.897461	37876.171875
1794.891602	37833.234375
1793.886719	37877.300781
1792.880859	37556.558594
1791.874023	37789.058594
1790.868164	37796.882813
1789.862305	37792.628906
1788.855469	37933.222656
1787.848633	37704.468750
1786.841797	38207.015625
1785.833984	37843.171875
1784.827148	37942.640625
1783.819336	37894.937500
1782.812500	38158.347656
1781.804688	38416.835938
1780.795898	37804.964844
1779.788086	38318.914063
1778.779297	38601.335938
1777.771484	38418.628906
1776.762695	39151.417969
1775.753906	38600.160156
1774.744141	38537.957031
1773.735352	39010.292969
1772.725586	38668.789063
1771.715820	38654.738281
1770.706055	38859.679688
1769.696289	38645.898438
1768.686523	38732.890625
1767.675781	38420.589844
1766.666016	39279.519531
1765.655273	39306.242188
1764.644531	39054.097656
1763.632813	38941.441406
1762.622070	39213.320313
1761.610352	39564.382813
1760.598633	39149.015625
1759.586914	39920.281250
1758.575195	39320.085938
1757.563477	39505.210938
1756.550781	39649.464844
1755.538086	39467.246094
1754.525391	40237.765625
1753.512695	39758.000000
1752.500000	40168.367188
1751.486328	40283.585938
1750.473633	40185.339844
1749.459961	40377.234375
1748.446289	39869.093750
1747.432617	40513.949219
1746.417969	40676.917969
1745.404297	40413.371094
1744.389648	40490.062500
1743.375000	40509.246094
1742.360352	40456.585938
1741.344727	40573.925781
1740.330078	40844.421875
1739.314453	41244.062500
1738.298828	41301.371094
1737.283203	41105.062500
1736.267578	41418.324219
1735.251953	41241.187500
1734.235352	41948.859375
1733.218750	42106.402344
1732.202148	42151.539063
1731.185547	42454.769531
1730.168945	42542.835938
1729.151367	42473.191406
1728.133789	42351.015625
1727.117188	42751.910156
1726.098633	43100.125000
1725.081055	43555.652344
1724.063477	44070.687500
1723.044922	43938.785156
1722.026367	44260.289063
1721.007813	44273.925781
1719.989258	44337.644531
1718.970703	44713.753906
1717.951172	45313.867188
1716.931641	45072.210938
1715.912109	44947.429688
1714.892578	45537.644531
1713.873047	45205.523438
1712.853516	45485.777344
1711.833008	45084.707031
1710.812500	45729.246094
1709.791992	45592.566406
1708.771484	45396.417969
1707.750000	45764.449219
1706.729492	45851.531250
1705.708008	46100.378906
1704.686523	45980.398438
1703.665039	45715.367188
1702.642578	45811.902344
1701.621094	45946.445313
1700.598633	45890.753906
1699.576172	46213.003906
1698.553711	45418.214844
1697.531250	46353.433594
1696.507813	46340.464844
1695.485352	46439.132813
1694.461914	46492.640625
1693.438477	46586.492188
1692.415039	46753.898438
1691.390625	46769.343750
1690.367188	46602.054688
1689.342773	46954.429688
1688.318359	46903.402344
1687.293945	47286.429688
1686.269531	47396.609375
1685.244141	47248.316406
1684.218750	47339.496094
1683.194336	47347.687500
1682.168945	47566.777344
1681.142578	48153.023438
1680.117188	47900.488281
1679.090820	48320.675781
1678.064453	48172.386719
1677.038086	48767.574219
1676.011719	48465.390625
1674.985352	48745.531250
1673.958008	48613.828125
1672.931641	48709.300781
1671.904297	48707.750000
1670.876953	49060.957031
1669.848633	49243.785156
1668.821289	49350.886719
1667.792969	49514.683594
1666.764648	49305.003906
1665.736328	49350.597656
1664.708008	49611.164063
1663.679688	49668.492188
1662.650391	49463.648438
1661.621094	49483.199219
1660.591797	50062.269531
1659.562500	50133.632813
1658.533203	50485.808594
1657.502930	50075.707031
1656.472656	50007.832031
1655.442383	49699.382813
1654.412109	50336.742188
1653.381836	50462.199219
1652.351563	50297.636719
1651.320313	50286.339844
1650.289063	49959.253906
1649.257813	50273.179688
1648.226563	49983.902344
1647.194336	50420.191406
1646.163086	50119.207031
1645.130859	50494.097656
1644.098633	50850.015625
1643.066406	50655.031250
1642.033203	50478.937500
1641.000977	50380.550781
1639.967773	50747.992188
1638.934570	50992.992188
1637.901367	50765.222656
1636.868164	50939.589844
1635.833984	50958.742188
1634.800781	50905.019531
1633.766602	51455.261719
1632.732422	51361.523438
1631.697266	52000.753906
1630.663086	51831.789063
1629.627930	52287.535156
1628.593750	52181.968750
1627.558594	52646.871094
1626.522461	52726.695313
1625.487305	53066.960938
1624.451172	52712.621094
1623.416016	53268.582031
1622.379883	53270.828125
1621.343750	54018.773438
1620.306641	54027.914063
1619.270508	54794.207031
1618.233398	55143.042969
1617.196289	56243.949219
1616.159180	57021.148438
1615.122070	57905.816406
1614.083984	59417.839844
1613.046875	59650.792969
1612.008789	60134.167969
1610.970703	60909.968750
1609.932617	61315.707031
1608.893555	61220.550781
1607.855469	61296.207031
1606.816406	60370.691406
1605.777344	59546.062500
1604.738281	59056.105469
1603.698242	58087.050781
1602.659180	57377.800781
1601.619141	56769.292969
1600.579102	56789.554688
1599.539063	56295.839844
1598.499023	55891.058594
1597.458008	55059.042969
1596.417969	54727.003906
1595.376953	54630.871094
1594.335938	54504.429688
1593.294922	53701.246094
1592.252930	53617.011719
1591.210938	54200.007813
1590.169922	53870.792969
1589.127930	53278.175781
1588.084961	54101.074219
1587.042969	53618.187500
1586.000000	54028.175781
1584.958008	54575.503906
1583.915039	53983.277344
1582.872070	54427.914063
1581.828125	54231.875000
1580.785156	54941.781250
1579.741211	55344.093750
1578.697266	55082.808594
1577.653320	55519.859375
1576.609375	55786.878906
1575.564453	55579.160156
1574.520508	55762.320313
1573.475586	55631.429688
1572.430664	56235.410156
1571.384766	55974.277344
1570.339844	56094.464844
1569.293945	55661.453125
1568.249023	55760.738281
1567.202148	55088.632813
1566.156250	54472.519531
1565.110352	54311.832031
1564.063477	53939.890625
1563.017578	53965.085938
1561.970703	53732.609375
1560.922852	53261.167969
1559.875977	53462.816406
1558.829102	53385.992188
1557.781250	53401.972656
1556.733398	53271.839844
1555.685547	53468.695313
1554.636719	53491.605469
1553.588867	53431.054688
1552.540039	52825.906250
1551.491211	52939.277344
1550.442383	52654.128906
1549.393555	52577.550781
1548.344727	52461.628906
1547.294922	51972.953125
1546.245117	51975.242188
1545.195313	51602.554688
1544.145508	51801.617188
1543.094727	51646.589844
1542.044922	51341.242188
1540.994141	51325.128906
1539.943359	51440.832031
1538.892578	51376.148438
1537.840820	51380.832031
1536.790039	51477.968750
1535.738281	51105.953125
1534.686523	51325.554688
1533.634766	51120.019531
1532.583008	51653.656250
1531.530273	51672.128906
1530.477539	51494.343750
1529.424805	51302.769531
1528.372070	51374.375000
1527.319336	51053.656250
1526.265625	51171.421875
1525.212891	51187.644531
1524.159180	50765.644531
1523.105469	50772.707031
1522.051758	50973.425781
1520.997070	50639.281250
1519.942383	50743.152344
1518.888672	50552.035156
1517.833984	50513.039063
1516.778320	50925.535156
1515.723633	50301.500000
1514.667969	50331.644531
1513.612305	49894.417969
1512.556641	50150.199219
1511.500977	49883.460938
1510.445313	49609.914063
1509.388672	49184.625000
1508.332031	49237.921875
1507.275391	48812.847656
1506.218750	49328.363281
1505.162109	49144.808594
1504.104492	49237.144531
1503.047852	48803.175781
1501.990234	48794.433594
1500.931641	48636.371094
1499.874023	49445.355469
1498.816406	48839.410156
1497.757813	48775.558594
1496.699219	48886.195313
1495.640625	48792.511719
1494.582031	49362.070313
1493.522461	48850.746094
1492.462891	48901.636719
1491.403320	48851.589844
1490.343750	48801.558594
1489.284180	48510.800781
1488.224609	49008.718750
1487.164063	48807.410156
1486.103516	48915.531250
1485.042969	49149.625000
1483.982422	48952.976563
1482.920898	48795.328125
1481.860352	49608.660156
1480.798828	48807.597656
1479.737305	49268.109375
1478.675781	48945.726563
1477.613281	48893.472656
1476.550781	49063.160156
1475.489258	49445.511719
1474.426758	49336.015625
1473.363281	49039.050781
1472.300781	48918.230469
1471.237305	48724.304688
1470.174805	48829.835938
1469.111328	49565.980469
1468.046875	49059.050781
1466.983398	49294.656250
1465.919922	49541.589844
1464.855469	49820.402344
1463.791016	49014.718750
1462.726563	49825.351563
1461.661133	49992.132813
1460.596680	49549.632813
1459.531250	49771.152344
1458.465820	50168.218750
1457.400391	50729.332031
1456.334961	49833.277344
1455.268555	50070.535156
1454.202148	50366.964844
1453.135742	50298.671875
1452.069336	50934.437500
1451.002930	50333.003906
1449.935547	50809.097656
1448.869141	50385.523438
1447.801758	50692.949219
1446.734375	51177.820313
1445.666016	51143.593750
1444.598633	51154.886719
1443.530273	51459.667969
1442.461914	52080.531250
1441.393555	52496.476563
1440.325195	52361.980469
1439.256836	52898.218750
1438.187500	53568.378906
1437.118164	53383.753906
1436.048828	53585.484375
1434.979492	54050.679688
1433.909180	53661.625000
1432.839844	54231.105469
1431.769531	53701.375000
1430.699219	54277.449219
1429.627930	54440.203125
1428.557617	54378.218750
1427.486328	54559.039063
1426.416016	54494.785156
1425.343750	55192.671875
1424.272461	55232.636719
1423.201172	55299.796875
1422.128906	54967.937500
1421.056641	55363.773438
1419.984375	55990.613281
1418.912109	55776.621094
1417.839844	55748.464844
1416.766602	55226.554688
1415.693359	55470.250000
1414.620117	54747.066406
1413.546875	54859.457031
1412.473633	54682.101563
1411.399414	54676.785156
1410.325195	54454.269531
1409.250977	54148.136719
1408.176758	54611.085938
1407.102539	54544.726563
1406.027344	55328.480469
1404.952148	55759.316406
1403.876953	55927.824219
1402.801758	56491.710938
1401.726563	56167.503906
1400.650391	56839.566406
1399.574219	56829.332031
1398.498047	56742.324219
1397.421875	56242.199219
1396.345703	56033.437500
1395.268555	56217.433594
1394.191406	55801.152344
1393.114258	55861.039063
1392.037109	55422.414063
1390.959961	55295.160156
1389.881836	55494.894531
1388.804688	55115.175781
1387.726563	55258.519531
1386.647461	55904.351563
1385.569336	56184.937500
1384.491211	56215.363281
1383.412109	56198.476563
1382.333008	56704.042969
1381.253906	57119.367188
1380.173828	57082.058594
1379.094727	56610.371094
1378.014648	57126.742188
1376.934570	56754.207031
1375.854492	56300.820313
1374.773438	56418.871094
1373.693359	55862.261719
1372.612305	55663.335938
1371.531250	55441.996094
1370.450195	55065.656250
1369.369141	54572.605469
1368.287109	54185.320313
1367.205078	54440.609375
1366.123047	53790.718750
1365.041016	54346.871094
1363.958984	53490.683594
1362.875977	53353.089844
1361.793945	53417.523438
1360.710938	53569.441406
1359.626953	53203.070313
1358.543945	53303.378906
1357.460938	53076.226563
1356.376953	52860.363281
1355.292969	52512.308594
1354.208984	52464.730469
1353.124023	52742.109375
1352.040039	52613.835938
1350.955078	52803.718750
1349.870117	52323.828125
1348.785156	52126.273438
1347.700195	52287.027344
1346.614258	52275.347656
1345.528320	52632.968750
1344.442383	52395.210938
1343.356445	52587.113281
1342.270508	52358.394531
1341.183594	52422.746094
1340.096680	52404.332031
1339.009766	52499.949219
1337.922852	52479.289063
1336.835938	52903.386719
1335.748047	52983.210938
1334.661133	52426.277344
1333.573242	53285.726563
1332.484375	53267.164063
1331.396484	53201.718750
1330.307617	53332.753906
1329.219727	53465.972656
1328.130859	53451.843750
1327.041992	53346.238281
1325.952148	53396.832031
1324.863281	53621.382813
1323.773438	53486.804688
1322.683594	53180.582031
1321.593750	53233.390625
1320.502930	53399.847656
1319.413086	53354.539063
1318.322266	53674.648438
1317.231445	53295.144531
1316.140625	53147.414063
1315.048828	53209.066406
1313.958008	53177.175781
1312.866211	53448.042969
1311.774414	53164.617188
1310.682617	53735.796875
1309.589844	54084.281250
1308.498047	53943.250000
1307.405273	54291.566406
1306.312500	54788.738281
1305.218750	54721.019531
1304.125977	55524.683594
1303.032227	55836.890625
1301.939453	56828.929688
1300.845703	57438.484375
1299.750977	58460.968750
1298.657227	59734.035156
1297.562500	60493.714844
1296.467773	61506.203125
1295.373047	62121.003906
1294.278320	62298.394531
1293.183594	62211.671875
1292.087891	61772.250000
1290.992188	61321.894531
1289.896484	60904.964844
1288.800781	59565.816406
1287.704102	59552.812500
1286.608398	58504.738281
1285.511719	57492.500000
1284.415039	57672.628906
1283.317383	57434.015625
1282.220703	56338.347656
1281.123047	56624.875000
1280.025391	55937.125000
1278.927734	55601.589844
1277.830078	55724.304688
1276.731445	55112.324219
1275.633789	54907.644531
1274.535156	54981.750000
1273.436523	55020.437500
1272.336914	54791.558594
1271.238281	54206.816406
1270.138672	54066.574219
1269.039063	53758.421875
1267.939453	53552.019531
1266.839844	53988.570313
1265.739258	53415.535156
1264.638672	53721.652344
1263.538086	53440.328125
1262.437500	52805.882813
1261.336914	53604.144531
1260.235352	53499.527344
1259.134766	52832.316406
1258.033203	53135.984375
1256.930664	52623.468750
1255.829102	53529.082031
1254.726563	52979.195313
1253.625000	52857.156250
1252.522461	52607.332031
1251.418945	52469.976563
1250.316406	52555.191406
1249.212891	52279.117188
1248.110352	51899.625000
1247.006836	52317.394531
1245.902344	52076.730469
1244.798828	51913.191406
1243.694336	52126.050781
1242.589844	51749.121094
1241.485352	51763.925781
1240.380859	51833.714844
1239.276367	51534.007813
1238.170898	51575.222656
1237.065430	51519.687500
1235.959961	51723.539063
1234.854492	51643.824219
1233.748047	51660.808594
1232.642578	51664.609375
1231.536133	51841.917969
1230.429688	51814.933594
1229.322266	52126.078125
1228.215820	52149.539063
1227.108398	52607.558594
1226.000977	53214.632813
1224.893555	52739.832031
1223.786133	53258.910156
1222.677734	53358.890625
1221.569336	53373.316406
1220.460938	53591.628906
1219.352539	53502.972656
1218.244141	53074.648438
1217.134766	52997.070313
1216.025391	52895.421875
1214.916016	52572.574219
1213.806641	52648.425781
1212.697266	52404.562500
1211.586914	52832.882813
1210.476563	52440.226563
1209.366211	52645.160156
1208.255859	53073.195313
1207.145508	52661.015625
1206.034180	52590.191406
1204.922852	52547.824219
1203.811523	52678.199219
1202.700195	53110.199219
1201.587891	53216.375000
1200.476563	53270.066406
1199.364258	53498.523438
1198.251953	53608.933594
1197.138672	53378.589844
1196.026367	53471.699219
1194.913086	53564.890625
1193.799805	53658.082031
1192.686523	53751.273438
1191.573242	53844.464844
1190.458984	53937.738281
1189.344727	54150.410156
1188.230469	53929.007813
1187.116211	53302.109375
1186.001953	53715.343750
1184.886719	53154.097656
1183.772461	53310.046875
1182.657227	53147.812500
1181.541016	52811.359375
1180.425781	52742.929688
1179.309570	52953.273438
1178.193359	52771.621094
1177.077148	52622.683594
1175.960938	52539.097656
1174.844727	51989.843750
1173.727539	52456.859375
1172.610352	51749.019531
1171.493164	51619.964844
1170.375977	51671.445313
