#Wave		#Intensity
2001.221680	38943.714844
2000.251953	38490.035156
1999.282227	38723.898438
1998.312500	38737.183594
1997.342773	38712.886719
1996.372070	38175.117188
1995.402344	38521.562500
1994.431641	38492.300781
1993.460938	38640.792969
1992.490234	38739.171875
1991.518555	38407.074219
1990.547852	38663.089844
1989.576172	38851.472656
1988.604492	38792.160156
1987.632813	39135.500000
1986.661133	39193.675781
1985.689453	38676.835938
1984.716797	38682.578125
1983.745117	38850.753906
1982.772461	39016.375000
1981.799805	38732.257813
1980.827148	38490.699219
1979.853516	39098.316406
1978.880859	38726.937500
1977.907227	38977.308594
1976.933594	38516.218750
1975.959961	38856.375000
1974.986328	38862.058594
1974.011719	38468.585938
1973.038086	39145.292969
1972.063477	39128.476563
1971.088867	39029.378906
1970.114258	38942.781250
1969.138672	39332.289063
1968.164063	39455.000000
1967.188477	38723.027344
1966.212891	39072.500000
1965.237305	39401.925781
1964.261719	39101.175781
1963.286133	39286.058594
1962.309570	38607.027344
1961.333984	39284.765625
1960.357422	39009.121094
1959.380859	39211.308594
1958.404297	39361.175781
1957.426758	39540.839844
1956.450195	39339.945313
1955.472656	39663.761719
1954.495117	39124.816406
1953.517578	38966.347656
1952.540039	39449.105469
1951.561523	39235.968750
1950.583008	38916.085938
1949.605469	39363.816406
1948.626953	39491.031250
1947.647461	39595.855469
1946.668945	39514.449219
1945.690430	39122.804688
1944.710938	39460.910156
1943.731445	39543.324219
1942.751953	39650.519531
1941.772461	39871.769531
1940.791992	39534.960938
1939.812500	39681.765625
1938.832031	39593.007813
1937.851563	39519.152344
1936.871094	39375.933594
1935.890625	39398.769531
1934.909180	39879.902344
1933.928711	39645.042969
1932.947266	39709.917969
1931.965820	39784.671875
1930.984375	39822.261719
1930.002930	39825.187500
1929.020508	39588.062500
1928.038086	39826.078125
1927.056641	39613.773438
1926.074219	39567.257813
1925.090820	39641.933594
1924.108398	39469.324219
1923.125000	40112.574219
1922.142578	39161.363281
1921.159180	40140.527344
1920.175781	39636.859375
1919.191406	39874.480469
1918.208008	40119.425781
1917.223633	39761.722656
1916.240234	39999.191406
1915.255859	39876.152344
1914.271484	39674.171875
1913.286133	39879.445313
1912.301758	40328.914063
1911.316406	39697.710938
1910.331055	39868.335938
1909.345703	40098.085938
1908.360352	40263.648438
1907.375000	40059.371094
1906.388672	40086.851563
1905.402344	40240.003906
1904.416016	40434.984375
1903.429688	40356.449219
1902.443359	40406.019531
1901.457031	40374.308594
1900.469727	40329.515625
1899.482422	40284.718750
1898.495117	40239.925781
1897.507813	40195.132813
1896.520508	40150.339844
1895.532227	40105.500000
1894.543945	40661.703125
1893.556641	40676.699219
1892.568359	40310.589844
1891.579102	40485.425781
1890.590820	40195.667969
1889.601563	40345.886719
1888.613281	40781.062500
1887.624023	40331.722656
1886.634766	40614.464844
1885.644531	40491.914063
1884.655273	40907.109375
1883.665039	40814.007813
1882.674805	41057.191406
1881.684570	40961.636719
1880.694336	40915.187500
1879.704102	41199.921875
1878.712891	41224.570313
1877.722656	40957.390625
1876.731445	40817.800781
1875.740234	40982.226563
1874.748047	40835.320313
1873.756836	41173.671875
1872.764648	41014.531250
1871.773438	41154.304688
1870.781250	40610.691406
1869.788086	41308.812500
1868.795898	41210.960938
1867.803711	41120.492188
1866.810547	41399.621094
1865.817383	41260.203125
1864.824219	41000.949219
1863.831055	41111.160156
1862.837891	41725.164063
1861.843750	41656.695313
1860.849609	40864.550781
1859.855469	41470.933594
1858.861328	41395.210938
1857.867188	41761.808594
1856.872070	41720.261719
1855.877930	41607.882813
1854.882813	41327.023438
1853.887695	41759.300781
1852.892578	41500.484375
1851.896484	41961.871094
1850.901367	41634.765625
1849.905273	41798.257813
1848.909180	41544.488281
1847.913086	41890.882813
1846.916992	41895.710938
1845.919922	41763.976563
1844.923828	42027.253906
1843.926758	41880.914063
1842.929688	42107.515625
1841.932617	41617.625000
1840.935547	42185.277344
1839.937500	42036.570313
1838.939453	42238.625000
1837.942383	41958.464844
1836.943359	41839.085938
1835.945313	42333.167969
1834.947266	42058.000000
1833.948242	42427.761719
1832.949219	42685.480469
1831.951172	42585.531250
1830.951172	42315.371094
1829.952148	42782.089844
1828.953125	42232.398438
1827.953125	42830.222656
1826.953125	42720.605469
1825.953125	42914.765625
1824.953125	42596.234375
1823.952148	42792.773438
1822.952148	42928.523438
1821.951172	42755.843750
1820.950195	43175.601563
1819.949219	42968.953125
1818.948242	42628.894531
1817.946289	42902.859375
1816.945313	42994.765625
1815.943359	43040.554688
1814.941406	42829.253906
1813.939453	43117.531250
1812.936523	43194.785156
1811.934570	43550.761719
1810.931641	43371.015625
1809.928711	43072.601563
1808.925781	43043.207031
1807.921875	43440.128906
1806.918945	43175.761719
1805.915039	43366.703125
1804.912109	43610.835938
1803.908203	43409.503906
1802.903320	44149.656250
1801.899414	43904.746094
1800.894531	43289.777344
1799.890625	43877.167969
1798.885742	43600.992188
1797.880859	43895.546875
1796.875000	44001.425781
1795.870117	43892.148438
1794.864258	43816.738281
1793.858398	43924.988281
1792.852539	44163.656250
1791.846680	44337.019531
1790.840820	44423.378906
1789.833984	44533.855469
1788.828125	44480.128906
1787.821289	44315.390625
1786.814453	44206.210938
1785.806641	44514.492188
1784.799805	43922.832031
1783.791992	44272.054688
1782.784180	44452.343750
1781.776367	44774.820313
1780.768555	44701.828125
1779.760742	44987.992188
1778.751953	44751.113281
1777.743164	44887.777344
1776.735352	44723.269531
1775.725586	45107.972656
1774.716797	45006.085938
1773.708008	44728.472656
1772.698242	45344.066406
1771.688477	45249.414063
1770.678711	45340.085938
1769.668945	45346.515625
1768.659180	45516.519531
1767.648438	45465.187500
1766.637695	45798.628906
1765.626953	45660.707031
1764.616211	45748.796875
1763.605469	46127.671875
1762.593750	46350.218750
1761.583008	46236.312500
1760.571289	46271.378906
1759.559570	46356.875000
1758.547852	46288.648438
1757.535156	46582.984375
1756.523438	46574.750000
1755.510742	46367.312500
1754.498047	46534.292969
1753.485352	47142.671875
1752.472656	46697.753906
1751.458984	46691.894531
1750.445313	46642.875000
1749.432617	46387.679688
1748.417969	47230.457031
1747.404297	47166.980469
1746.390625	47252.093750
1745.375977	47682.179688
1744.361328	47719.257813
1743.346680	47509.640625
1742.332031	47484.472656
1741.317383	47638.878906
1740.302734	48085.261719
1739.287109	48466.863281
1738.271484	48520.503906
1737.255859	48662.644531
1736.240234	48809.515625
1735.223633	49240.937500
1734.208008	48820.941406
1733.191406	49512.796875
1732.174805	49934.296875
1731.158203	50401.054688
1730.140625	50717.105469
1729.124023	50837.140625
1728.106445	50761.257813
1727.088867	51246.636719
1726.071289	51516.937500
1725.053711	51868.312500
1724.035156	52002.347656
1723.017578	52539.660156
1721.999023	52530.355469
1720.980469	52337.355469
1719.961914	52898.167969
1718.942383	53031.894531
1717.923828	53027.269531
1716.904297	52898.679688
1715.884766	52970.351563
1714.865234	53244.566406
1713.844727	53218.457031
1712.825195	53037.500000
1711.804688	53292.496094
1710.784180	53787.925781
1709.763672	52887.882813
1708.743164	53371.304688
1707.722656	53038.140625
1706.701172	52897.851563
1705.679688	53083.585938
1704.658203	52855.316406
1703.636719	53128.992188
1702.615234	52667.738281
1701.592773	52503.855469
1700.571289	52537.339844
1699.548828	52240.429688
1698.526367	52328.601563
1697.502930	52319.324219
1696.480469	52348.058594
1695.457031	51806.742188
1694.433594	52272.503906
1693.410156	52187.257813
1692.386719	51973.847656
1691.363281	52066.691406
1690.338867	52033.726563
1689.314453	52128.894531
1688.290039	51944.105469
1687.265625	51643.160156
1686.241211	52297.980469
1685.215820	52158.304688
1684.191406	52004.449219
1683.166016	52253.562500
1682.140625	51677.937500
1681.115234	52204.222656
1680.088867	52358.410156
1679.062500	51929.906250
1678.037109	52401.394531
1677.010742	52107.988281
1675.983398	52479.851563
1674.957031	52695.375000
1673.930664	52589.003906
1672.903320	52896.699219
1671.875977	53041.066406
1670.848633	52941.777344
1669.820313	53010.410156
1668.792969	52665.281250
1667.764648	53473.804688
1666.736328	52596.949219
1665.708008	53374.472656
1664.679688	53008.253906
1663.651367	53570.472656
1662.622070	53674.320313
1661.592773	53719.093750
1660.563477	54174.644531
1659.534180	53810.953125
1658.504883	53883.996094
1657.474609	54485.558594
1656.444336	54773.136719
1655.415039	54525.171875
1654.383789	54977.718750
1653.353516	54875.992188
1652.323242	54201.421875
1651.291992	54102.222656
1650.260742	54776.039063
1649.229492	54980.722656
1648.198242	54853.160156
1647.166016	54852.832031
1646.134766	55582.550781
1645.102539	55348.984375
1644.070313	55383.875000
1643.038086	55640.000000
1642.004883	55712.476563
1640.972656	55857.859375
1639.939453	55967.906250
1638.906250	56458.941406
1637.873047	56420.683594
1636.839844	56798.601563
1635.805664	56569.875000
1634.772461	57105.105469
1633.738281	56693.101563
1632.704102	57319.746094
1631.668945	57781.726563
1630.634766	57844.257813
1629.599609	58155.683594
1628.565430	58319.082031
1627.530273	58083.347656
1626.494141	58680.898438
1625.458984	59179.675781
1624.422852	59652.464844
1623.387695	60225.953125
1622.351563	60914.156250
1621.315430	61581.007813
1620.278320	62275.753906
1619.242188	63879.773438
1618.205078	65820.710938
1617.167969	67200.906250
1616.130859	68964.843750
1615.093750	70969.421875
1614.055664	72821.046875
1613.018555	74693.085938
1611.980469	76445.054688
1610.942383	77206.242188
1609.904297	76689.312500
1608.865234	76427.625000
1607.827148	75185.750000
1606.788086	73160.718750
1605.749023	71842.687500
1604.709961	69119.812500
1603.669922	67592.554688
1602.630859	66000.398438
1601.590820	64637.828125
1600.550781	63715.027344
1599.510742	62486.511719
1598.470703	62036.250000
1597.429688	61511.410156
1596.389648	60617.835938
1595.348633	60221.832031
1594.307617	59909.996094
1593.265625	59747.628906
1592.224609	59414.984375
1591.182617	59010.136719
1590.140625	58708.058594
1589.098633	58648.617188
1588.056641	58416.656250
1587.014648	58333.972656
1585.971680	58116.132813
1584.928711	58189.664063
1583.886719	57785.519531
1582.842773	57682.035156
1581.799805	57855.750000
1580.755859	58283.230469
1579.712891	58182.027344
1578.668945	57985.417969
1577.625000	58584.875000
1576.580078	58404.546875
1575.536133	57991.617188
1574.491211	58311.597656
1573.446289	58340.730469
1572.401367	58251.257813
1571.356445	58512.886719
1570.311523	59106.832031
1569.265625	58859.218750
1568.219727	58249.191406
1567.173828	58310.816406
1566.127930	58265.566406
1565.082031	58389.871094
1564.035156	57594.582031
1562.988281	57637.699219
1561.941406	57495.097656
1560.894531	57387.359375
1559.847656	57620.757813
1558.799805	57687.027344
1557.751953	57750.953125
1556.704102	57657.148438
1555.656250	57649.171875
1554.608398	57548.460938
1553.560547	57382.878906
1552.511719	57618.289063
1551.462891	57209.453125
1550.414063	57386.882813
1549.365234	57893.164063
1548.315430	58174.621094
1547.265625	57851.640625
1546.216797	57929.273438
1545.166992	57641.167969
1544.116211	57693.351563
1543.066406	58069.445313
1542.015625	58075.261719
1540.965820	58310.058594
1539.915039	58140.070313
1538.863281	57690.367188
1537.812500	58089.234375
1536.760742	57732.152344
1535.709961	57594.730469
1534.658203	57616.781250
1533.605469	57276.136719
1532.553711	56866.324219
1531.501953	56452.035156
1530.449219	56665.898438
1529.396484	56761.953125
1528.343750	55724.734375
1527.290039	55843.992188
1526.237305	55146.460938
1525.183594	55180.425781
1524.129883	55611.070313
1523.076172	55029.246094
1522.022461	54915.652344
1520.968750	55468.277344
1519.914063	55308.546875
1518.859375	55128.132813
1517.804688	54475.480469
1516.750000	55147.562500
1515.694336	54902.781250
1514.639648	54593.609375
1513.583984	54597.652344
1512.528320	54988.398438
1511.472656	54683.972656
1510.416016	54860.566406
1509.360352	54843.843750
1508.303711	54447.593750
1507.247070	54752.914063
1506.190430	54430.398438
1505.132813	54914.925781
1504.076172	54378.726563
1503.018555	54258.679688
1501.960938	54231.652344
1500.903320	54204.621094
1499.844727	54177.570313
1498.787109	54150.539063
1497.728516	54123.484375
1496.669922	54096.433594
1495.611328	54069.378906
1494.552734	54042.324219
1493.493164	54015.246094
1492.434570	53785.343750
1491.375000	53954.605469
1490.315430	53747.722656
1489.254883	54137.035156
1488.195313	54409.292969
1487.134766	53773.839844
1486.074219	53975.023438
1485.013672	54258.613281
1483.953125	53733.472656
1482.892578	53833.777344
1481.831055	53785.195313
1480.769531	53981.609375
1479.708008	54187.101563
1478.646484	53804.332031
1477.583984	53913.675781
1476.522461	53924.597656
1475.459961	53784.542969
1474.397461	54026.468750
1473.334961	53927.601563
1472.271484	53746.464844
1471.208984	53725.394531
1470.145508	54431.082031
1469.082031	54357.339844
1468.018555	54708.546875
1466.954102	54671.320313
1465.890625	54867.050781
1464.826172	54585.488281
1463.761719	54696.687500
1462.697266	54949.363281
1461.631836	55206.507813
1460.567383	55338.062500
1459.501953	55485.539063
1458.436523	55452.773438
1457.371094	55091.625000
1456.305664	55752.074219
1455.239258	55489.023438
1454.172852	55900.722656
1453.107422	55594.437500
1452.040039	55787.234375
1450.973633	55993.628906
1449.907227	55582.714844
1448.839844	55966.687500
1447.772461	56020.386719
1446.705078	56099.101563
1445.637695	56444.078125
1444.569336	56231.414063
1443.500977	56146.234375
1442.432617	56895.910156
1441.364258	56815.183594
1440.295898	56973.246094
1439.227539	57033.488281
1438.158203	57284.648438
1437.088867	57231.175781
1436.019531	57961.656250
1434.950195	57689.972656
1433.879883	58231.574219
1432.810547	57862.277344
1431.740234	58539.886719
1430.669922	58474.878906
1429.598633	58575.589844
1428.528320	59282.203125
1427.457031	58913.035156
1426.386719	59079.398438
1425.314453	59182.183594
1424.243164	58661.285156
1423.171875	59070.207031
1422.099609	59127.593750
1421.027344	58962.832031
1419.955078	58820.789063
1418.882813	59077.570313
1417.810547	59055.613281
1416.737305	58841.144531
1415.664063	58739.980469
1414.590820	58573.187500
1413.517578	58392.867188
1412.444336	58445.734375
1411.370117	58208.925781
1410.295898	58318.363281
1409.221680	58092.968750
1408.147461	58286.066406
1407.073242	58302.710938
1405.998047	58120.390625
1404.922852	58659.226563
1403.847656	58214.734375
1402.772461	57838.187500
1401.697266	58406.144531
1400.621094	58933.234375
1399.544922	58956.500000
1398.468750	59309.425781
1397.392578	59346.156250
1396.316406	59432.531250
1395.239258	59911.554688
1394.162109	60336.250000
1393.084961	60945.785156
1392.007813	61264.121094
1390.930664	61640.980469
1389.852539	62813.632813
1388.774414	62423.582031
1387.696289	63122.335938
1386.618164	63331.812500
1385.540039	63327.160156
1384.460938	63759.542969
1383.382813	63777.332031
1382.303711	63894.199219
1381.223633	63819.640625
1380.144531	63974.722656
1379.064453	64597.894531
1377.985352	64746.023438
1376.905273	64507.109375
1375.825195	64056.828125
1374.744141	64479.355469
1373.664063	63700.925781
1372.583008	63801.855469
1371.501953	63754.386719
1370.420898	62936.046875
1369.338867	62758.414063
1368.257813	62686.433594
1367.175781	61938.355469
1366.093750	61938.414063
1365.011719	62349.386719
1363.929688	62216.906250
1362.846680	61743.285156
1361.763672	62026.144531
1360.680664	62010.464844
1359.597656	61498.992188
1358.514648	61909.582031
1357.430664	61649.480469
1356.346680	61275.117188
1355.262695	61420.988281
1354.178711	60894.378906
1353.094727	60522.589844
1352.009766	60370.507813
1350.925781	60039.261719
1349.840820	59985.867188
1348.755859	59764.539063
1347.669922	59482.832031
1346.584961	59299.722656
1345.499023	58805.570313
1344.413086	59041.105469
1343.327148	59155.738281
1342.240234	58995.179688
1341.154297	58854.804688
1340.067383	58629.503906
1338.980469	59164.437500
1337.893555	58858.683594
1336.805664	59033.550781
1335.718750	59152.488281
1334.630859	58980.945313
1333.542969	59238.335938
1332.455078	59419.699219
1331.367188	59234.792969
1330.278320	60056.816406
1329.189453	59827.218750
1328.100586	59939.148438
1327.011719	59859.144531
1325.922852	60377.050781
1324.833008	60033.792969
1323.743164	60961.808594
1322.653320	60841.535156
1321.563477	61267.476563
1320.473633	61940.664063
1319.382813	61769.015625
1318.291992	62584.464844
1317.201172	62925.117188
1316.110352	64089.738281
1315.019531	64111.550781
1313.927734	64569.742188
1312.835938	64718.339844
1311.744141	64648.765625
1310.652344	64817.316406
1309.560547	64409.566406
1308.467773	63766.171875
1307.375000	63732.394531
1306.282227	63529.628906
1305.189453	63171.308594
1304.095703	63084.300781
1303.002930	62452.820313
1301.909180	62585.953125
1300.815430	61870.367188
1299.721680	61912.476563
1298.626953	62447.597656
1297.533203	62260.878906
1296.438477	62282.910156
1295.343750	62145.113281
1294.248047	62366.882813
1293.153320	62399.964844
1292.057617	62776.890625
1290.961914	63036.121094
1289.866211	62845.082031
1288.770508	63403.523438
1287.674805	63276.765625
1286.578125	63309.632813
1285.481445	62932.527344
1284.384766	63109.453125
1283.288086	62849.917969
1282.190430	62847.390625
1281.092773	62517.128906
1279.996094	62401.746094
1278.897461	62284.183594
1277.799805	62036.085938
1276.702148	62254.976563
1275.603516	62077.765625
1274.504883	61887.339844
1273.406250	61272.359375
1272.307617	61283.363281
1271.208008	61084.339844
1270.108398	61210.308594
1269.008789	61163.851563
1267.909180	60841.210938
1266.809570	60737.394531
1265.708984	60543.050781
1264.609375	60119.105469
1263.508789	60276.011719
1262.407227	59920.695313
1261.306641	59607.441406
1260.206055	60007.093750
1259.104492	59625.535156
1258.002930	59694.136719
1256.901367	59416.433594
1255.798828	59255.699219
1254.697266	59207.468750
1253.594727	58965.265625
1252.492188	58650.414063
1251.389648	59029.808594
1250.286133	58886.906250
1249.183594	58316.710938
1248.080078	59312.621094
1246.976563	58650.066406
1245.872070	58916.820313
1244.768555	59203.289063
1243.664063	59207.945313
1242.560547	58988.160156
1241.455078	59083.050781
1240.350586	58742.382813
1239.246094	59362.886719
1238.140625	58861.777344
1237.035156	59068.730469
1235.929688	59418.472656
1234.824219	58653.906250
1233.717773	59552.894531
1232.612305	59039.011719
1231.505859	59201.800781
1230.399414	58969.253906
1229.291992	59443.769531
1228.185547	58708.550781
1227.078125	58258.921875
1225.970703	58706.968750
1224.863281	58751.152344
1223.755859	58575.957031
1222.647461	57988.496094
1221.539063	58447.218750
1220.430664	58088.003906
1219.322266	57803.441406
1218.213867	57808.277344
1217.104492	57574.265625
1215.995117	57629.523438
1214.885742	57785.519531
1213.776367	57958.972656
1212.666992	57909.023438
1211.556641	58180.902344
1210.446289	57824.488281
1209.335938	58159.746094
1208.225586	58173.234375
1207.115234	57902.328125
1206.003906	58447.351563
1204.892578	58681.648438
1203.781250	58517.921875
1202.669922	58437.324219
1201.557617	58105.402344
1200.446289	58936.152344
1199.333984	58888.285156
1198.221680	59548.199219
1197.108398	59491.496094
1195.996094	60076.808594
1194.882813	59996.011719
1193.769531	60445.675781
1192.656250	60142.222656
1191.542969	60397.488281
1190.428711	60124.691406
1189.314453	59867.261719
1188.200195	59413.644531
1187.085938	59821.480469
1185.971680	59618.742188
1184.856445	59424.792969
1183.741211	59581.777344
1182.625977	59167.832031
1181.510742	59531.757813
1180.395508	59414.187500
1179.279297	59183.417969
1178.163086	59168.281250
1177.046875	59407.847656
1175.930664	58902.957031
1174.813477	59125.070313
1173.697266	59327.519531
1172.580078	59305.832031
1171.462891	59316.777344
1170.344727	58718.843750
