#Wave		#Intensity
2001.248047	47062.539063
2000.278320	47024.941406
1999.308594	47129.507813
1998.338867	47133.808594
1997.369141	46915.140625
1996.398438	46994.617188
1995.428711	47199.281250
1994.458008	47125.937500
1993.487305	47403.105469
1992.516602	47187.074219
1991.545898	46913.562500
1990.574219	47403.296875
1989.603516	47372.503906
1988.631836	47114.101563
1987.660156	47250.921875
1986.688477	47870.269531
1985.715820	47644.410156
1984.744141	47718.570313
1983.771484	47460.324219
1982.798828	48101.683594
1981.826172	47678.578125
1980.853516	47612.796875
1979.880859	47769.300781
1978.907227	47671.066406
1977.933594	47655.246094
1976.959961	48420.691406
1975.986328	47848.222656
1975.012695	48236.589844
1974.039063	48063.507813
1973.064453	48070.070313
1972.089844	48418.292969
1971.115234	48354.972656
1970.140625	48543.464844
1969.166016	48014.035156
1968.190430	48043.023438
1967.215820	48139.273438
1966.240234	48529.453125
1965.264648	48406.390625
1964.289063	48089.121094
1963.312500	48528.898438
1962.336914	48734.507813
1961.360352	48235.640625
1960.383789	48670.179688
1959.407227	48654.203125
1958.430664	48775.054688
1957.454102	48724.238281
1956.476563	48946.996094
1955.499023	48834.000000
1954.521484	48840.371094
1953.543945	48938.707031
1952.566406	49658.292969
1951.587891	48615.960938
1950.610352	49057.109375
1949.631836	49460.843750
1948.653320	49464.949219
1947.674805	49469.050781
1946.696289	49473.156250
1945.716797	49477.261719
1944.737305	49481.371094
1943.758789	49485.472656
1942.779297	49489.582031
1941.798828	49803.367188
1940.819336	49263.941406
1939.838867	49478.468750
1938.859375	49702.839844
1937.878906	50289.007813
1936.898438	50027.425781
1935.916992	49867.519531
1934.936523	49977.699219
1933.955078	49931.792969
1932.974609	49578.816406
1931.993164	50137.144531
1931.010742	50356.117188
1930.029297	50151.757813
1929.047852	50182.566406
1928.065430	50401.410156
1927.083008	50686.972656
1926.100586	50334.281250
1925.118164	50659.316406
1924.135742	49755.375000
1923.152344	50552.570313
1922.168945	50598.085938
1921.185547	50613.933594
1920.202148	50427.160156
1919.218750	50519.609375
1918.235352	51157.882813
1917.250977	50850.105469
1916.266602	50991.804688
1915.282227	51214.917969
1914.297852	50808.554688
1913.313477	51024.218750
1912.328125	51030.074219
1911.343750	51642.792969
1910.358398	51281.031250
1909.373047	51104.343750
1908.387695	51369.066406
1907.401367	51364.988281
1906.416016	51903.160156
1905.429688	52300.671875
1904.443359	51946.550781
1903.457031	51693.554688
1902.470703	51689.414063
1901.483398	51488.261719
1900.497070	51614.648438
1899.509766	51760.683594
1898.522461	52054.343750
1897.535156	51983.687500
1896.546875	52395.300781
1895.559570	52339.367188
1894.571289	51961.242188
1893.583008	52178.367188
1892.594727	51726.636719
1891.606445	52110.886719
1890.618164	52519.574219
1889.628906	52527.558594
1888.639648	52211.210938
1887.650391	52467.355469
1886.661133	52296.039063
1885.671875	52689.593750
1884.682617	53134.566406
1883.692383	52653.906250
1882.702148	52782.109375
1881.711914	52780.203125
1880.721680	53114.429688
1879.731445	52749.398438
1878.740234	52897.105469
1877.749023	52966.289063
1876.757813	53116.351563
1875.766602	53214.882813
1874.775391	53092.789063
1873.784180	53416.734375
1872.791992	53368.148438
1871.799805	53128.503906
1870.807617	53584.523438
1869.815430	53364.511719
1868.823242	53786.046875
1867.830078	53580.761719
1866.837891	53909.101563
1865.844727	53911.863281
1864.851563	54007.593750
1863.858398	53998.101563
1862.864258	54482.660156
1861.871094	54348.371094
1860.876953	53940.289063
1859.882813	53740.136719
1858.888672	54473.687500
1857.894531	54173.316406
1856.899414	54322.597656
1855.905273	54579.312500
1854.910156	55168.093750
1853.915039	54850.707031
1852.919922	54465.070313
1851.923828	54462.812500
1850.928711	54528.894531
1849.932617	55024.425781
1848.936523	55085.503906
1847.940430	55083.128906
1846.944336	55134.414063
1845.947266	55178.359375
1844.951172	55417.335938
1843.954102	55307.640625
1842.957031	55648.867188
1841.959961	55100.546875
1840.962891	55417.320313
1839.964844	55943.472656
1838.966797	56262.417969
1837.969727	56138.070313
1836.970703	55867.679688
1835.972656	55964.953125
1834.974609	56278.792969
1833.975586	56830.992188
1832.976563	56820.988281
1831.978516	56971.527344
1830.978516	56742.609375
1829.979492	57394.027344
1828.980469	57255.066406
1827.980469	56853.628906
1826.980469	57244.625000
1825.980469	57161.644531
1824.980469	57469.843750
1823.979492	57603.035156
1822.979492	57767.753906
1821.978516	57531.753906
1820.977539	57628.441406
1819.976563	58225.128906
1818.975586	58076.535156
1817.973633	57743.578125
1816.972656	57942.046875
1815.970703	58353.902344
1814.968750	58493.980469
1813.966797	57974.468750
1812.963867	58667.316406
1811.961914	58281.265625
1810.958984	58663.605469
1809.956055	58764.726563
1808.953125	58940.914063
1807.950195	58683.457031
1806.946289	59125.988281
1805.943359	59364.968750
1804.939453	59160.824219
1803.935547	59387.605469
1802.930664	59735.308594
1801.926758	59206.964844
1800.922852	59571.507813
1799.917969	59628.730469
1798.913086	60341.316406
1797.908203	59600.445313
1796.903320	59819.601563
1795.897461	60120.855469
1794.891602	60366.421875
1793.886719	60218.046875
1792.880859	60205.007813
1791.874023	60559.113281
1790.868164	60253.800781
1789.862305	60400.113281
1788.855469	60807.101563
1787.848633	60583.964844
1786.841797	61198.312500
1785.833984	61013.789063
1784.827148	61099.519531
1783.819336	60799.292969
1782.812500	60988.722656
1781.804688	61421.609375
1780.795898	61391.480469
1779.788086	61436.082031
1778.779297	61666.222656
1777.771484	61990.250000
1776.762695	61499.910156
1775.753906	61643.199219
1774.744141	62063.378906
1773.735352	62062.050781
1772.725586	62248.488281
1771.715820	62170.105469
1770.706055	62435.867188
1769.696289	62588.453125
1768.686523	62678.433594
1767.675781	62554.316406
1766.666016	62718.816406
1765.655273	62972.214844
1764.644531	62992.339844
1763.632813	63324.910156
1762.622070	63844.800781
1761.610352	63372.210938
1760.598633	63714.140625
1759.586914	63796.550781
1758.575195	63614.777344
1757.563477	63882.046875
1756.550781	64197.226563
1755.538086	64178.679688
1754.525391	64496.089844
1753.512695	64451.101563
1752.500000	64900.281250
1751.486328	64675.351563
1750.473633	64925.296875
1749.459961	64681.253906
1748.446289	65221.156250
1747.432617	65159.292969
1746.417969	65408.964844
1745.404297	65493.234375
1744.389648	65989.484375
1743.375000	66442.445313
1742.360352	65733.867188
1741.344727	66150.796875
1740.330078	66498.156250
1739.314453	66297.320313
1738.298828	67350.429688
1737.283203	67204.539063
1736.267578	67735.640625
1735.251953	67809.757813
1734.235352	68295.125000
1733.218750	68390.625000
1732.202148	68476.531250
1731.185547	69250.695313
1730.168945	70005.476563
1729.151367	70341.890625
1728.133789	70327.054688
1727.117188	71162.429688
1726.098633	71725.296875
1725.081055	72058.773438
1724.063477	73065.250000
1723.044922	72909.125000
1722.026367	73518.992188
1721.007813	73956.875000
1719.989258	74685.601563
1718.970703	74643.757813
1717.951172	74628.156250
1716.931641	75287.226563
1715.912109	75495.570313
1714.892578	76228.132813
1713.873047	76498.179688
1712.853516	75920.015625
1711.833008	76568.734375
1710.812500	76188.421875
1709.791992	76327.312500
1708.771484	76032.875000
1707.750000	76412.132813
1706.729492	75684.656250
1705.708008	76563.507813
1704.686523	76216.890625
1703.665039	75853.734375
1702.642578	75314.734375
1701.621094	75356.070313
1700.598633	75128.757813
1699.576172	75124.945313
1698.553711	74555.546875
1697.531250	75029.414063
1696.507813	75431.835938
1695.485352	75411.335938
1694.461914	74231.968750
1693.438477	74848.000000
1692.415039	74127.304688
1691.390625	74676.671875
1690.367188	75028.882813
1689.342773	74495.968750
1688.318359	74399.726563
1687.293945	74339.093750
1686.269531	73993.914063
1685.244141	74035.320313
1684.218750	74652.750000
1683.194336	73745.976563
1682.168945	74503.039063
1681.142578	73949.625000
1680.117188	74469.492188
1679.090820	74612.593750
1678.064453	74535.421875
1677.038086	74522.195313
1676.011719	74440.320313
1674.985352	74270.898438
1673.958008	74262.453125
1672.931641	73913.312500
1671.904297	74626.390625
1670.876953	74407.382813
1669.848633	74195.546875
1668.821289	74853.812500
1667.792969	74835.796875
1666.764648	74692.523438
1665.736328	74733.601563
1664.708008	75062.906250
1663.679688	74794.460938
1662.650391	74816.601563
1661.621094	75554.203125
1660.591797	75382.609375
1659.562500	74800.351563
1658.533203	75976.515625
1657.502930	75266.937500
1656.472656	75605.085938
1655.442383	75973.773438
1654.412109	75330.593750
1653.381836	76130.695313
1652.351563	76065.304688
1651.320313	76579.773438
1650.289063	76372.921875
1649.257813	76347.562500
1648.226563	76392.890625
1647.194336	76657.250000
1646.163086	76424.609375
1645.130859	76625.289063
1644.098633	76623.445313
1643.066406	76896.976563
1642.033203	77170.414063
1641.000977	77474.335938
1639.967773	77627.585938
1638.934570	77801.945313
1637.901367	78427.765625
1636.868164	77983.539063
1635.833984	78044.898438
1634.800781	78423.531250
1633.766602	78517.679688
1632.732422	79304.921875
1631.697266	79467.000000
1630.663086	78851.585938
1629.627930	80493.117188
1628.593750	80178.265625
1627.558594	80262.593750
1626.522461	80637.929688
1625.487305	81606.820313
1624.451172	82045.117188
1623.416016	82051.632813
1622.379883	82508.453125
1621.343750	83989.859375
1620.306641	85451.976563
1619.270508	85657.117188
1618.233398	87552.000000
1617.196289	89694.593750
1616.159180	91278.820313
1615.122070	93719.820313
1614.083984	96466.750000
1613.046875	97360.468750
1612.008789	100164.296875
1610.970703	101419.859375
1609.932617	101528.179688
1608.893555	101107.625000
1607.855469	100860.335938
1606.816406	99394.453125
1605.777344	97959.484375
1604.738281	94965.375000
1603.698242	94237.742188
1602.659180	92012.046875
1601.619141	90775.710938
1600.579102	89383.265625
1599.539063	88005.320313
1598.499023	87443.062500
1597.458008	86836.625000
1596.417969	86132.335938
1595.376953	85561.359375
1594.335938	85280.023438
1593.294922	84730.398438
1592.252930	84684.960938
1591.210938	84226.617188
1590.169922	84456.515625
1589.127930	84401.812500
1588.084961	84433.398438
1587.042969	84308.773438
1586.000000	83848.554688
1584.958008	83682.125000
1583.915039	84305.617188
1582.872070	84171.781250
1581.828125	84762.343750
1580.785156	85038.320313
1579.741211	85144.218750
1578.697266	85268.710938
1577.653320	85628.226563
1576.609375	85482.632813
1575.564453	86232.851563
1574.520508	87089.804688
1573.475586	87232.421875
1572.430664	87656.359375
1571.384766	88047.593750
1570.339844	88136.484375
1569.293945	88332.257813
1568.249023	88560.484375
1567.202148	88972.171875
1566.156250	88289.617188
1565.110352	88828.937500
1564.063477	88692.328125
1563.017578	87216.156250
1561.970703	86966.140625
1560.922852	86414.500000
1559.875977	86431.554688
1558.829102	85546.117188
1557.781250	84760.726563
1556.733398	85320.750000
1555.685547	84331.625000
1554.636719	84168.187500
1553.588867	83840.234375
1552.540039	83612.046875
1551.491211	83036.367188
1550.442383	83538.156250
1549.393555	82937.210938
1548.344727	82341.109375
1547.294922	82685.296875
1546.245117	83040.929688
1545.195313	82905.734375
1544.145508	82414.187500
1543.094727	82603.070313
1542.044922	83233.750000
1540.994141	82515.726563
1539.943359	82135.593750
1538.892578	82571.781250
1537.840820	82147.843750
1536.790039	81735.609375
1535.738281	82111.539063
1534.686523	82011.367188
1533.634766	81414.562500
1532.583008	81367.671875
1531.530273	81304.625000
1530.477539	81077.671875
1529.424805	80825.406250
1528.372070	80836.335938
1527.319336	80413.429688
1526.265625	79889.156250
1525.212891	80726.070313
1524.159180	80416.414063
1523.105469	80259.062500
1522.051758	80300.039063
1520.997070	80380.179688
1519.942383	80188.335938
1518.888672	79800.687500
1517.833984	80166.554688
1516.778320	79905.734375
1515.723633	79665.734375
1514.667969	79679.101563
1513.612305	79568.148438
1512.556641	79494.062500
1511.500977	79484.429688
1510.445313	79700.304688
1509.388672	79488.187500
1508.332031	79793.679688
1507.275391	79298.742188
1506.218750	79300.640625
1505.162109	79589.898438
1504.104492	79256.148438
1503.047852	79524.632813
1501.990234	79436.859375
1500.931641	78999.929688
1499.874023	79086.843750
1498.816406	79497.523438
1497.757813	79678.453125
1496.699219	79423.132813
1495.640625	79271.187500
1494.582031	79091.757813
1493.522461	78882.562500
1492.462891	79045.070313
1491.403320	78852.000000
1490.343750	78798.890625
1489.284180	79211.226563
1488.224609	78665.195313
1487.164063	78960.515625
1486.103516	79271.765625
1485.042969	78826.820313
1483.982422	78998.234375
1482.920898	78915.367188
1481.860352	78839.390625
1480.798828	79301.468750
1479.737305	79177.375000
1478.675781	78998.398438
1477.613281	79123.812500
1476.550781	79283.500000
1475.489258	78997.078125
1474.426758	79460.898438
1473.363281	79455.796875
1472.300781	79014.023438
1471.237305	79381.578125
1470.174805	79499.890625
1469.111328	79928.914063
1468.046875	80437.742188
1466.983398	79692.382813
1465.919922	80333.515625
1464.855469	80319.101563
1463.791016	80069.546875
1462.726563	80500.273438
1461.661133	80419.640625
1460.596680	81317.898438
1459.531250	81478.960938
1458.465820	80638.648438
1457.400391	80678.906250
1456.334961	80953.992188
1455.268555	81035.210938
1454.202148	81125.507813
1453.135742	81336.546875
1452.069336	81100.929688
1451.002930	81594.367188
1449.935547	81468.109375
1448.869141	81300.906250
1447.801758	80972.109375
1446.734375	81772.515625
1445.666016	82030.945313
1444.598633	81925.187500
1443.530273	82224.445313
1442.461914	83194.640625
1441.393555	83450.343750
1440.325195	83580.882813
1439.256836	83711.367188
1438.187500	84426.000000
1437.118164	85113.093750
1436.048828	85261.406250
1434.979492	85507.351563
1433.909180	86325.617188
1432.839844	86596.257813
1431.769531	86414.937500
1430.699219	87343.828125
1429.627930	86890.046875
1428.557617	86940.242188
1427.486328	87183.281250
1426.416016	86922.593750
1425.343750	87274.414063
1424.272461	88047.921875
1423.201172	87161.406250
1422.128906	87254.546875
1421.056641	86805.937500
1419.984375	86856.039063
1418.912109	86924.250000
1417.839844	86797.617188
1416.766602	87429.781250
1415.693359	86829.796875
1414.620117	86551.531250
1413.546875	86698.953125
1412.473633	86814.625000
1411.399414	86421.093750
1410.325195	86781.117188
1409.250977	86706.687500
1408.176758	87964.421875
1407.102539	87469.195313
1406.027344	87774.500000
1404.952148	88755.570313
1403.876953	88339.562500
1402.801758	88348.515625
1401.726563	88264.835938
1400.650391	88750.406250
1399.574219	89127.398438
1398.498047	89662.312500
1397.421875	89095.304688
1396.345703	88948.343750
1395.268555	88548.664063
1394.191406	89363.078125
1393.114258	89053.703125
1392.037109	89432.390625
1390.959961	89355.390625
1389.881836	90128.468750
1388.804688	89828.179688
1387.726563	90733.875000
1386.647461	90510.195313
1385.569336	90980.570313
1384.491211	91137.640625
1383.412109	92037.929688
1382.333008	92654.140625
1381.253906	92529.367188
1380.173828	93280.328125
1379.094727	93783.429688
1378.014648	93395.226563
1376.934570	93511.132813
1375.854492	93766.468750
1374.773438	93346.968750
1373.693359	93633.718750
1372.612305	93023.281250
1371.531250	92781.718750
1370.450195	92110.968750
1369.369141	92370.750000
1368.287109	91423.968750
1367.205078	91189.593750
1366.123047	91130.476563
1365.041016	90534.710938
1363.958984	90107.531250
1362.875977	89258.515625
1361.793945	89336.664063
1360.710938	88766.320313
1359.626953	88837.796875
1358.543945	88420.265625
1357.460938	88736.218750
1356.376953	88036.328125
1355.292969	87569.835938
1354.208984	87477.828125
1353.124023	86749.398438
1352.040039	87529.148438
1350.955078	86738.242188
1349.870117	87152.625000
1348.785156	87775.117188
1347.700195	86525.593750
1346.614258	86874.859375
1345.528320	86816.648438
1344.442383	86595.093750
1343.356445	86351.242188
1342.270508	86044.843750
1341.183594	86273.093750
1340.096680	86194.898438
1339.009766	86644.367188
1337.922852	86467.773438
1336.835938	86447.679688
1335.748047	86168.390625
1334.661133	86726.992188
1333.573242	86657.710938
1332.484375	86956.953125
1331.396484	86434.367188
1330.307617	86628.609375
1329.219727	86894.203125
1328.130859	86206.750000
1327.041992	86499.093750
1325.952148	86532.539063
1324.863281	86893.851563
1323.773438	86084.226563
1322.683594	86559.195313
1321.593750	86548.007813
1320.502930	85941.703125
1319.413086	86140.101563
1318.322266	85754.664063
1317.231445	85875.046875
1316.140625	86465.335938
1315.048828	86142.390625
1313.958008	86019.937500
1312.866211	86311.578125
1311.774414	86322.671875
1310.682617	86244.750000
1309.589844	86500.585938
1308.498047	86676.242188
1307.405273	86925.218750
1306.312500	86951.742188
1305.218750	87073.851563
1304.125977	87496.000000
1303.032227	87777.976563
1301.939453	88088.726563
1300.845703	87979.476563
1299.750977	88361.156250
1298.657227	88927.023438
1297.562500	89486.023438
1296.467773	89838.351563
1295.373047	90494.632813
1294.278320	91141.804688
1293.183594	91757.671875
1292.087891	91060.000000
1290.992188	91165.500000
1289.896484	90554.664063
1288.800781	91498.328125
1287.704102	91029.523438
1286.608398	90263.882813
1285.511719	90265.265625
1284.415039	89998.546875
1283.317383	89235.718750
1282.220703	89330.289063
1281.123047	89024.015625
1280.025391	88934.828125
1278.927734	88298.898438
1277.830078	87928.789063
1276.731445	87950.468750
1275.633789	87892.492188
1274.535156	86653.320313
1273.436523	87641.687500
1272.336914	87028.781250
1271.238281	85759.476563
1270.138672	86210.328125
1269.039063	85739.437500
1267.939453	85750.406250
1266.839844	84522.007813
1265.739258	84873.343750
1264.638672	84895.492188
1263.538086	84754.242188
1262.437500	83952.968750
1261.336914	84948.640625
1260.235352	84204.984375
1259.134766	83481.460938
1258.033203	83863.398438
1256.930664	83254.875000
1255.829102	83389.726563
1254.726563	83021.828125
1253.625000	82854.664063
1252.522461	82021.945313
1251.418945	82084.187500
1250.316406	81862.195313
1249.212891	82149.125000
1248.110352	81310.515625
1247.006836	81260.523438
1245.902344	81168.718750
1244.798828	80680.726563
1243.694336	80716.703125
1242.589844	81109.125000
1241.485352	80146.195313
1240.380859	81209.453125
1239.276367	80352.406250
1238.170898	80155.320313
1237.065430	80595.835938
1235.959961	80324.031250
1234.854492	80186.375000
1233.748047	80039.976563
1232.642578	79983.703125
1231.536133	79863.742188
1230.429688	79653.796875
1229.322266	80284.835938
1228.215820	80019.992188
1227.108398	79465.531250
1226.000977	80317.890625
1224.893555	79552.937500
1223.786133	79825.843750
1222.677734	79232.328125
1221.569336	79612.640625
1220.460938	79061.023438
1219.352539	79002.812500
1218.244141	78951.195313
1217.134766	78450.390625
1216.025391	78611.398438
1214.916016	77972.828125
1213.806641	78252.117188
1212.697266	77749.601563
1211.586914	78545.484375
1210.476563	78417.382813
1209.366211	78753.273438
1208.255859	78377.921875
1207.145508	78339.601563
1206.034180	77962.273438
1204.922852	78617.265625
1203.811523	78817.234375
1202.700195	78689.226563
1201.587891	78701.132813
1200.476563	79174.132813
1199.364258	78497.710938
1198.251953	78625.421875
1197.138672	79401.742188
1196.026367	79402.578125
1194.913086	79626.101563
1193.799805	79960.875000
1192.686523	80059.804688
1191.573242	80579.843750
1190.458984	80434.273438
1189.344727	79961.562500
1188.230469	79694.023438
1187.116211	79971.695313
1186.001953	80131.546875
1184.886719	80332.742188
1183.772461	79775.468750
1182.657227	79671.609375
1181.541016	80005.656250
1180.425781	79973.664063
1179.309570	80065.804688
1178.193359	79064.898438
1177.077148	79333.492188
1175.960938	79297.273438
1174.844727	79276.296875
1173.727539	78576.500000
1172.610352	78742.734375
1171.493164	78097.656250
1170.375977	77685.484375
