#Wave		#Intensity
2001.248047	43558.414063
2000.278320	43385.464844
1999.308594	43280.152344
1998.338867	43089.687500
1997.369141	43272.558594
1996.398438	43465.386719
1995.428711	43104.687500
1994.458008	43142.230469
1993.487305	43357.503906
1992.516602	43725.390625
1991.545898	43647.679688
1990.574219	43710.117188
1989.603516	43622.429688
1988.631836	44027.523438
1987.660156	43757.242188
1986.688477	44224.675781
1985.715820	43624.460938
1984.744141	43461.867188
1983.771484	43659.199219
1982.798828	44008.882813
1981.826172	43978.707031
1980.853516	43656.304688
1979.880859	43441.394531
1978.907227	43581.121094
1977.933594	44217.597656
1976.959961	43600.835938
1975.986328	44102.320313
1975.012695	43959.871094
1974.039063	43939.714844
1973.064453	43685.101563
1972.089844	43921.863281
1971.115234	43622.453125
1970.140625	43794.324219
1969.166016	43734.324219
1968.190430	44020.746094
1967.215820	43965.707031
1966.240234	44077.597656
1965.264648	43985.203125
1964.289063	44069.656250
1963.312500	44079.378906
1962.336914	43690.777344
1961.360352	44086.363281
1960.383789	43941.777344
1959.407227	44125.683594
1958.430664	44307.035156
1957.454102	43811.769531
1956.476563	43913.527344
1955.499023	44268.867188
1954.521484	43975.230469
1953.543945	43823.371094
1952.566406	44546.335938
1951.587891	44163.351563
1950.610352	44242.570313
1949.631836	44001.347656
1948.653320	43936.527344
1947.674805	43782.343750
1946.696289	44268.707031
1945.716797	44484.347656
1944.737305	44349.996094
1943.758789	44270.277344
1942.779297	44324.546875
1941.798828	44041.464844
1940.819336	43763.441406
1939.838867	44355.816406
1938.859375	44685.203125
1937.878906	43970.968750
1936.898438	44681.945313
1935.916992	44124.058594
1934.936523	44297.175781
1933.955078	44415.738281
1932.974609	44395.578125
1931.993164	44605.691406
1931.010742	44847.914063
1930.029297	44330.175781
1929.047852	44215.996094
1928.065430	44470.523438
1927.083008	44574.054688
1926.100586	44524.199219
1925.118164	44565.855469
1924.135742	44543.210938
1923.152344	44631.820313
1922.168945	44804.429688
1921.185547	44453.074219
1920.202148	44625.652344
1919.218750	44378.203125
1918.235352	44293.855469
1917.250977	44528.105469
1916.266602	44554.867188
1915.282227	44384.125000
1914.297852	44687.339844
1913.313477	44677.039063
1912.328125	45022.039063
1911.343750	44414.679688
1910.358398	44685.605469
1909.373047	44655.574219
1908.387695	44600.894531
1907.401367	44506.792969
1906.416016	44915.531250
1905.429688	44594.683594
1904.443359	44902.242188
1903.457031	44763.800781
1902.470703	45085.996094
1901.483398	45139.652344
1900.497070	44917.523438
1899.509766	45170.585938
1898.522461	44970.679688
1897.535156	45238.406250
1896.546875	44849.097656
1895.559570	45279.113281
1894.571289	44968.636719
1893.583008	45214.039063
1892.594727	45437.222656
1891.606445	44826.964844
1890.618164	45497.464844
1889.628906	45243.738281
1888.639648	44982.722656
1887.650391	45372.789063
1886.661133	45217.457031
1885.671875	45342.125000
1884.682617	45415.187500
1883.692383	45387.574219
1882.702148	45303.519531
1881.711914	45619.488281
1880.721680	45582.035156
1879.731445	45412.121094
1878.740234	45379.621094
1877.749023	45084.734375
1876.757813	45459.300781
1875.766602	45880.308594
1874.775391	45310.976563
1873.784180	45391.238281
1872.791992	45679.726563
1871.799805	45375.289063
1870.807617	45871.859375
1869.815430	45724.218750
1868.823242	45535.003906
1867.830078	45747.316406
1866.837891	45917.945313
1865.844727	45706.765625
1864.851563	45495.660156
1863.858398	45262.609375
1862.864258	45704.679688
1861.871094	46085.460938
1860.876953	45742.402344
1859.882813	45577.910156
1858.888672	45794.753906
1857.894531	46175.242188
1856.899414	45878.824219
1855.905273	45917.167969
1854.910156	46446.414063
1853.915039	46252.660156
1852.919922	46205.460938
1851.923828	46197.335938
1850.928711	46059.855469
1849.932617	46347.019531
1848.936523	46541.371094
1847.940430	46401.457031
1846.944336	46639.625000
1845.947266	46519.250000
1844.951172	46050.269531
1843.954102	46378.562500
1842.957031	46614.121094
1841.959961	46547.437500
1840.962891	46424.738281
1839.964844	46774.648438
1838.966797	46744.496094
1837.969727	47103.964844
1836.970703	46832.734375
1835.972656	46843.964844
1834.974609	47161.843750
1833.975586	47255.742188
1832.976563	47466.386719
1831.978516	47083.425781
1830.978516	47191.875000
1829.979492	47164.113281
1828.980469	47493.746094
1827.980469	47023.535156
1826.980469	46811.101563
1825.980469	47930.343750
1824.980469	47880.601563
1823.979492	48105.359375
1822.979492	47664.589844
1821.978516	47697.472656
1820.977539	47601.667969
1819.976563	47569.011719
1818.975586	47378.609375
1817.973633	47651.738281
1816.972656	47951.453125
1815.970703	48149.183594
1814.968750	48334.718750
1813.966797	47698.179688
1812.963867	47886.144531
1811.961914	47768.628906
1810.958984	47738.398438
1809.956055	48054.679688
1808.953125	47661.003906
1807.950195	48229.093750
1806.946289	48019.582031
1805.943359	48057.125000
1804.939453	48213.277344
1803.935547	48088.589844
1802.930664	47983.308594
1801.926758	48146.644531
1800.922852	48295.406250
1799.917969	48937.550781
1798.913086	48817.671875
1797.908203	48518.906250
1796.903320	48698.917969
1795.897461	48963.460938
1794.891602	49015.242188
1793.886719	48716.644531
1792.880859	48630.746094
1791.874023	49030.371094
1790.868164	48833.351563
1789.862305	49566.003906
1788.855469	48842.675781
1787.848633	49514.718750
1786.841797	49281.546875
1785.833984	49058.105469
1784.827148	49133.882813
1783.819336	49120.386719
1782.812500	49499.980469
1781.804688	49512.945313
1780.795898	49405.367188
1779.788086	49599.109375
1778.779297	49648.191406
1777.771484	49617.738281
1776.762695	49690.886719
1775.753906	49720.648438
1774.744141	50181.464844
1773.735352	49876.449219
1772.725586	50031.339844
1771.715820	50207.835938
1770.706055	49967.945313
1769.696289	50264.687500
1768.686523	50474.722656
1767.675781	50675.058594
1766.666016	50464.105469
1765.655273	50839.886719
1764.644531	50626.570313
1763.632813	50771.449219
1762.622070	51238.289063
1761.610352	51630.476563
1760.598633	51491.632813
1759.586914	51336.023438
1758.575195	51562.285156
1757.563477	51185.828125
1756.550781	51731.300781
1755.538086	51657.355469
1754.525391	51391.460938
1753.512695	51499.937500
1752.500000	52275.250000
1751.486328	52218.042969
1750.473633	52247.179688
1749.459961	52611.957031
1748.446289	52398.898438
1747.432617	52679.636719
1746.417969	52310.878906
1745.404297	52936.531250
1744.389648	52776.257813
1743.375000	52841.167969
1742.360352	53147.906250
1741.344727	53083.441406
1740.330078	53454.656250
1739.314453	53138.855469
1738.298828	53603.246094
1737.283203	53603.335938
1736.267578	53536.441406
1735.251953	53861.796875
1734.235352	54521.800781
1733.218750	54626.910156
1732.202148	55279.375000
1731.185547	55207.453125
1730.168945	55642.128906
1729.151367	55680.062500
1728.133789	56396.363281
1727.117188	56376.828125
1726.098633	56531.605469
1725.081055	57576.828125
1724.063477	57437.738281
1723.044922	58322.527344
1722.026367	58283.566406
1721.007813	58378.214844
1719.989258	58952.273438
1718.970703	58836.902344
1717.951172	58933.781250
1716.931641	58987.710938
1715.912109	59163.183594
1714.892578	59862.890625
1713.873047	59661.667969
1712.853516	59722.570313
1711.833008	59838.230469
1710.812500	60487.300781
1709.791992	60200.378906
1708.771484	59811.191406
1707.750000	60462.296875
1706.729492	60070.812500
1705.708008	59843.644531
1704.686523	59916.304688
1703.665039	60281.492188
1702.642578	60113.855469
1701.621094	59943.894531
1700.598633	60251.824219
1699.576172	59711.105469
1698.553711	60133.031250
1697.531250	59975.058594
1696.507813	60256.621094
1695.485352	59716.277344
1694.461914	60123.644531
1693.438477	60103.484375
1692.415039	60783.632813
1691.390625	60262.554688
1690.367188	60211.527344
1689.342773	60884.164063
1688.318359	60313.523438
1687.293945	60836.480469
1686.269531	60104.792969
1685.244141	60888.398438
1684.218750	60946.339844
1683.194336	61196.242188
1682.168945	61199.601563
1681.142578	60771.750000
1680.117188	61021.542969
1679.090820	61077.027344
1678.064453	61516.113281
1677.038086	61543.078125
1676.011719	61816.214844
1674.985352	61426.562500
1673.958008	61647.558594
1672.931641	61584.566406
1671.904297	61836.203125
1670.876953	61903.273438
1669.848633	61703.113281
1668.821289	61642.507813
1667.792969	61570.105469
1666.764648	61939.675781
1665.736328	62110.628906
1664.708008	62361.839844
1663.679688	61559.453125
1662.650391	62342.054688
1661.621094	62045.265625
1660.591797	62097.988281
1659.562500	62662.906250
1658.533203	62491.292969
1657.502930	62525.027344
1656.472656	62565.820313
1655.442383	62613.671875
1654.412109	62470.480469
1653.381836	63117.246094
1652.351563	62419.992188
1651.320313	63005.246094
1650.289063	62246.980469
1649.257813	62824.984375
1648.226563	62349.714844
1647.194336	62564.753906
1646.163086	62704.355469
1645.130859	63069.941406
1644.098633	63039.894531
1643.066406	63266.417969
1642.033203	63302.234375
1641.000977	63152.160156
1639.967773	63670.242188
1638.934570	63263.769531
1637.901367	63918.039063
1636.868164	63965.453125
1635.833984	63763.660156
1634.800781	64006.164063
1633.766602	64030.027344
1632.732422	64079.726563
1631.697266	65064.367188
1630.663086	64949.449219
1629.627930	64503.457031
1628.593750	65182.261719
1627.558594	65604.945313
1626.522461	66086.156250
1625.487305	66095.515625
1624.451172	66456.804688
1623.416016	66780.429688
1622.379883	67298.601563
1621.343750	68414.554688
1620.306641	68613.390625
1619.270508	69581.023438
1618.233398	70796.750000
1617.196289	71990.945313
1616.159180	73732.953125
1615.122070	75439.195313
1614.083984	76617.867188
1613.046875	78177.804688
1612.008789	79067.593750
1610.970703	80036.648438
1609.932617	80534.937500
1608.893555	80958.171875
1607.855469	80087.476563
1606.816406	79401.875000
1605.777344	78311.921875
1604.738281	76836.539063
1603.698242	75595.460938
1602.659180	74495.070313
1601.619141	73336.640625
1600.579102	72657.640625
1599.539063	71214.921875
1598.499023	70721.062500
1597.458008	70369.828125
1596.417969	69577.406250
1595.376953	68666.203125
1594.335938	68233.820313
1593.294922	67899.601563
1592.252930	67663.507813
1591.210938	67177.867188
1590.169922	67830.648438
1589.127930	66976.679688
1588.084961	66465.765625
1587.042969	66617.101563
1586.000000	66961.835938
1584.958008	66824.054688
1583.915039	67096.398438
1582.872070	67296.421875
1581.828125	67703.664063
1580.785156	67512.281250
1579.741211	67979.867188
1578.697266	68060.859375
1577.653320	68791.187500
1576.609375	68783.570313
1575.564453	69052.820313
1574.520508	69636.023438
1573.475586	69786.406250
1572.430664	69913.476563
1571.384766	70526.421875
1570.339844	70376.687500
1569.293945	69824.921875
1568.249023	69970.476563
1567.202148	69149.468750
1566.156250	68948.968750
1565.110352	68116.812500
1564.063477	68046.601563
1563.017578	67864.968750
1561.970703	67583.593750
1560.922852	66661.750000
1559.875977	66357.476563
1558.829102	66238.906250
1557.781250	66118.054688
1556.733398	65844.179688
1555.685547	65978.500000
1554.636719	66008.445313
1553.588867	65961.890625
1552.540039	65871.312500
1551.491211	65118.066406
1550.442383	65213.003906
1549.393555	65050.792969
1548.344727	65643.617188
1547.294922	65627.257813
1546.245117	65884.078125
1545.195313	65006.628906
1544.145508	65448.601563
1543.094727	65598.875000
1542.044922	65633.414063
1540.994141	65772.031250
1539.943359	65131.253906
1538.892578	65591.289063
1537.840820	64897.605469
1536.790039	65648.742188
1535.738281	65463.687500
1534.686523	65202.449219
1533.634766	65096.078125
1532.583008	65253.042969
1531.530273	65620.093750
1530.477539	65049.617188
1529.424805	65141.863281
1528.372070	65180.992188
1527.319336	65000.878906
1526.265625	65277.652344
1525.212891	64779.242188
1524.159180	64490.890625
1523.105469	64483.964844
1522.051758	64924.316406
1520.997070	64818.191406
1519.942383	64569.207031
1518.888672	64062.226563
1517.833984	64612.914063
1516.778320	64057.726563
1515.723633	63933.414063
1514.667969	64311.121094
1513.612305	64133.847656
1512.556641	63744.867188
1511.500977	63263.964844
1510.445313	63998.171875
1509.388672	63544.996094
1508.332031	63595.726563
1507.275391	63618.835938
1506.218750	63579.851563
1505.162109	63665.023438
1504.104492	63416.875000
1503.047852	63106.761719
1501.990234	63088.566406
1500.931641	63019.832031
1499.874023	63038.406250
1498.816406	63284.320313
1497.757813	63431.414063
1496.699219	63149.164063
1495.640625	63188.343750
1494.582031	63121.949219
1493.522461	63115.226563
1492.462891	63145.210938
1491.403320	63521.515625
1490.343750	62994.164063
1489.284180	63003.507813
1488.224609	63615.746094
1487.164063	63588.300781
1486.103516	63443.992188
1485.042969	63817.531250
1483.982422	63453.320313
1482.920898	63783.203125
1481.860352	63480.949219
1480.798828	63458.121094
1479.737305	63437.585938
1478.675781	63680.253906
1477.613281	63957.156250
1476.550781	64012.035156
1475.489258	63950.230469
1474.426758	64284.105469
1473.363281	64519.531250
1472.300781	64373.074219
1471.237305	64043.796875
1470.174805	64219.710938
1469.111328	64742.878906
1468.046875	64518.796875
1466.983398	64486.664063
1465.919922	64504.781250
1464.855469	64666.742188
1463.791016	65006.710938
1462.726563	65143.410156
1461.661133	64675.296875
1460.596680	64745.828125
1459.531250	65619.351563
1458.465820	65409.136719
1457.400391	65080.410156
1456.334961	65289.894531
1455.268555	65367.078125
1454.202148	65175.281250
1453.135742	65644.414063
1452.069336	65728.320313
1451.002930	65588.953125
1449.935547	66039.531250
1448.869141	66148.359375
1447.801758	65829.117188
1446.734375	66263.460938
1445.666016	66501.921875
1444.598633	67108.929688
1443.530273	66905.757813
1442.461914	67285.000000
1441.393555	68175.828125
1440.325195	68140.835938
1439.256836	68765.187500
1438.187500	69462.039063
1437.118164	68947.289063
1436.048828	69307.554688
1434.979492	69335.992188
1433.909180	69537.054688
1432.839844	69810.710938
1431.769531	70474.820313
1430.699219	70355.453125
1429.627930	70317.835938
1428.557617	70548.023438
1427.486328	70562.570313
1426.416016	70568.031250
1425.343750	71097.453125
1424.272461	70495.031250
1423.201172	70865.546875
1422.128906	70880.007813
1421.056641	71986.960938
1419.984375	71500.375000
1418.912109	70751.140625
1417.839844	71304.757813
1416.766602	71405.179688
1415.693359	70905.453125
1414.620117	70992.320313
1413.546875	71008.976563
1412.473633	70527.687500
1411.399414	70404.109375
1410.325195	70291.890625
1409.250977	70317.703125
1408.176758	70467.890625
1407.102539	70995.656250
1406.027344	71489.312500
1404.952148	71896.898438
1403.876953	72476.093750
1402.801758	72587.328125
1401.726563	72637.523438
1400.650391	72595.078125
1399.574219	72412.625000
1398.498047	72428.937500
1397.421875	72154.015625
1396.345703	72007.843750
1395.268555	72130.281250
1394.191406	71767.546875
1393.114258	71695.968750
1392.037109	71475.539063
1390.959961	71652.101563
1389.881836	71684.289063
1388.804688	71759.296875
1387.726563	72305.351563
1386.647461	72159.367188
1385.569336	72680.359375
1384.491211	73250.734375
1383.412109	73440.242188
1382.333008	74021.523438
1381.253906	74050.960938
1380.173828	73853.023438
1379.094727	73691.164063
1378.014648	73803.898438
1376.934570	73507.101563
1375.854492	73511.851563
1374.773438	73307.421875
1373.693359	72493.664063
1372.612305	72406.398438
1371.531250	72379.859375
1370.450195	71739.757813
1369.369141	71236.960938
1368.287109	71019.664063
1367.205078	70411.593750
1366.123047	70634.710938
1365.041016	70229.015625
1363.958984	70135.523438
1362.875977	69530.281250
1361.793945	69652.390625
1360.710938	69242.664063
1359.626953	68759.054688
1358.543945	68502.156250
1357.460938	68740.968750
1356.376953	68300.296875
1355.292969	68382.132813
1354.208984	68298.203125
1353.124023	68214.195313
1352.040039	68130.265625
1350.955078	68046.257813
1349.870117	67962.257813
1348.785156	67878.250000
1347.700195	67794.242188
1346.614258	67721.554688
1345.528320	67619.804688
1344.442383	68160.320313
1343.356445	67935.460938
1342.270508	68066.359375
1341.183594	68333.640625
1340.096680	68010.468750
1339.009766	68355.906250
1337.922852	68151.320313
1336.835938	68512.242188
1335.748047	68146.812500
1334.661133	68109.921875
1333.573242	67994.867188
1332.484375	68427.015625
1331.396484	68787.546875
1330.307617	68460.335938
1329.219727	68365.375000
1328.130859	68649.835938
1327.041992	68356.281250
1325.952148	68787.875000
1324.863281	67988.078125
1323.773438	68635.898438
1322.683594	68224.375000
1321.593750	68042.609375
1320.502930	68627.656250
1319.413086	67862.015625
1318.322266	68362.203125
1317.231445	68013.460938
1316.140625	68326.343750
1315.048828	68494.367188
1313.958008	68292.726563
1312.866211	68364.968750
1311.774414	69229.515625
1310.682617	68880.976563
1309.589844	68261.132813
1308.498047	69414.398438
1307.405273	69025.976563
1306.312500	69006.812500
1305.218750	69512.343750
1304.125977	69942.117188
1303.032227	71054.023438
1301.939453	70952.281250
1300.845703	71703.687500
1299.750977	72183.820313
1298.657227	73703.140625
1297.562500	74953.234375
1296.467773	75181.648438
1295.373047	76459.867188
1294.278320	76377.226563
1293.183594	75688.875000
1292.087891	76152.132813
1290.992188	75756.843750
1289.896484	75401.609375
1288.800781	74443.414063
1287.704102	73379.156250
1286.608398	73407.976563
1285.511719	71976.429688
1284.415039	72129.562500
1283.317383	71513.953125
1282.220703	71000.453125
1281.123047	70768.359375
1280.025391	70190.960938
1278.927734	69970.164063
1277.830078	69143.023438
1276.731445	68988.875000
1275.633789	68739.640625
1274.535156	68503.773438
1273.436523	67836.718750
1272.336914	67689.539063
1271.238281	67042.765625
1270.138672	66924.515625
1269.039063	66711.273438
1267.939453	66617.421875
1266.839844	66508.140625
1265.739258	65314.371094
1264.638672	65856.835938
1263.538086	65476.156250
1262.437500	65294.296875
1261.336914	64942.546875
1260.235352	65469.230469
1259.134766	65024.898438
1258.033203	64805.742188
1256.930664	64864.562500
1255.829102	64464.679688
1254.726563	63897.375000
1253.625000	64026.863281
1252.522461	63713.300781
1251.418945	63527.652344
1250.316406	63401.558594
1249.212891	63526.628906
1248.110352	63464.441406
1247.006836	63199.695313
1245.902344	63721.011719
1244.798828	63251.593750
1243.694336	62837.363281
1242.589844	63054.800781
1241.485352	62656.152344
1240.380859	62963.718750
1239.276367	62851.125000
1238.170898	62496.695313
1237.065430	62384.222656
1235.959961	62506.972656
1234.854492	62946.128906
1233.748047	63044.558594
1232.642578	62562.988281
1231.536133	62766.871094
1230.429688	62617.121094
1229.322266	62386.187500
1228.215820	63004.878906
1227.108398	63098.781250
1226.000977	63475.730469
1224.893555	62689.707031
1223.786133	62752.898438
1222.677734	63180.140625
1221.569336	62714.742188
1220.460938	63275.566406
1219.352539	62744.554688
1218.244141	62281.675781
1217.134766	62322.945313
1216.025391	62024.617188
1214.916016	62363.808594
1213.806641	61765.539063
1212.697266	61883.500000
1211.586914	61659.890625
1210.476563	62158.679688
1209.366211	61799.410156
1208.255859	61672.207031
1207.145508	61805.375000
1206.034180	62410.937500
1204.922852	62397.398438
1203.811523	62149.910156
1202.700195	62304.746094
1201.587891	62118.558594
1200.476563	62282.074219
1199.364258	62458.640625
1198.251953	62857.957031
1197.138672	63012.507813
1196.026367	62876.570313
1194.913086	63701.320313
1193.799805	63384.125000
1192.686523	63630.121094
1191.573242	63561.804688
1190.458984	63174.984375
1189.344727	63318.355469
1188.230469	62726.710938
1187.116211	63136.125000
1186.001953	62754.011719
1184.886719	62962.734375
1183.772461	62362.859375
1182.657227	62347.144531
1181.541016	62209.437500
1180.425781	62219.886719
1179.309570	61296.093750
1178.193359	61986.023438
1177.077148	61443.562500
1175.960938	61728.378906
1174.844727	61529.984375
1173.727539	61599.277344
1172.610352	61416.203125
1171.493164	60763.402344
1170.375977	61363.378906
