#Wave		#Intensity
2001.182617	34602.191406
2000.212891	34905.476563
1999.243164	34440.773438
1998.273438	35001.031250
1997.303711	34659.226563
1996.333008	34522.929688
1995.363281	34642.117188
1994.392578	34520.890625
1993.421875	34462.289063
1992.451172	34894.296875
1991.479492	34725.539063
1990.508789	34762.007813
1989.537109	34778.453125
1988.566406	34632.308594
1987.594727	34848.832031
1986.622070	35002.769531
1985.650391	34751.660156
1984.677734	34540.632813
1983.706055	34841.980469
1982.733398	34900.859375
1981.760742	34789.835938
1980.788086	34538.976563
1979.814453	35257.167969
1978.841797	34876.472656
1977.868164	34997.695313
1976.894531	35148.828125
1975.920898	34803.289063
1974.947266	35136.542969
1973.972656	35085.500000
1972.999023	34974.605469
1972.024414	34886.195313
1971.049805	35296.496094
1970.075195	35031.058594
1969.099609	35107.187500
1968.125000	35195.746094
1967.149414	34920.496094
1966.173828	34976.667969
1965.198242	34990.480469
1964.222656	34994.320313
1963.247070	34896.074219
1962.270508	35298.246094
1961.294922	34975.964844
1960.318359	35343.136719
1959.341797	34973.683594
1958.364258	35427.796875
1957.387695	35162.917969
1956.410156	35358.203125
1955.433594	35352.019531
1954.456055	34950.558594
1953.478516	34984.214844
1952.500000	35099.863281
1951.522461	35496.242188
1950.543945	35370.785156
1949.565430	35389.433594
1948.586914	35221.820313
1947.608398	35377.046875
1946.629883	35336.101563
1945.650391	35148.722656
1944.671875	35355.992188
1943.692383	35565.667969
1942.712891	35088.093750
1941.733398	34890.964844
1940.752930	35794.984375
1939.773438	35287.863281
1938.792969	35313.910156
1937.812500	34906.191406
1936.832031	35529.535156
1935.851563	35424.203125
1934.870117	35338.726563
1933.888672	35451.425781
1932.908203	35507.128906
1931.926758	35015.613281
1930.945313	35554.105469
1929.962891	35624.605469
1928.981445	35808.914063
1927.999023	35466.140625
1927.016602	35338.710938
1926.034180	35181.640625
1925.051758	35313.960938
1924.069336	35169.312500
1923.085938	35682.289063
1922.102539	35297.871094
1921.119141	35595.648438
1920.135742	35616.589844
1919.152344	35185.441406
1918.168945	35841.218750
1917.184570	35568.230469
1916.200195	35702.730469
1915.215820	35743.375000
1914.231445	35322.453125
1913.247070	35957.878906
1912.261719	35356.945313
1911.276367	35380.347656
1910.291992	35532.000000
1909.306641	35644.136719
1908.320313	35652.679688
1907.334961	35542.890625
1906.348633	35935.945313
1905.363281	35365.316406
1904.376953	35654.777344
1903.390625	35902.257813
1902.403320	35363.949219
1901.416992	35759.144531
1900.429688	35282.601563
1899.443359	35638.285156
1898.456055	35664.027344
1897.467773	35591.328125
1896.480469	35658.894531
1895.493164	35492.738281
1894.504883	35233.171875
1893.516602	35699.140625
1892.528320	35798.601563
1891.540039	35398.996094
1890.550781	35547.625000
1889.562500	35794.496094
1888.573242	35643.253906
1887.583984	35779.472656
1886.594727	36045.820313
1885.605469	35887.238281
1884.615234	35586.308594
1883.625000	35886.910156
1882.635742	35900.246094
1881.645508	35920.933594
1880.654297	35647.191406
1879.664063	35873.976563
1878.673828	35727.871094
1877.682617	35711.789063
1876.691406	35644.222656
1875.700195	36370.917969
1874.708984	36026.300781
1873.716797	35868.039063
1872.725586	36067.542969
1871.733398	35735.402344
1870.741211	36162.636719
1869.749023	35859.980469
1868.755859	35966.300781
1867.763672	36087.273438
1866.770508	36408.894531
1865.777344	35810.308594
1864.784180	36271.320313
1863.791016	36108.386719
1862.797852	36317.269531
1861.803711	36076.132813
1860.809570	36299.609375
1859.815430	36051.226563
1858.821289	36176.867188
1857.827148	36346.445313
1856.832031	36142.156250
1855.837891	36084.503906
1854.842773	36444.507813
1853.847656	36377.050781
1852.852539	36248.578125
1851.856445	36574.187500
1850.861328	36426.199219
1849.865234	36761.417969
1848.869141	36552.449219
1847.873047	36865.574219
1846.876953	36542.031250
1845.879883	36742.871094
1844.883789	36239.046875
1843.886719	36220.480469
1842.889648	36723.480469
1841.892578	36785.246094
1840.895508	36554.632813
1839.897461	36723.582031
1838.899414	36519.847656
1837.901367	36403.843750
1836.903320	36760.191406
1835.905273	36481.093750
1834.907227	36742.382813
1833.908203	36784.582031
1832.909180	37091.949219
1831.910156	36800.820313
1830.911133	36988.906250
1829.912109	37072.363281
1828.912109	37238.449219
1827.913086	36935.339844
1826.913086	37215.613281
1825.913086	36701.210938
1824.913086	37241.378906
1823.912109	37545.734375
1822.912109	37220.972656
1821.911133	37216.843750
1820.910156	37241.851563
1819.909180	37164.898438
1818.908203	37325.804688
1817.906250	37753.570313
1816.904297	37266.558594
1815.903320	37565.621094
1814.900391	37425.617188
1813.898438	37724.542969
1812.896484	37814.867188
1811.893555	37539.148438
1810.891602	37651.281250
1809.888672	37632.531250
1808.885742	37766.410156
1807.881836	37810.621094
1806.878906	37716.769531
1805.875000	37773.074219
1804.871094	37977.035156
1803.867188	38018.750000
1802.863281	37997.527344
1801.859375	38116.648438
1800.854492	38368.785156
1799.849609	38083.855469
1798.844727	37934.457031
1797.839844	37947.109375
1796.834961	37870.308594
1795.830078	38692.687500
1794.824219	38328.199219
1793.818359	38060.484375
1792.812500	38464.457031
1791.806641	38054.304688
1790.799805	38624.761719
1789.793945	38547.925781
1788.787109	38560.437500
1787.780273	38524.667969
1786.773438	38373.074219
1785.766602	38786.136719
1784.758789	38222.027344
1783.751953	38492.656250
1782.744141	38968.171875
1781.736328	38874.492188
1780.728516	38763.972656
1779.719727	39236.773438
1778.711914	39333.468750
1777.703125	38878.371094
1776.694336	39136.496094
1775.685547	38905.589844
1774.676758	39303.289063
1773.666992	39195.222656
1772.657227	39070.343750
1771.648438	39193.417969
1770.638672	39920.457031
1769.627930	39362.429688
1768.618164	39252.035156
1767.607422	39596.257813
1766.597656	39796.070313
1765.586914	39553.417969
1764.576172	39866.148438
1763.564453	39633.179688
1762.553711	40407.164063
1761.541992	39991.578125
1760.530273	40085.406250
1759.518555	40457.800781
1758.506836	40337.789063
1757.495117	40201.007813
1756.482422	40412.347656
1755.469727	40640.414063
1754.457031	40422.062500
1753.444336	40434.109375
1752.431641	40813.167969
1751.417969	40235.140625
1750.405273	41108.074219
1749.391602	40973.738281
1748.377930	41318.867188
1747.364258	40772.308594
1746.349609	41023.894531
1745.335938	41359.242188
1744.321289	41069.269531
1743.306641	41303.898438
1742.291992	41284.621094
1741.276367	41693.898438
1740.261719	41305.921875
1739.246094	41817.960938
1738.230469	41616.738281
1737.214844	41673.972656
1736.199219	41822.082031
1735.182617	41991.660156
1734.166992	42338.121094
1733.150391	42206.312500
1732.133789	42222.746094
1731.117188	42700.425781
1730.099609	43034.562500
1729.083008	43046.058594
1728.065430	43561.550781
1727.047852	43651.757813
1726.030273	43687.007813
1725.012695	43846.390625
1723.994141	44084.484375
1722.976563	44537.277344
1721.958008	44381.453125
1720.939453	44573.992188
1719.920898	44592.335938
1718.901367	45006.554688
1717.882813	45320.480469
1716.863281	45023.992188
1715.843750	45516.566406
1714.824219	45039.027344
1713.803711	45181.160156
1712.784180	45435.207031
1711.763672	45712.984375
1710.743164	45595.339844
1709.722656	46130.136719
1708.702148	45757.730469
1707.681641	45866.253906
1706.660156	45389.308594
1705.638672	45259.921875
1704.617188	45763.367188
1703.595703	46107.277344
1702.574219	45761.417969
1701.551758	45358.613281
1700.529297	45847.417969
1699.507813	45810.769531
1698.484375	46030.781250
1697.461914	46013.117188
1696.439453	46066.722656
1695.416016	46058.558594
1694.392578	45839.039063
1693.369141	46191.804688
1692.345703	46024.566406
1691.322266	46182.542969
1690.297852	46532.679688
1689.273438	46083.125000
1688.249023	46739.160156
1687.224609	46486.578125
1686.200195	46701.238281
1685.174805	46873.144531
1684.150391	46902.757813
1683.125000	46730.902344
1682.099609	46952.468750
1681.073242	46985.199219
1680.047852	47017.902344
1679.021484	47050.632813
1677.995117	47515.882813
1676.968750	47367.761719
1675.942383	47766.503906
1674.916016	47346.214844
1673.888672	47818.171875
1672.862305	47729.242188
1671.834961	47985.703125
1670.806641	48055.230469
1669.779297	47985.218750
1668.751953	47988.519531
1667.723633	48079.277344
1666.695313	48328.347656
1665.666992	48319.765625
1664.638672	48195.421875
1663.609375	48151.429688
1662.581055	48447.535156
1661.551758	48375.175781
1660.522461	48180.078125
1659.493164	48738.019531
1658.462891	48606.644531
1657.433594	48933.070313
1656.403320	48844.164063
1655.373047	49021.828125
1654.342773	49307.910156
1653.312500	48528.109375
1652.281250	49106.503906
1651.250977	49135.488281
1650.219727	49079.625000
1649.188477	49473.816406
1648.156250	49281.269531
1647.125000	49281.933594
1646.092773	49598.160156
1645.060547	49707.070313
1644.028320	49790.046875
1642.996094	49767.070313
1641.963867	49358.164063
1640.930664	49890.550781
1639.898438	49964.015625
1638.865234	49973.945313
1637.832031	50099.101563
1636.797852	49963.226563
1635.764648	49742.769531
1634.730469	50330.917969
1633.696289	50615.710938
1632.662109	50442.238281
1631.627930	51243.714844
1630.592773	50764.855469
1629.558594	51126.855469
1628.523438	51044.972656
1627.488281	51007.722656
1626.453125	51576.015625
1625.416992	51609.078125
1624.381836	51904.898438
1623.345703	52463.339844
1622.309570	52711.992188
1621.273438	52876.136719
1620.237305	53713.101563
1619.200195	54268.468750
1618.163086	55179.878906
1617.125977	56032.382813
1616.088867	57273.492188
1615.051758	58057.382813
1614.014648	59447.574219
1612.976563	59870.187500
1611.938477	60447.164063
1610.900391	61452.296875
1609.862305	61946.871094
1608.823242	61369.570313
1607.785156	60387.738281
1606.746094	59324.386719
1605.707031	59131.402344
1604.667969	58426.402344
1603.628906	56459.207031
1602.588867	56220.082031
1601.548828	55006.496094
1600.508789	54819.113281
1599.468750	54052.421875
1598.428711	53634.031250
1597.387695	53220.453125
1596.347656	53271.679688
1595.306641	52204.644531
1594.265625	52274.699219
1593.224609	51649.289063
1592.182617	51794.078125
1591.140625	51577.218750
1590.099609	51463.066406
1589.057617	51132.070313
1588.014648	51470.363281
1586.972656	51060.222656
1585.929688	50890.292969
1584.887695	51351.953125
1583.844727	51272.894531
1582.800781	51142.617188
1581.757813	51298.863281
1580.714844	50768.082031
1579.670898	51466.828125
1578.626953	51622.925781
1577.583008	51776.640625
1576.538086	51253.128906
1575.494141	52018.750000
1574.449219	52281.636719
1573.404297	51816.453125
1572.359375	51846.738281
1571.314453	52137.406250
1570.269531	51832.882813
1569.223633	51809.687500
1568.177734	52144.351563
1567.131836	51463.609375
1566.085938	51709.941406
1565.040039	51208.347656
1563.993164	50479.367188
1562.946289	50412.312500
1561.899414	50686.503906
1560.852539	50313.085938
1559.805664	50023.332031
1558.757813	50009.757813
1557.709961	50021.707031
1556.662109	50017.410156
1555.614258	49927.324219
1554.566406	50078.371094
1553.517578	49339.281250
1552.469727	50011.816406
1551.420898	49701.660156
1550.372070	49776.179688
1549.322266	50056.820313
1548.273438	49989.984375
1547.223633	48978.464844
1546.173828	49483.652344
1545.124023	49453.976563
1544.074219	49875.582031
1543.024414	49556.621094
1541.973633	49473.734375
1540.922852	49451.015625
1539.872070	50024.937500
1538.821289	49419.464844
1537.770508	50194.304688
1536.718750	49979.625000
1535.666992	49704.937500
1534.615234	49684.500000
1533.563477	50052.156250
1532.511719	49803.003906
1531.458984	49750.222656
1530.407227	49616.648438
1529.354492	49771.671875
1528.300781	49610.445313
1527.248047	49121.593750
1526.195313	49615.769531
1525.141602	49791.437500
1524.087891	49443.496094
1523.034180	49607.597656
1521.980469	49794.691406
1520.925781	49769.648438
1519.871094	49834.492188
1518.817383	49710.359375
1517.762695	50153.023438
1516.707031	49648.804688
1515.652344	49635.312500
1514.596680	49635.640625
1513.541016	49534.667969
1512.485352	49014.800781
1511.429688	49749.378906
1510.374023	49291.781250
1509.317383	49193.234375
1508.260742	49087.820313
1507.204102	49490.687500
1506.147461	49185.210938
1505.090820	49378.707031
1504.033203	49602.015625
1502.975586	49184.070313
1501.917969	49492.343750
1500.860352	49246.859375
1499.802734	49249.523438
1498.744141	49295.816406
1497.686523	49587.769531
1496.627930	49666.121094
1495.569336	49175.226563
1494.509766	49405.078125
1493.451172	49279.210938
1492.391602	49339.199219
1491.332031	48995.496094
1490.272461	49523.316406
1489.212891	49220.968750
1488.152344	49482.644531
1487.092773	49233.125000
1486.032227	49609.277344
1484.971680	49909.683594
1483.910156	49266.210938
1482.849609	49630.699219
1481.788086	50036.269531
1480.726563	49796.062500
1479.665039	49750.507813
1478.603516	49624.867188
1477.541992	50009.546875
1476.479492	50231.648438
1475.416992	49687.382813
1474.354492	50090.132813
1473.291992	50312.097656
1472.229492	50335.078125
1471.166016	50604.914063
1470.102539	50301.023438
1469.039063	49803.019531
1467.975586	50511.433594
1466.912109	50344.765625
1465.847656	50406.527344
1464.783203	50687.464844
1463.718750	50561.941406
1462.654297	51055.015625
1461.589844	51061.828125
1460.524414	51169.031250
1459.458984	50899.781250
1458.393555	50993.285156
1457.328125	51225.859375
1456.262695	51344.343750
1455.196289	51538.015625
1454.130859	51569.789063
1453.064453	52011.734375
1451.998047	51697.089844
1450.930664	51389.386719
1449.864258	51728.632813
1448.796875	51758.054688
1447.729492	52101.656250
1446.662109	52021.734375
1445.594727	51796.171875
1444.526367	52173.710938
1443.458008	52516.984375
1442.390625	52487.078125
1441.321289	53055.328125
1440.252930	53107.191406
1439.184570	53900.195313
1438.115234	53838.226563
1437.045898	53951.277344
1435.976563	54000.660156
1434.907227	54679.332031
1433.836914	54680.863281
1432.767578	55079.824219
1431.697266	55017.699219
1430.626953	55175.804688
1429.555664	55188.585938
1428.485352	56025.156250
1427.414063	56178.453125
1426.342773	56206.917969
1425.271484	56137.839844
1424.200195	55930.449219
1423.128906	56190.207031
1422.056641	56554.152344
1420.984375	56677.710938
1419.912109	56554.207031
1418.839844	56804.597656
1417.767578	56470.433594
1416.694336	56351.558594
1415.621094	56540.699219
1414.547852	56252.042969
1413.474609	56013.285156
1412.400391	56053.000000
1411.327148	55696.691406
1410.252930	54867.648438
1409.178711	55654.027344
1408.104492	55345.468750
1407.029297	55403.347656
1405.955078	56073.894531
1404.879883	55912.351563
1403.804688	56496.679688
1402.729492	56246.984375
1401.653320	56514.746094
1400.578125	56649.136719
1399.501953	56803.800781
1398.425781	56777.765625
1397.349609	56553.070313
1396.272461	56644.460938
1395.196289	56780.949219
1394.119141	56470.625000
1393.041992	56970.304688
1391.964844	57054.777344
1390.886719	57486.511719
1389.809570	57275.484375
1388.731445	57945.980469
1387.653320	57960.335938
1386.575195	57706.507813
1385.497070	58227.851563
1384.417969	58559.773438
1383.338867	58342.007813
1382.259766	58727.832031
1381.180664	58694.734375
1380.101563	57824.230469
1379.021484	58173.921875
1377.941406	58338.957031
1376.861328	58233.945313
1375.781250	57402.386719
1374.701172	57909.324219
1373.620117	57361.453125
1372.539063	57142.019531
1371.458008	56646.179688
1370.376953	56435.941406
1369.295898	56504.410156
1368.213867	56314.488281
1367.132813	55951.671875
1366.050781	56181.882813
1364.967773	56295.250000
1363.885742	56294.074219
1362.802734	56214.335938
1361.720703	56188.484375
1360.637695	56198.542969
1359.554688	56302.816406
1358.470703	56494.527344
1357.387695	56071.695313
1356.303711	55249.902344
1355.219727	56091.808594
1354.135742	55342.031250
1353.050781	55636.816406
1351.966797	55443.046875
1350.881836	54713.941406
1349.796875	54565.199219
1348.711914	54564.308594
1347.626953	54052.929688
1346.541016	54490.878906
1345.455078	54481.042969
1344.369141	54721.832031
1343.283203	54152.613281
1342.197266	53910.195313
1341.110352	54388.023438
1340.023438	54235.085938
1338.936523	54723.855469
1337.849609	54745.265625
1336.762695	54406.843750
1335.674805	54734.425781
1334.586914	54699.964844
1333.499023	54616.367188
1332.411133	54320.636719
1331.323242	55177.187500
1330.234375	55048.894531
1329.145508	55275.546875
1328.056641	54895.097656
1326.967773	55324.738281
1325.878906	55658.296875
1324.789063	55877.976563
1323.699219	55921.394531
1322.609375	55929.125000
1321.519531	56282.382813
1320.429688	56361.363281
1319.338867	56712.183594
1318.248047	57145.312500
1317.157227	58095.101563
1316.066406	57826.234375
1314.975586	57969.429688
1313.883789	58045.773438
1312.791992	58894.531250
1311.700195	59173.210938
1310.608398	58997.839844
1309.516602	58684.589844
1308.423828	58796.316406
1307.331055	58710.062500
1306.238281	57943.406250
1305.145508	58533.191406
1304.051758	58278.089844
1302.958984	58269.765625
1301.865234	58414.761719
1300.771484	58784.085938
1299.677734	58904.500000
1298.583008	59844.347656
1297.489258	59917.890625
1296.394531	60686.269531
1295.299805	61560.906250
1294.204102	61598.582031
1293.109375	61123.699219
1292.013672	61418.773438
1290.917969	60924.125000
1289.822266	60627.023438
1288.726563	59474.183594
1287.630859	59243.949219
1286.534180	59523.570313
1285.437500	59051.859375
1284.340820	58606.906250
1283.244141	58281.734375
1282.146484	58074.058594
1281.048828	57565.300781
1279.951172	57209.488281
1278.853516	57008.753906
1277.755859	57261.792969
1276.658203	56443.750000
1275.559570	56557.414063
1274.460938	56452.046875
1273.362305	56138.828125
1272.262695	56053.472656
1271.164063	56169.328125
1270.064453	55741.382813
1268.964844	55448.402344
1267.865234	55626.164063
1266.765625	55211.796875
1265.665039	55301.183594
1264.564453	54694.890625
1263.463867	54576.781250
1262.363281	54595.585938
1261.262695	54899.101563
1260.161133	54564.750000
1259.059570	54305.531250
1257.958008	53993.460938
1256.856445	54146.878906
1255.754883	54507.527344
1254.652344	53992.746094
1253.549805	54240.859375
1252.447266	54164.898438
1251.344727	53795.886719
1250.242188	53922.722656
1249.138672	53439.339844
1248.035156	53680.714844
1246.931641	53728.222656
1245.828125	53753.695313
1244.724609	53660.292969
1243.620117	54103.914063
1242.515625	53937.863281
1241.411133	53593.675781
1240.306641	53124.234375
1239.201172	53613.800781
1238.096680	53865.718750
1236.991211	53607.523438
1235.885742	53703.289063
1234.779297	54185.796875
1233.673828	53341.023438
1232.567383	53966.207031
1231.460938	53673.070313
1230.354492	54155.222656
1229.248047	54246.378906
1228.140625	54317.746094
1227.033203	54046.699219
1225.926758	54335.316406
1224.818359	54206.968750
1223.710938	54359.441406
1222.602539	54327.632813
1221.495117	54137.949219
1220.386719	54437.238281
1219.278320	54050.320313
1218.168945	53768.734375
1217.060547	54026.289063
1215.951172	53959.507813
1214.841797	53702.179688
1213.731445	53753.738281
1212.622070	53448.367188
1211.511719	53081.804688
1210.402344	54105.273438
1209.291992	53659.941406
1208.180664	53908.367188
1207.070313	53874.500000
1205.958984	54039.675781
1204.847656	54217.914063
1203.736328	54308.628906
1202.625000	54102.003906
1201.512695	54542.402344
1200.401367	54163.175781
1199.289063	54824.062500
1198.176758	54798.796875
1197.063477	54775.722656
1195.951172	55198.113281
1194.837891	55338.710938
1193.724609	54697.796875
1192.611328	55277.101563
1191.498047	55537.617188
1190.383789	55481.691406
1189.269531	55318.902344
1188.155273	54853.031250
1187.041016	54960.789063
1185.926758	54625.953125
1184.811523	54121.222656
1183.696289	54338.011719
1182.581055	53957.707031
1181.465820	54019.769531
1180.350586	54103.585938
1179.234375	53497.046875
1178.118164	53343.601563
1177.001953	53488.441406
1175.885742	53226.226563
1174.768555	53397.144531
1173.652344	53276.453125
1172.535156	53386.390625
1171.417969	53070.000000
1170.299805	52966.824219
