#Wave		#Intensity
2001.221680	38234.371094
2000.251953	38161.683594
1999.282227	37804.167969
1998.312500	37657.253906
1997.342773	37680.742188
1996.372070	38102.480469
1995.402344	38293.667969
1994.431641	38189.332031
1993.460938	38495.593750
1992.490234	38095.898438
1991.518555	38347.011719
1990.547852	38235.222656
1989.576172	38178.511719
1988.604492	38159.339844
1987.632813	38407.757813
1986.661133	38246.023438
1985.689453	38206.843750
1984.716797	38147.679688
1983.745117	38420.914063
1982.772461	38144.347656
1981.799805	38102.707031
1980.827148	38393.285156
1979.853516	38531.421875
1978.880859	38160.140625
1977.907227	38185.925781
1976.933594	38246.648438
1975.959961	38978.656250
1974.986328	38275.695313
1974.011719	38219.113281
1973.038086	38426.941406
1972.063477	38435.187500
1971.088867	38186.605469
1970.114258	38376.875000
1969.138672	38420.019531
1968.164063	38545.382813
1967.188477	38643.292969
1966.212891	38781.027344
1965.237305	38315.937500
1964.261719	38498.507813
1963.286133	38910.082031
1962.309570	38813.656250
1961.333984	39058.261719
1960.357422	38456.648438
1959.380859	39017.230469
1958.404297	39134.792969
1957.426758	39113.019531
1956.450195	38638.644531
1955.472656	39183.875000
1954.495117	38759.371094
1953.517578	38966.347656
1952.540039	38966.988281
1951.561523	38878.171875
1950.583008	38799.324219
1949.605469	38802.472656
1948.626953	39257.593750
1947.647461	38925.453125
1946.668945	38836.714844
1945.690430	39140.179688
1944.710938	38912.460938
1943.731445	39007.378906
1942.751953	39228.785156
1941.772461	39574.128906
1940.791992	39277.046875
1939.812500	39218.101563
1938.832031	39409.558594
1937.851563	39784.367188
1936.871094	39529.582031
1935.890625	39210.460938
1934.909180	39617.304688
1933.928711	39397.355469
1932.947266	39355.785156
1931.965820	39452.882813
1930.984375	39604.410156
1930.002930	39411.835938
1929.020508	39565.789063
1928.038086	39655.355469
1927.056641	39472.761719
1926.074219	39564.785156
1925.090820	39298.187500
1924.108398	39746.250000
1923.125000	39173.171875
1922.142578	39188.550781
1921.159180	39955.183594
1920.175781	39839.464844
1919.191406	39521.214844
1918.208008	39595.796875
1917.223633	39798.765625
1916.240234	39912.773438
1915.255859	39352.796875
1914.271484	39713.664063
1913.286133	39820.218750
1912.301758	39948.941406
1911.316406	39811.187500
1910.331055	39695.683594
1909.345703	39812.023438
1908.360352	39622.585938
1907.375000	39388.839844
1906.388672	39869.953125
1905.402344	39301.093750
1904.416016	39754.949219
1903.429688	39794.781250
1902.443359	40142.476563
1901.457031	39901.488281
1900.469727	39724.597656
1899.482422	39710.242188
1898.495117	40020.785156
1897.507813	40131.882813
1896.520508	39755.773438
1895.532227	39798.000000
1894.543945	39709.847656
1893.556641	39966.007813
1892.568359	39976.203125
1891.579102	40069.976563
1890.590820	39861.398438
1889.601563	40208.269531
1888.613281	40292.121094
1887.624023	39798.648438
1886.634766	40096.222656
1885.644531	39838.703125
1884.655273	40381.683594
1883.665039	40386.867188
1882.674805	40207.968750
1881.684570	40085.570313
1880.694336	40238.011719
1879.704102	40294.726563
1878.712891	39949.179688
1877.722656	40506.179688
1876.731445	40641.269531
1875.740234	40594.906250
1874.748047	40149.054688
1873.756836	40056.234375
1872.764648	40526.964844
1871.773438	40426.757813
1870.781250	40564.156250
1869.788086	40478.667969
1868.795898	40488.695313
1867.803711	40777.777344
1866.810547	40288.453125
1865.817383	40557.890625
1864.824219	40396.625000
1863.831055	40832.289063
1862.837891	40604.992188
1861.843750	40641.871094
1860.849609	41260.628906
1859.855469	40683.804688
1858.861328	40727.976563
1857.867188	41119.128906
1856.872070	41075.253906
1855.877930	41055.816406
1854.882813	41073.019531
1853.887695	41121.960938
1852.892578	41026.835938
1851.896484	41080.644531
1850.901367	40636.546875
1849.905273	41317.535156
1848.909180	41122.406250
1847.913086	41446.921875
1846.916992	41639.621094
1845.919922	41420.148438
1844.923828	41432.367188
1843.926758	41822.410156
1842.929688	41215.500000
1841.932617	41763.832031
1840.935547	41741.863281
1839.937500	41522.593750
1838.939453	41656.542969
1837.942383	41878.105469
1836.943359	41637.011719
1835.945313	42028.890625
1834.947266	41683.199219
1833.948242	42230.664063
1832.949219	41666.089844
1831.951172	41707.406250
1830.951172	41773.023438
1829.952148	42188.773438
1828.953125	42200.792969
1827.953125	42064.531250
1826.953125	42210.234375
1825.953125	42528.410156
1824.953125	42183.218750
1823.952148	42435.699219
1822.952148	42571.515625
1821.951172	42833.546875
1820.950195	42185.070313
1819.949219	42665.535156
1818.948242	42381.347656
1817.946289	42354.468750
1816.945313	42528.960938
1815.943359	42807.695313
1814.941406	42477.597656
1813.939453	42348.871094
1812.936523	42608.089844
1811.934570	43102.332031
1810.931641	43118.972656
1809.928711	43181.640625
1808.925781	43079.546875
1807.921875	42863.640625
1806.918945	43323.492188
1805.915039	43357.015625
1804.912109	43158.121094
1803.908203	44017.054688
1802.903320	43244.546875
1801.899414	43384.519531
1800.894531	43260.746094
1799.890625	43903.777344
1798.885742	43927.472656
1797.880859	43025.082031
1796.875000	44160.984375
1795.870117	44232.960938
1794.864258	44022.156250
1793.858398	44246.351563
1792.852539	43895.500000
1791.846680	44450.542969
1790.840820	44418.550781
1789.833984	44343.105469
1788.828125	44603.246094
1787.821289	44672.617188
1786.814453	44628.535156
1785.806641	44350.417969
1784.799805	44764.765625
1783.791992	45099.367188
1782.784180	44850.250000
1781.776367	44909.843750
1780.768555	44684.953125
1779.760742	44971.121094
1778.751953	45302.972656
1777.743164	45613.019531
1776.735352	45236.386719
1775.725586	45307.882813
1774.716797	45656.289063
1773.708008	45713.238281
1772.698242	45765.347656
1771.688477	45892.050781
1770.678711	46141.437500
1769.668945	45738.695313
1768.659180	46413.812500
1767.648438	46177.121094
1766.637695	46164.152344
1765.626953	45653.492188
1764.616211	46633.433594
1763.605469	46678.070313
1762.593750	46713.078125
1761.583008	46575.082031
1760.571289	46581.265625
1759.559570	46633.078125
1758.547852	47222.777344
1757.535156	47096.785156
1756.523438	47306.906250
1755.510742	47644.160156
1754.498047	47467.761719
1753.485352	47742.480469
1752.472656	48108.257813
1751.458984	47747.187500
1750.445313	48273.492188
1749.432617	48353.667969
1748.417969	47920.828125
1747.404297	48727.230469
1746.390625	48546.082031
1745.375977	49031.042969
1744.361328	48907.390625
1743.346680	48826.890625
1742.332031	48964.324219
1741.317383	48967.632813
1740.302734	49835.078125
1739.287109	49507.953125
1738.271484	50030.414063
1737.255859	49837.343750
1736.240234	50407.398438
1735.223633	50506.101563
1734.208008	51042.355469
1733.191406	50973.554688
1732.174805	51478.457031
1731.158203	51388.089844
1730.140625	52275.058594
1729.124023	52392.425781
1728.106445	52653.070313
1727.088867	53300.515625
1726.071289	53513.144531
1725.053711	53398.628906
1724.035156	54098.101563
1723.017578	54191.144531
1721.999023	54422.546875
1720.980469	54713.507813
1719.961914	54770.609375
1718.942383	54880.152344
1717.923828	55905.273438
1716.904297	55463.867188
1715.884766	55005.929688
1714.865234	56280.710938
1713.844727	56106.332031
1712.825195	56344.156250
1711.804688	55781.574219
1710.784180	55495.441406
1709.763672	55866.578125
1708.743164	55754.312500
1707.722656	55972.933594
1706.701172	55268.117188
1705.679688	55915.027344
1704.658203	55633.921875
1703.636719	55355.289063
1702.615234	55630.847656
1701.592773	55516.371094
1700.571289	55318.726563
1699.548828	54712.335938
1698.526367	55225.449219
1697.502930	55161.011719
1696.480469	55084.714844
1695.457031	55096.324219
1694.433594	55202.917969
1693.410156	55174.132813
1692.386719	55306.785156
1691.363281	55491.597656
1690.338867	55370.226563
1689.314453	55426.839844
1688.290039	55583.062500
1687.265625	55824.613281
1686.241211	55997.304688
1685.215820	55513.183594
1684.191406	56034.332031
1683.166016	56062.312500
1682.140625	55727.718750
1681.115234	56122.972656
1680.088867	56169.867188
1679.062500	56114.898438
1678.037109	56358.316406
1677.010742	56521.148438
1675.983398	56676.820313
1674.957031	56714.093750
1673.930664	56715.859375
1672.903320	57178.972656
1671.875977	57175.917969
1670.848633	57196.511719
1669.820313	57630.910156
1668.792969	57923.296875
1667.764648	58291.218750
1666.736328	57768.015625
1665.708008	57724.679688
1664.679688	58255.449219
1663.651367	58200.222656
1662.622070	57882.863281
1661.592773	58233.859375
1660.563477	58287.261719
1659.534180	58173.046875
1658.504883	58738.558594
1657.474609	58756.437500
1656.444336	59043.257813
1655.415039	58735.562500
1654.383789	59531.679688
1653.353516	59049.519531
1652.323242	60319.152344
1651.291992	59749.800781
1650.260742	60125.675781
1649.229492	60409.523438
1648.198242	60285.707031
1647.166016	61200.667969
1646.134766	60871.863281
1645.102539	61444.980469
1644.070313	60887.890625
1643.038086	61387.828125
1642.004883	61480.460938
1640.972656	61947.167969
1639.939453	62034.957031
1638.906250	63084.707031
1637.873047	62518.500000
1636.839844	63022.300781
1635.805664	63516.515625
1634.772461	63799.019531
1633.738281	63994.468750
1632.704102	64084.117188
1631.668945	64995.925781
1630.634766	64575.687500
1629.599609	65099.613281
1628.565430	65801.789063
1627.530273	65869.890625
1626.494141	66670.250000
1625.458984	66954.062500
1624.422852	67610.820313
1623.387695	68654.398438
1622.351563	69406.765625
1621.315430	69732.093750
1620.278320	70999.796875
1619.242188	72147.500000
1618.205078	73798.695313
1617.167969	76306.937500
1616.130859	77926.335938
1615.093750	79510.015625
1614.055664	81788.718750
1613.018555	83436.710938
1611.980469	85575.757813
1610.942383	85743.101563
1609.904297	86720.148438
1608.865234	85876.359375
1607.827148	85559.265625
1606.788086	83471.562500
1605.749023	82579.679688
1604.709961	81164.335938
1603.669922	79179.054688
1602.630859	77175.773438
1601.590820	76841.843750
1600.550781	75956.593750
1599.510742	75073.992188
1598.470703	74366.882813
1597.429688	73818.828125
1596.389648	73397.062500
1595.348633	73157.531250
1594.307617	73749.023438
1593.265625	73164.125000
1592.224609	73631.742188
1591.182617	73658.273438
1590.140625	73435.218750
1589.098633	74702.421875
1588.056641	74278.734375
1587.014648	74435.671875
1585.971680	74671.796875
1584.928711	74952.109375
1583.886719	75192.710938
1582.842773	75358.671875
1581.799805	75384.828125
1580.755859	75422.617188
1579.712891	76075.054688
1578.668945	76250.046875
1577.625000	76033.953125
1576.580078	76525.359375
1575.536133	76588.492188
1574.491211	77121.492188
1573.446289	77724.070313
1572.401367	78633.382813
1571.356445	78454.281250
1570.311523	79325.937500
1569.265625	78993.375000
1568.219727	78742.257813
1567.173828	78821.132813
1566.127930	78906.953125
1565.082031	78649.000000
1564.035156	78131.070313
1562.988281	78177.484375
1561.941406	78620.812500
1560.894531	77808.414063
1559.847656	78038.164063
1558.799805	77847.906250
1557.751953	78423.179688
1556.704102	78112.320313
1555.656250	78147.070313
1554.608398	78068.195313
1553.560547	78133.062500
1552.511719	78302.187500
1551.462891	78019.421875
1550.414063	77468.007813
1549.365234	77859.515625
1548.315430	77692.757813
1547.265625	77685.828125
1546.216797	77137.171875
1545.166992	77623.343750
1544.116211	77544.679688
1543.066406	77294.812500
1542.015625	77678.898438
1540.965820	77595.625000
1539.915039	77315.812500
1538.863281	76848.812500
1537.812500	76902.117188
1536.760742	76273.562500
1535.709961	75749.210938
1534.658203	75786.500000
1533.605469	74733.414063
1532.553711	74708.500000
1531.501953	74097.046875
1530.449219	74206.164063
1529.396484	73872.023438
1528.343750	73715.718750
1527.290039	73529.460938
1526.237305	72773.390625
1525.183594	73210.195313
1524.129883	72777.343750
1523.076172	72902.679688
1522.022461	72778.976563
1520.968750	72484.726563
1519.914063	72778.281250
1518.859375	72709.960938
1517.804688	72390.531250
1516.750000	72453.593750
1515.694336	72765.359375
1514.639648	72779.968750
1513.583984	72716.289063
1512.528320	72311.960938
1511.472656	72232.281250
1510.416016	71959.335938
1509.360352	72790.773438
1508.303711	72225.695313
1507.247070	71704.515625
1506.190430	72077.968750
1505.132813	71593.781250
1504.076172	71335.015625
1503.018555	71349.820313
1501.960938	71162.414063
1500.903320	70972.773438
1499.844727	71093.281250
1498.787109	70566.140625
1497.728516	70463.953125
1496.669922	70834.703125
1495.611328	70613.148438
1494.552734	70827.687500
1493.493164	69727.437500
1492.434570	70276.976563
1491.375000	69560.250000
1490.315430	69916.992188
1489.254883	69915.921875
1488.195313	69401.367188
1487.134766	69019.921875
1486.074219	68805.890625
1485.013672	68612.562500
1483.953125	68719.382813
1482.892578	68743.703125
1481.831055	68184.093750
1480.769531	68453.476563
1479.708008	68731.914063
1478.646484	67504.312500
1477.583984	67480.765625
1476.522461	67898.781250
1475.459961	67712.757813
1474.397461	67712.046875
1473.334961	67811.945313
1472.271484	68417.062500
1471.208984	67607.046875
1470.145508	67695.476563
1469.082031	67788.437500
1468.018555	67856.234375
1466.954102	68330.585938
1465.890625	68270.367188
1464.826172	68223.867188
1463.761719	68449.046875
1462.697266	69002.828125
1461.631836	68915.140625
1460.567383	68952.968750
1459.501953	68899.523438
1458.436523	68960.148438
1457.371094	69159.851563
1456.305664	69535.046875
1455.239258	69331.070313
1454.172852	69154.523438
1453.107422	69420.125000
1452.040039	69482.843750
1450.973633	68982.875000
1449.907227	68911.265625
1448.839844	69251.859375
1447.772461	68834.156250
1446.705078	69104.062500
1445.637695	68629.625000
1444.569336	68901.742188
1443.500977	68964.445313
1442.432617	68795.101563
1441.364258	68932.843750
1440.295898	68995.500000
1439.227539	69294.578125
1438.158203	69123.007813
1437.088867	69592.398438
1436.019531	69748.039063
1434.950195	69608.281250
1433.879883	70004.640625
1432.810547	69758.132813
1431.740234	70247.414063
1430.669922	69612.734375
1429.598633	70201.726563
1428.528320	70622.570313
1427.457031	70539.531250
1426.386719	70554.078125
1425.314453	69863.195313
1424.243164	69784.867188
1423.171875	70209.921875
1422.099609	69877.648438
1421.027344	69837.882813
1419.955078	70031.546875
1418.882813	69035.609375
1417.810547	69666.554688
1416.737305	69552.093750
1415.664063	69505.617188
1414.590820	69377.640625
1413.517578	69215.750000
1412.444336	69737.445313
1411.370117	68602.492188
1410.295898	68775.671875
1409.221680	69265.476563
1408.147461	68615.218750
1407.073242	68713.671875
1405.998047	69271.039063
1404.922852	69362.554688
1403.847656	69408.828125
1402.772461	68790.750000
1401.697266	69015.585938
1400.621094	68625.929688
1399.544922	68376.437500
1398.468750	69190.570313
1397.392578	68336.015625
1396.316406	69172.421875
1395.239258	69232.187500
1394.162109	69348.328125
1393.084961	70204.398438
1392.007813	70446.632813
1390.930664	70456.500000
1389.852539	71093.179688
1388.774414	70969.914063
1387.696289	71252.390625
1386.618164	72102.671875
1385.540039	72186.562500
1384.460938	72583.554688
1383.382813	73084.007813
1382.303711	73404.125000
1381.223633	73253.554688
1380.144531	73940.453125
1379.064453	73488.234375
1377.985352	73862.039063
1376.905273	74539.453125
1375.825195	73803.921875
1374.744141	73954.796875
1373.664063	73372.546875
1372.583008	73566.164063
1371.501953	72995.421875
1370.420898	73049.679688
1369.338867	72553.390625
1368.257813	72068.507813
1367.175781	72221.734375
1366.093750	71824.664063
1365.011719	71436.718750
1363.929688	71087.078125
1362.846680	70791.429688
1361.763672	70960.437500
1360.680664	70929.687500
1359.597656	70461.476563
1358.514648	69849.875000
1357.430664	70355.312500
1356.346680	70073.554688
1355.262695	69538.562500
1354.178711	69167.390625
1353.094727	69204.210938
1352.009766	69034.875000
1350.925781	68159.945313
1349.840820	68828.531250
1348.755859	68424.218750
1347.669922	67894.656250
1346.584961	67792.859375
1345.499023	67319.554688
1344.413086	67508.796875
1343.327148	67749.429688
1342.240234	67457.578125
1341.154297	67539.328125
1340.067383	67750.742188
1338.980469	67374.078125
1337.893555	67947.570313
1336.805664	67617.937500
1335.718750	67882.796875
1334.630859	67841.492188
1333.542969	67614.796875
1332.455078	67877.281250
1331.367188	67885.109375
1330.278320	67781.312500
1329.189453	67927.539063
1328.100586	67535.875000
1327.011719	67902.992188
1325.922852	67594.007813
1324.833008	68016.734375
1323.743164	67685.539063
1322.653320	68596.390625
1321.563477	68276.351563
1320.473633	68807.851563
1319.382813	68407.656250
1318.291992	69186.257813
1317.201172	69167.062500
1316.110352	69430.734375
1315.019531	69965.992188
1313.927734	70245.000000
1312.835938	70501.648438
1311.744141	70511.156250
1310.652344	70487.273438
1309.560547	70565.742188
1308.467773	70341.656250
1307.375000	70364.515625
1306.282227	70460.742188
1305.189453	70592.500000
1304.095703	70413.015625
1303.002930	70202.476563
1301.909180	70285.320313
1300.815430	70476.984375
1299.721680	70444.242188
1298.626953	70182.757813
1297.533203	70172.273438
1296.438477	70494.796875
1295.343750	70843.835938
1294.248047	70879.828125
1293.153320	70689.492188
1292.057617	71100.406250
1290.961914	71972.523438
1289.866211	71943.968750
1288.770508	72090.578125
1287.674805	71831.453125
1286.578125	72396.929688
1285.481445	71836.460938
1284.384766	72423.882813
1283.288086	72220.250000
1282.190430	72211.601563
1281.092773	72380.093750
1279.996094	71840.046875
1278.897461	71924.429688
1277.799805	71873.773438
1276.702148	71435.890625
1275.603516	71321.179688
1274.504883	71069.351563
1273.406250	70990.125000
1272.307617	70747.296875
1271.208008	70688.046875
1270.108398	70547.023438
1269.008789	70596.117188
1267.909180	69642.031250
1266.809570	69655.914063
1265.708984	69636.656250
1264.609375	69716.781250
1263.508789	69708.554688
1262.407227	69305.171875
1261.306641	68999.046875
1260.206055	68979.914063
1259.104492	68724.695313
1258.002930	68509.281250
1256.901367	68170.421875
1255.798828	68274.929688
1254.697266	68119.234375
1253.594727	68349.359375
1252.492188	68742.492188
1251.389648	68273.875000
1250.286133	68157.937500
1249.183594	68143.367188
1248.080078	68119.984375
1246.976563	67550.515625
1245.872070	67903.718750
1244.768555	67316.882813
1243.664063	67555.554688
1242.560547	67833.742188
1241.455078	68050.226563
1240.350586	67850.906250
1239.246094	67504.312500
1238.140625	67454.671875
1237.035156	67633.687500
1235.929688	67636.789063
1234.824219	67362.992188
1233.717773	67460.617188
1232.612305	67186.945313
1231.505859	66950.703125
1230.399414	67166.929688
1229.291992	67091.054688
1228.185547	67245.703125
1227.078125	66952.546875
1225.970703	66753.859375
1224.863281	66419.210938
1223.755859	66589.210938
1222.647461	66522.281250
1221.539063	66464.140625
1220.430664	66217.476563
1219.322266	65940.203125
1218.213867	65676.179688
1217.104492	65946.914063
1215.995117	66208.773438
1214.885742	66010.554688
1213.776367	66140.898438
1212.666992	66343.460938
1211.556641	66097.148438
1210.446289	65955.984375
1209.335938	66565.507813
1208.225586	66391.484375
1207.115234	66213.156250
1206.003906	66275.476563
1204.892578	66576.140625
1203.781250	67388.312500
1202.669922	67072.195313
1201.557617	66415.226563
1200.446289	66897.007813
1199.333984	67035.593750
1198.221680	67064.898438
1197.108398	67232.562500
1195.996094	67400.078125
1194.882813	67567.742188
1193.769531	67735.406250
1192.656250	67903.070313
1191.542969	68309.671875
1190.428711	68397.593750
1189.314453	68550.921875
1188.200195	68045.562500
1187.085938	68159.640625
1185.971680	68354.335938
1184.856445	68014.937500
1183.741211	68401.359375
1182.625977	67929.156250
1181.510742	67566.046875
1180.395508	67886.992188
1179.279297	68190.390625
1178.163086	68208.453125
1177.046875	67889.085938
1175.930664	67465.359375
1174.813477	67933.992188
1173.697266	67634.414063
1172.580078	67704.757813
1171.462891	67059.515625
1170.344727	67510.468750
