#Wave		#Intensity
2001.221680	38805.855469
2000.251953	38916.144531
1999.282227	38774.023438
1998.312500	38849.937500
1997.342773	38993.468750
1996.372070	38856.414063
1995.402344	38929.769531
1994.431641	39185.878906
1993.460938	38760.960938
1992.490234	38939.414063
1991.518555	38574.746094
1990.547852	38843.246094
1989.576172	39466.890625
1988.604492	39079.804688
1987.632813	38905.421875
1986.661133	39251.183594
1985.689453	38874.332031
1984.716797	39194.980469
1983.745117	39525.507813
1982.772461	38971.398438
1981.799805	39374.296875
1980.827148	39197.570313
1979.853516	39023.398438
1978.880859	39153.910156
1977.907227	39344.289063
1976.933594	39197.632813
1975.959961	38911.277344
1974.986328	39261.285156
1974.011719	39384.148438
1973.038086	39247.558594
1972.063477	39173.367188
1971.088867	39014.417969
1970.114258	39728.070313
1969.138672	39419.527344
1968.164063	39691.750000
1967.188477	39383.316406
1966.212891	39246.886719
1965.237305	39359.582031
1964.261719	39148.492188
1963.286133	39659.550781
1962.309570	39508.222656
1961.333984	39578.472656
1960.357422	39491.914063
1959.380859	39639.273438
1958.404297	39408.445313
1957.426758	39448.808594
1956.450195	39531.433594
1955.472656	39586.679688
1954.495117	39229.226563
1953.517578	39756.761719
1952.540039	39702.585938
1951.561523	39544.074219
1950.583008	39445.234375
1949.605469	39286.820313
1948.626953	39838.707031
1947.647461	39824.285156
1946.668945	39432.523438
1945.690430	39442.996094
1944.710938	39882.792969
1943.731445	39230.691406
1942.751953	39814.250000
1941.772461	39688.222656
1940.791992	39381.203125
1939.812500	39339.597656
1938.832031	39764.062500
1937.851563	40136.332031
1936.871094	39787.312500
1935.890625	39626.722656
1934.909180	40011.199219
1933.928711	39754.027344
1932.947266	39967.468750
1931.965820	40245.210938
1930.984375	40102.003906
1930.002930	39936.570313
1929.020508	39766.242188
1928.038086	40370.421875
1927.056641	39957.636719
1926.074219	40086.675781
1925.090820	40020.300781
1924.108398	39810.539063
1923.125000	40060.660156
1922.142578	40120.375000
1921.159180	40207.253906
1920.175781	40049.484375
1919.191406	40479.722656
1918.208008	40522.027344
1917.223633	40403.796875
1916.240234	39841.167969
1915.255859	40355.070313
1914.271484	40049.339844
1913.286133	40493.925781
1912.301758	40240.089844
1911.316406	40215.765625
1910.331055	40477.558594
1909.345703	40243.585938
1908.360352	40581.714844
1907.375000	40466.128906
1906.388672	40431.917969
1905.402344	40540.652344
1904.416016	40464.550781
1903.429688	40578.164063
1902.443359	40425.726563
1901.457031	40315.203125
1900.469727	40470.632813
1899.482422	40527.539063
1898.495117	40793.632813
1897.507813	40560.074219
1896.520508	40496.367188
1895.532227	41205.121094
1894.543945	40701.058594
1893.556641	41227.546875
1892.568359	40903.140625
1891.579102	41200.785156
1890.590820	41245.167969
1889.601563	40970.070313
1888.613281	41105.382813
1887.624023	40938.492188
1886.634766	41297.265625
1885.644531	41488.925781
1884.655273	41110.898438
1883.665039	41322.160156
1882.674805	41096.460938
1881.684570	41410.714844
1880.694336	41469.687500
1879.704102	40996.312500
1878.712891	41219.664063
1877.722656	41531.214844
1876.731445	41675.933594
1875.740234	41305.808594
1874.748047	41791.191406
1873.756836	41497.140625
1872.764648	41739.757813
1871.773438	41965.144531
1870.781250	41798.570313
1869.788086	41935.703125
1868.795898	41903.851563
1867.803711	41825.496094
1866.810547	42026.183594
1865.817383	42053.058594
1864.824219	41654.203125
1863.831055	41394.921875
1862.837891	41901.261719
1861.843750	41739.835938
1860.849609	41893.863281
1859.855469	42035.613281
1858.861328	42177.312500
1857.867188	41969.515625
1856.872070	42037.878906
1855.877930	41944.988281
1854.882813	42098.808594
1853.887695	42106.054688
1852.892578	42293.968750
1851.896484	42208.417969
1850.901367	42769.660156
1849.905273	42283.859375
1848.909180	41881.175781
1847.913086	42144.574219
1846.916992	42239.597656
1845.919922	42383.351563
1844.923828	42136.964844
1843.926758	42227.054688
1842.929688	42309.800781
1841.932617	41861.300781
1840.935547	42360.695313
1839.937500	42752.730469
1838.939453	42455.382813
1837.942383	42818.039063
1836.943359	42418.527344
1835.945313	42613.097656
1834.947266	42741.890625
1833.948242	42890.097656
1832.949219	43082.046875
1831.951172	42442.015625
1830.951172	42616.949219
1829.952148	42910.964844
1828.953125	43063.867188
1827.953125	42647.914063
1826.953125	42504.304688
1825.953125	42545.417969
1824.953125	43125.863281
1823.952148	43064.828125
1822.952148	43015.957031
1821.951172	43309.476563
1820.950195	43034.789063
1819.949219	43143.722656
1818.948242	43155.535156
1817.946289	43507.054688
1816.945313	43239.800781
1815.943359	43431.082031
1814.941406	43258.515625
1813.939453	43231.496094
1812.936523	43097.808594
1811.934570	43463.500000
1810.931641	43271.652344
1809.928711	43540.257813
1808.925781	43091.660156
1807.921875	43922.152344
1806.918945	43614.105469
1805.915039	43524.093750
1804.912109	43615.675781
1803.908203	44082.406250
1802.903320	44086.734375
1801.899414	44180.585938
1800.894531	43626.050781
1799.890625	44044.066406
1798.885742	44145.125000
1797.880859	44103.488281
1796.875000	44231.093750
1795.870117	44223.289063
1794.864258	44174.406250
1793.858398	44210.105469
1792.852539	44393.156250
1791.846680	44663.097656
1790.840820	43947.628906
1789.833984	44565.242188
1788.828125	44849.488281
1787.821289	44761.921875
1786.814453	44860.207031
1785.806641	44772.667969
1784.799805	44832.312500
1783.791992	44604.910156
1782.784180	44695.910156
1781.776367	45109.968750
1780.768555	44935.667969
1779.760742	44845.785156
1778.751953	44842.687500
1777.743164	44803.449219
1776.735352	45115.937500
1775.725586	44753.910156
1774.716797	44871.230469
1773.708008	45043.886719
1772.698242	45097.921875
1771.688477	45151.953125
1770.678711	45205.988281
1769.668945	45260.019531
1768.659180	45314.054688
1767.648438	45368.140625
1766.637695	45422.226563
1765.626953	45476.312500
1764.616211	45530.398438
1763.605469	45584.484375
1762.593750	45182.328125
1761.583008	45794.226563
1760.571289	45930.265625
1759.559570	45924.550781
1758.547852	45786.761719
1757.535156	45800.277344
1756.523438	45953.019531
1755.510742	46252.109375
1754.498047	45850.386719
1753.485352	46317.332031
1752.472656	46071.660156
1751.458984	46557.585938
1750.445313	46230.425781
1749.432617	46617.843750
1748.417969	46022.308594
1747.404297	46613.343750
1746.390625	46516.437500
1745.375977	46472.277344
1744.361328	46293.980469
1743.346680	46858.199219
1742.332031	47058.238281
1741.317383	46899.085938
1740.302734	46967.386719
1739.287109	46892.066406
1738.271484	47199.632813
1737.255859	47746.332031
1736.240234	47941.207031
1735.223633	48597.593750
1734.208008	48500.519531
1733.191406	48740.578125
1732.174805	48724.781250
1731.158203	49583.699219
1730.140625	49818.652344
1729.124023	49358.300781
1728.106445	49939.562500
1727.088867	50016.699219
1726.071289	50399.445313
1725.053711	50910.972656
1724.035156	50737.257813
1723.017578	51298.660156
1721.999023	51253.785156
1720.980469	51199.382813
1719.961914	51352.511719
1718.942383	51868.085938
1717.923828	51525.082031
1716.904297	52119.109375
1715.884766	52119.414063
1714.865234	51631.167969
1713.844727	52198.644531
1712.825195	52201.308594
1711.804688	52170.625000
1710.784180	52025.636719
1709.763672	51737.835938
1708.743164	51685.820313
1707.722656	51674.281250
1706.701172	51260.562500
1705.679688	52008.113281
1704.658203	51366.101563
1703.636719	51299.914063
1702.615234	51171.914063
1701.592773	51115.292969
1700.571289	51153.777344
1699.548828	51004.476563
1698.526367	50895.625000
1697.502930	50986.394531
1696.480469	50663.777344
1695.457031	50970.691406
1694.433594	50724.179688
1693.410156	50570.355469
1692.386719	50805.898438
1691.363281	50851.476563
1690.338867	50370.222656
1689.314453	50726.671875
1688.290039	50395.054688
1687.265625	50580.605469
1686.241211	50979.503906
1685.215820	50766.562500
1684.191406	50662.734375
1683.166016	51018.742188
1682.140625	50945.707031
1681.115234	51429.472656
1680.088867	50830.507813
1679.062500	51044.121094
1678.037109	51117.941406
1677.010742	51134.914063
1675.983398	50960.136719
1674.957031	51850.453125
1673.930664	51093.492188
1672.903320	51574.164063
1671.875977	51541.355469
1670.848633	51489.632813
1669.820313	51823.363281
1668.792969	51875.632813
1667.764648	51953.882813
1666.736328	52041.554688
1665.708008	52008.683594
1664.679688	52096.312500
1663.651367	51763.449219
1662.622070	51950.277344
1661.592773	52500.675781
1660.563477	52363.863281
1659.534180	52751.117188
1658.504883	52777.144531
1657.474609	53034.406250
1656.444336	52864.558594
1655.415039	52675.902344
1654.383789	52914.167969
1653.353516	52751.500000
1652.323242	53256.062500
1651.291992	53383.308594
1650.260742	53581.210938
1649.229492	53465.656250
1648.198242	53578.656250
1647.166016	53915.378906
1646.134766	53616.132813
1645.102539	53882.085938
1644.070313	54465.753906
1643.038086	54013.566406
1642.004883	54757.027344
1640.972656	54902.582031
1639.939453	54935.164063
1638.906250	54988.902344
1637.873047	55277.781250
1636.839844	55935.699219
1635.805664	55274.578125
1634.772461	55335.257813
1633.738281	55844.761719
1632.704102	55949.957031
1631.668945	56290.023438
1630.634766	56404.492188
1629.599609	57242.195313
1628.565430	56800.000000
1627.530273	56818.062500
1626.494141	57392.371094
1625.458984	57971.160156
1624.422852	58233.003906
1623.387695	58342.277344
1622.351563	59680.488281
1621.315430	60464.808594
1620.278320	60634.574219
1619.242188	61352.804688
1618.205078	63019.976563
1617.167969	64447.539063
1616.130859	66497.796875
1615.093750	67750.882813
1614.055664	70375.960938
1613.018555	71281.343750
1611.980469	72724.882813
1610.942383	72342.085938
1609.904297	72528.007813
1608.865234	72714.101563
1607.827148	72900.023438
1606.788086	70788.843750
1605.749023	69567.125000
1604.709961	67899.226563
1603.669922	66332.445313
1602.630859	65102.812500
1601.590820	64002.152344
1600.550781	62943.941406
1599.510742	62348.675781
1598.470703	61538.726563
1597.429688	61226.496094
1596.389648	60202.214844
1595.348633	59759.593750
1594.307617	59335.800781
1593.265625	59409.238281
1592.224609	59354.316406
1591.182617	58879.496094
1590.140625	58582.105469
1589.098633	58660.277344
1588.056641	58171.835938
1587.014648	58494.828125
1585.971680	58241.996094
1584.928711	58080.132813
1583.886719	58237.535156
1582.842773	57810.160156
1581.799805	58090.992188
1580.755859	57738.308594
1579.712891	58482.378906
1578.668945	58295.027344
1577.625000	58391.695313
1576.580078	58330.082031
1575.536133	58871.089844
1574.491211	58609.355469
1573.446289	58445.394531
1572.401367	59772.070313
1571.356445	59115.058594
1570.311523	59030.121094
1569.265625	59907.414063
1568.219727	59429.652344
1567.173828	59163.476563
1566.127930	59447.925781
1565.082031	59165.582031
1564.035156	58936.746094
1562.988281	58884.433594
1561.941406	58576.800781
1560.894531	58821.636719
1559.847656	58555.886719
1558.799805	58392.308594
1557.751953	58347.089844
1556.704102	58712.375000
1555.656250	58966.230469
1554.608398	58735.457031
1553.560547	58500.125000
1552.511719	58100.332031
1551.462891	58483.863281
1550.414063	58549.867188
1549.365234	59262.085938
1548.315430	58586.843750
1547.265625	58685.203125
1546.216797	58700.183594
1545.166992	59353.992188
1544.116211	58556.554688
1543.066406	58520.636719
1542.015625	58868.753906
1540.965820	58936.871094
1539.915039	58697.394531
1538.863281	58252.218750
1537.812500	58556.203125
1536.760742	58793.046875
1535.709961	58153.968750
1534.658203	58132.019531
1533.605469	57791.285156
1532.553711	57332.875000
1531.501953	57530.457031
1530.449219	57423.199219
1529.396484	57461.406250
1528.343750	57508.828125
1527.290039	56880.105469
1526.237305	56440.792969
1525.183594	56213.863281
1524.129883	56418.296875
1523.076172	56276.765625
1522.022461	56358.917969
1520.968750	56247.410156
1519.914063	56331.839844
1518.859375	56160.460938
1517.804688	56053.648438
1516.750000	56308.515625
1515.694336	55586.792969
1514.639648	56009.742188
1513.583984	55274.511719
1512.528320	55540.835938
1511.472656	55560.812500
1510.416016	55548.566406
1509.360352	55600.738281
1508.303711	55664.390625
1507.247070	55341.656250
1506.190430	55393.828125
1505.132813	55862.089844
1504.076172	55562.472656
1503.018555	55731.777344
1501.960938	55409.304688
1500.903320	55165.058594
1499.844727	55596.179688
1498.787109	55324.421875
1497.728516	55135.417969
1496.669922	55219.664063
1495.611328	55000.906250
1494.552734	55053.011719
1493.493164	54586.558594
1492.434570	55198.453125
1491.375000	54745.898438
1490.315430	54548.046875
1489.254883	54808.820313
1488.195313	54986.968750
1487.134766	54351.410156
1486.074219	54557.074219
1485.013672	54808.484375
1483.953125	54530.644531
1482.892578	54074.257813
1481.831055	54630.171875
1480.769531	53922.082031
1479.708008	54287.820313
1478.646484	54500.089844
1477.583984	54515.488281
1476.522461	54357.000000
1475.459961	54411.300781
1474.397461	53671.980469
1473.334961	53885.656250
1472.271484	54099.523438
1471.208984	54313.199219
1470.145508	54527.070313
1469.082031	54467.015625
1468.018555	54804.500000
1466.954102	54639.343750
1465.890625	54823.660156
1464.826172	54578.636719
1463.761719	55082.503906
1462.697266	55202.722656
1461.631836	55049.042969
1460.567383	54968.429688
1459.501953	55560.824219
1458.436523	55268.019531
1457.371094	54797.445313
1456.305664	55211.699219
1455.239258	54682.027344
1454.172852	54916.089844
1453.107422	55327.812500
1452.040039	55582.175781
1450.973633	55050.527344
1449.907227	55172.746094
1448.839844	55322.238281
1447.772461	55544.535156
1446.705078	56021.707031
1445.637695	55840.945313
1444.569336	55883.253906
1443.500977	55500.089844
1442.432617	55992.835938
1441.364258	56569.558594
1440.295898	56161.457031
1439.227539	55933.105469
1438.158203	55891.234375
1437.088867	56569.816406
1436.019531	56564.195313
1434.950195	56672.167969
1433.879883	56793.730469
1432.810547	56638.171875
1431.740234	56893.660156
1430.669922	56944.730469
1429.598633	56934.492188
1428.528320	57117.160156
1427.457031	56816.453125
1426.386719	57298.531250
1425.314453	57172.546875
1424.243164	56604.386719
1423.171875	56823.214844
1422.099609	56595.367188
1421.027344	56433.328125
1419.955078	56133.105469
1418.882813	55916.824219
1417.810547	56015.503906
1416.737305	56100.554688
1415.664063	56314.652344
1414.590820	55783.769531
1413.517578	56061.226563
1412.444336	55591.687500
1411.370117	55368.968750
1410.295898	55641.820313
1409.221680	55663.476563
1408.147461	55413.718750
1407.073242	55643.441406
1405.998047	56017.777344
1404.922852	55725.132813
1403.847656	56103.832031
1402.772461	55856.468750
1401.697266	55792.191406
1400.621094	55904.125000
1399.544922	56205.722656
1398.468750	56462.050781
1397.392578	56000.359375
1396.316406	56333.371094
1395.239258	57257.546875
1394.162109	57084.773438
1393.084961	57230.156250
1392.007813	57321.347656
1390.930664	57795.886719
1389.852539	58035.757813
1388.774414	58361.203125
1387.696289	58467.894531
1386.618164	58725.535156
1385.540039	58960.546875
1384.460938	59576.187500
1383.382813	60268.183594
1382.303711	59897.011719
1381.223633	60383.804688
1380.144531	60264.867188
1379.064453	60650.132813
1377.985352	60778.718750
1376.905273	60594.519531
1375.825195	60252.917969
1374.744141	60397.246094
1373.664063	60134.503906
1372.583008	60164.128906
1371.501953	59382.257813
1370.420898	59315.363281
1369.338867	59390.054688
1368.257813	59177.144531
1367.175781	59074.375000
1366.093750	58906.511719
1365.011719	58500.687500
1363.929688	58539.523438
1362.846680	58686.089844
1361.763672	58363.550781
1360.680664	57904.257813
1359.597656	58142.828125
1358.514648	57517.750000
1357.430664	58047.843750
1356.346680	57600.136719
1355.262695	57329.691406
1354.178711	57335.035156
1353.094727	57255.214844
1352.009766	57395.000000
1350.925781	56389.996094
1349.840820	57004.718750
1348.755859	56938.441406
1347.669922	56406.480469
1346.584961	56788.046875
1345.499023	56370.449219
1344.413086	56575.093750
1343.327148	56896.007813
1342.240234	56641.902344
1341.154297	56115.031250
1340.067383	56165.273438
1338.980469	56461.425781
1337.893555	56661.347656
1336.805664	56235.414063
1335.718750	55903.484375
1334.630859	56530.109375
1333.542969	56457.351563
1332.455078	56418.117188
1331.367188	56555.296875
1330.278320	56252.617188
1329.189453	56485.750000
1328.100586	56515.714844
1327.011719	56420.710938
1325.922852	56414.972656
1324.833008	56690.281250
1323.743164	56628.738281
1322.653320	56912.820313
1321.563477	57002.851563
1320.473633	57135.191406
1319.382813	57385.593750
1318.291992	57725.027344
1317.201172	57921.761719
1316.110352	57684.105469
1315.019531	58261.566406
1313.927734	58117.441406
1312.835938	58053.503906
1311.744141	58619.449219
1310.652344	59091.726563
1309.560547	58311.238281
1308.467773	58374.097656
1307.375000	58728.281250
1306.282227	58330.738281
1305.189453	58015.601563
1304.095703	58116.242188
1303.002930	57847.925781
1301.909180	58672.941406
1300.815430	58182.449219
1299.721680	58618.386719
1298.626953	58452.320313
1297.533203	58754.820313
1296.438477	58371.218750
1295.343750	58809.015625
1294.248047	58829.437500
1293.153320	59040.667969
1292.057617	58861.378906
1290.961914	59309.847656
1289.866211	59061.824219
1288.770508	59707.425781
1287.674805	59399.558594
1286.578125	59599.359375
1285.481445	59850.054688
1284.384766	59987.656250
1283.288086	59372.039063
1282.190430	59396.718750
1281.092773	59523.253906
1279.996094	59279.996094
1278.897461	58735.777344
1277.799805	58384.300781
1276.702148	58506.488281
1275.603516	58296.769531
1274.504883	58186.664063
1273.406250	57977.074219
1272.307617	58165.574219
1271.208008	58124.082031
1270.108398	57532.210938
1269.008789	57075.359375
1267.909180	56788.812500
1266.809570	56776.308594
1265.708984	56880.871094
1264.609375	55819.363281
1263.508789	56228.757813
1262.407227	56121.425781
1261.306641	55958.953125
1260.206055	55538.339844
1259.104492	55336.312500
1258.002930	55524.812500
1256.901367	55239.042969
1255.798828	55120.964844
1254.697266	54738.355469
1253.594727	54496.964844
1252.492188	54784.613281
1251.389648	54499.226563
1250.286133	54260.203125
1249.183594	54237.140625
1248.080078	53929.972656
1246.976563	54129.375000
1245.872070	54033.687500
1244.768555	54259.406250
1243.664063	54121.914063
1242.560547	53680.808594
1241.455078	53664.464844
1240.350586	53584.332031
1239.246094	54021.042969
1238.140625	53560.480469
1237.035156	53236.382813
1235.929688	53257.488281
1234.824219	53078.597656
1233.717773	53253.523438
1232.612305	53068.105469
1231.505859	52808.078125
1230.399414	52890.718750
1229.291992	52637.398438
1228.185547	52698.082031
1227.078125	52949.687500
1225.970703	52926.902344
1224.863281	52496.035156
1223.755859	52181.582031
1222.647461	52705.050781
1221.539063	52765.640625
1220.430664	52205.757813
1219.322266	52209.417969
1218.213867	52075.007813
1217.104492	52201.398438
1215.995117	52297.066406
1214.885742	52489.078125
1213.776367	51942.980469
1212.666992	52399.925781
1211.556641	52051.066406
1210.446289	51982.503906
1209.335938	51955.542969
1208.225586	52184.589844
1207.115234	52367.609375
1206.003906	52047.496094
1204.892578	52685.335938
1203.781250	52275.632813
1202.669922	52696.773438
1201.557617	52357.152344
1200.446289	52946.386719
1199.333984	52604.656250
1198.221680	52575.421875
1197.108398	53371.773438
1195.996094	53268.160156
1194.882813	53367.628906
1193.769531	52932.257813
1192.656250	53717.042969
1191.542969	53707.265625
1190.428711	53627.675781
1189.314453	53434.683594
1188.200195	53455.488281
1187.085938	53432.671875
1185.971680	53455.644531
1184.856445	52918.429688
1183.741211	53109.285156
1182.625977	52990.671875
1181.510742	53000.625000
1180.395508	53226.207031
1179.279297	53236.113281
1178.163086	53483.335938
1177.046875	53538.902344
1175.930664	53289.730469
1174.813477	53273.496094
1173.697266	53239.855469
1172.580078	52895.156250
1171.462891	53316.152344
1170.344727	52799.773438
