#Wave		#Intensity
2001.221680	40277.179688
2000.251953	39740.785156
1999.282227	39974.433594
1998.312500	40167.906250
1997.342773	40331.246094
1996.372070	40291.644531
1995.402344	40329.687500
1994.431641	40079.765625
1993.460938	40145.371094
1992.490234	39933.113281
1991.518555	40319.042969
1990.547852	40024.253906
1989.576172	40072.304688
1988.604492	39982.761719
1987.632813	40430.929688
1986.661133	40038.808594
1985.689453	39961.816406
1984.716797	40102.304688
1983.745117	40307.722656
1982.772461	40325.667969
1981.799805	40226.187500
1980.827148	39911.933594
1979.853516	40124.722656
1978.880859	40210.097656
1977.907227	40570.050781
1976.933594	40173.582031
1975.959961	40241.429688
1974.986328	40431.511719
1974.011719	40786.179688
1973.038086	40220.332031
1972.063477	40829.281250
1971.088867	40734.875000
1970.114258	40695.343750
1969.138672	40867.691406
1968.164063	40631.273438
1967.188477	40811.042969
1966.212891	40395.347656
1965.237305	40841.609375
1964.261719	40981.398438
1963.286133	40921.941406
1962.309570	41405.214844
1961.333984	41042.039063
1960.357422	40865.632813
1959.380859	41104.816406
1958.404297	40995.628906
1957.426758	41316.781250
1956.450195	41115.578125
1955.472656	41170.546875
1954.495117	41111.136719
1953.517578	41233.191406
1952.540039	41265.742188
1951.561523	41313.183594
1950.583008	41097.273438
1949.605469	41338.464844
1948.626953	41159.878906
1947.647461	41031.007813
1946.668945	40805.363281
1945.690430	41485.761719
1944.710938	41054.136719
1943.731445	41267.777344
1942.751953	41349.863281
1941.772461	41022.656250
1940.791992	41057.632813
1939.812500	41008.292969
1938.832031	40872.203125
1937.851563	40998.890625
1936.871094	41544.347656
1935.890625	41140.632813
1934.909180	40910.468750
1933.928711	41250.066406
1932.947266	41433.527344
1931.965820	41532.738281
1930.984375	41203.636719
1930.002930	41238.500000
1929.020508	41609.906250
1928.038086	41666.945313
1927.056641	41320.730469
1926.074219	42117.351563
1925.090820	41593.117188
1924.108398	41437.476563
1923.125000	41284.359375
1922.142578	41576.199219
1921.159180	41304.488281
1920.175781	41546.800781
1919.191406	41606.218750
1918.208008	41487.777344
1917.223633	41934.898438
1916.240234	41278.175781
1915.255859	41206.753906
1914.271484	41591.976563
1913.286133	41646.382813
1912.301758	41387.410156
1911.316406	41799.527344
1910.331055	41599.812500
1909.345703	41639.371094
1908.360352	41459.476563
1907.375000	41757.890625
1906.388672	41905.843750
1905.402344	42004.460938
1904.416016	41888.683594
1903.429688	42041.460938
1902.443359	42036.546875
1901.457031	41760.750000
1900.469727	41546.601563
1899.482422	41746.097656
1898.495117	41608.324219
1897.507813	42071.050781
1896.520508	41829.925781
1895.532227	41795.523438
1894.543945	42321.917969
1893.556641	42048.902344
1892.568359	42029.230469
1891.579102	41930.894531
1890.590820	42267.632813
1889.601563	41987.441406
1888.613281	42220.855469
1887.624023	42338.726563
1886.634766	42176.558594
1885.644531	42223.179688
1884.655273	42463.746094
1883.665039	42625.671875
1882.674805	42593.644531
1881.684570	42367.761719
1880.694336	42897.644531
1879.704102	42406.851563
1878.712891	42629.953125
1877.722656	42230.105469
1876.731445	42614.976563
1875.740234	42305.972656
1874.748047	42389.226563
1873.756836	42614.578125
1872.764648	42609.542969
1871.773438	42352.191406
1870.781250	42719.480469
1869.788086	42538.109375
1868.795898	42858.714844
1867.803711	42601.496094
1866.810547	42662.539063
1865.817383	43056.359375
1864.824219	43087.937500
1863.831055	42493.273438
1862.837891	43119.261719
1861.843750	42986.968750
1860.849609	42703.136719
1859.855469	43336.085938
1858.861328	43225.816406
1857.867188	42729.488281
1856.872070	43344.996094
1855.877930	43268.976563
1854.882813	42958.515625
1853.887695	42977.820313
1852.892578	43314.511719
1851.896484	43472.886719
1850.901367	42962.468750
1849.905273	43489.320313
1848.909180	43115.703125
1847.913086	43293.507813
1846.916992	43195.652344
1845.919922	43348.992188
1844.923828	43738.769531
1843.926758	43889.519531
1842.929688	43572.273438
1841.932617	43411.089844
1840.935547	43651.957031
1839.937500	43956.070313
1838.939453	44057.933594
1837.942383	43945.468750
1836.943359	43830.613281
1835.945313	43968.949219
1834.947266	43924.703125
1833.948242	43914.535156
1832.949219	44201.187500
1831.951172	43877.183594
1830.951172	44253.722656
1829.952148	43903.070313
1828.953125	43982.863281
1827.953125	44293.550781
1826.953125	44621.136719
1825.953125	43945.050781
1824.953125	44104.945313
1823.952148	44223.488281
1822.952148	44604.281250
1821.951172	44251.621094
1820.950195	44508.453125
1819.949219	44483.621094
1818.948242	44276.773438
1817.946289	44157.355469
1816.945313	44595.972656
1815.943359	44224.269531
1814.941406	44616.636719
1813.939453	44659.691406
1812.936523	44457.875000
1811.934570	44542.148438
1810.931641	44863.894531
1809.928711	44618.527344
1808.925781	44785.089844
1807.921875	44987.929688
1806.918945	45074.449219
1805.915039	45332.855469
1804.912109	44784.992188
1803.908203	45212.789063
1802.903320	44921.667969
1801.899414	45390.417969
1800.894531	45588.050781
1799.890625	45328.453125
1798.885742	45390.593750
1797.880859	45242.347656
1796.875000	45536.558594
1795.870117	45402.835938
1794.864258	45510.828125
1793.858398	45495.550781
1792.852539	46272.667969
1791.846680	46184.796875
1790.840820	45737.125000
1789.833984	45736.296875
1788.828125	46075.859375
1787.821289	45720.156250
1786.814453	45649.343750
1785.806641	46119.031250
1784.799805	46494.464844
1783.791992	46348.777344
1782.784180	46034.328125
1781.776367	45963.511719
1780.768555	46476.113281
1779.760742	46699.296875
1778.751953	46558.507813
1777.743164	46461.140625
1776.735352	46715.519531
1775.725586	46297.812500
1774.716797	46501.554688
1773.708008	46498.160156
1772.698242	46323.843750
1771.688477	46618.929688
1770.678711	46844.121094
1769.668945	47261.714844
1768.659180	46921.394531
1767.648438	46886.648438
1766.637695	46972.152344
1765.626953	46874.894531
1764.616211	47457.972656
1763.605469	46726.140625
1762.593750	47032.687500
1761.583008	46973.921875
1760.571289	47145.785156
1759.559570	47022.167969
1758.547852	47575.777344
1757.535156	48114.781250
1756.523438	47520.554688
1755.510742	48068.976563
1754.498047	47196.597656
1753.485352	48147.953125
1752.472656	47676.468750
1751.458984	48102.148438
1750.445313	48311.859375
1749.432617	48097.128906
1748.417969	48155.746094
1747.404297	48209.542969
1746.390625	48414.289063
1745.375977	48789.062500
1744.361328	48593.589844
1743.346680	48704.746094
1742.332031	48981.085938
1741.317383	49017.910156
1740.302734	49552.617188
1739.287109	49685.054688
1738.271484	50071.093750
1737.255859	50390.000000
1736.240234	50192.113281
1735.223633	50498.925781
1734.208008	50415.863281
1733.191406	51353.687500
1732.174805	52071.265625
1731.158203	52112.238281
1730.140625	52002.656250
1729.124023	52497.546875
1728.106445	52633.960938
1727.088867	53154.832031
1726.071289	53730.437500
1725.053711	53694.664063
1724.035156	53864.179688
1723.017578	53830.777344
1721.999023	54303.242188
1720.980469	55023.648438
1719.961914	54613.179688
1718.942383	54772.832031
1717.923828	55044.496094
1716.904297	55208.781250
1715.884766	55320.562500
1714.865234	55611.042969
1713.844727	55310.500000
1712.825195	55381.699219
1711.804688	55095.589844
1710.784180	55433.523438
1709.763672	55464.179688
1708.743164	54985.371094
1707.722656	54958.964844
1706.701172	54834.996094
1705.679688	54799.109375
1704.658203	54901.207031
1703.636719	54929.531250
1702.615234	54572.593750
1701.592773	54836.355469
1700.571289	54719.660156
1699.548828	55073.613281
1698.526367	54450.738281
1697.502930	54020.535156
1696.480469	54407.675781
1695.457031	54478.785156
1694.433594	53816.078125
1693.410156	53766.171875
1692.386719	54186.308594
1691.363281	53872.898438
1690.338867	54124.378906
1689.314453	54297.468750
1688.290039	54494.222656
1687.265625	54081.351563
1686.241211	54026.703125
1685.215820	54292.148438
1684.191406	54239.847656
1683.166016	54128.312500
1682.140625	54353.304688
1681.115234	54201.507813
1680.088867	54487.992188
1679.062500	54255.691406
1678.037109	54911.472656
1677.010742	54960.917969
1675.983398	55161.839844
1674.957031	54950.875000
1673.930664	54718.687500
1672.903320	55248.398438
1671.875977	55070.644531
1670.848633	55058.503906
1669.820313	55817.234375
1668.792969	55670.199219
1667.764648	55445.210938
1666.736328	55522.808594
1665.708008	55453.875000
1664.679688	55758.246094
1663.651367	56053.058594
1662.622070	56007.675781
1661.592773	55924.531250
1660.563477	56436.347656
1659.534180	56475.890625
1658.504883	56392.699219
1657.474609	57203.820313
1656.444336	56908.199219
1655.415039	56992.437500
1654.383789	56996.460938
1653.353516	57165.535156
1652.323242	57101.156250
1651.291992	57347.929688
1650.260742	57453.214844
1649.229492	57000.031250
1648.198242	57562.367188
1647.166016	57952.554688
1646.134766	58629.910156
1645.102539	58546.496094
1644.070313	57862.800781
1643.038086	57916.066406
1642.004883	58251.707031
1640.972656	58949.570313
1639.939453	59153.167969
1638.906250	59561.316406
1637.873047	59814.109375
1636.839844	59723.527344
1635.805664	60114.894531
1634.772461	60219.371094
1633.738281	60577.605469
1632.704102	60698.406250
1631.668945	61213.816406
1630.634766	61595.164063
1629.599609	61934.101563
1628.565430	61937.171875
1627.530273	62092.820313
1626.494141	63163.761719
1625.458984	62931.937500
1624.422852	63188.207031
1623.387695	64026.140625
1622.351563	64540.109375
1621.315430	65018.718750
1620.278320	65928.554688
1619.242188	67562.390625
1618.205078	68091.765625
1617.167969	69879.289063
1616.130859	71912.179688
1615.093750	73747.570313
1614.055664	75409.000000
1613.018555	77172.867188
1611.980469	78755.828125
1610.942383	79547.031250
1609.904297	79855.835938
1608.865234	79186.429688
1607.827148	78278.625000
1606.788086	77256.515625
1605.749023	75453.648438
1604.709961	74102.703125
1603.669922	72202.843750
1602.630859	71042.289063
1601.590820	70419.664063
1600.550781	69498.171875
1599.510742	68588.679688
1598.470703	67997.187500
1597.429688	67113.976563
1596.389648	67407.890625
1595.348633	66679.171875
1594.307617	66212.132813
1593.265625	66632.070313
1592.224609	67051.851563
1591.182617	66689.968750
1590.140625	66248.906250
1589.098633	66864.414063
1588.056641	66024.765625
1587.014648	66761.312500
1585.971680	67257.523438
1584.928711	67136.000000
1583.886719	66779.195313
1582.842773	66972.289063
1581.799805	67770.882813
1580.755859	67395.515625
1579.712891	67951.601563
1578.668945	67541.406250
1577.625000	68090.281250
1576.580078	68515.625000
1575.536133	68752.351563
1574.491211	68872.679688
1573.446289	69453.476563
1572.401367	70108.468750
1571.356445	70028.531250
1570.311523	70122.968750
1569.265625	69977.976563
1568.219727	70109.562500
1567.173828	70787.078125
1566.127930	70419.031250
1565.082031	69849.062500
1564.035156	70377.640625
1562.988281	69524.632813
1561.941406	68897.085938
1560.894531	69889.710938
1559.847656	68703.101563
1558.799805	69187.312500
1557.751953	68806.140625
1556.704102	68824.007813
1555.656250	68834.898438
1554.608398	68159.554688
1553.560547	68592.429688
1552.511719	67687.929688
1551.462891	68535.484375
1550.414063	67793.484375
1549.365234	68145.031250
1548.315430	68209.281250
1547.265625	67261.648438
1546.216797	67985.812500
1545.166992	67973.664063
1544.116211	67790.265625
1543.066406	67639.320313
1542.015625	67268.664063
1540.965820	67282.078125
1539.915039	67420.375000
1538.863281	67489.242188
1537.812500	67486.429688
1536.760742	66854.929688
1535.709961	67785.828125
1534.658203	66828.718750
1533.605469	67343.468750
1532.553711	66800.203125
1531.501953	66836.750000
1530.449219	66106.750000
1529.396484	65986.429688
1528.343750	65826.914063
1527.290039	65452.851563
1526.237305	65235.804688
1525.183594	64462.898438
1524.129883	64481.351563
1523.076172	64126.226563
1522.022461	63821.953125
1520.968750	63059.062500
1519.914063	63414.230469
1518.859375	63412.097656
1517.804688	63354.675781
1516.750000	63025.457031
1515.694336	62926.660156
1514.639648	62721.976563
1513.583984	62544.988281
1512.528320	62418.703125
1511.472656	61677.980469
1510.416016	61943.058594
1509.360352	61842.246094
1508.303711	61787.472656
1507.247070	61785.609375
1506.190430	61733.160156
1505.132813	61609.457031
1504.076172	61773.113281
1503.018555	61886.148438
1501.960938	61553.386719
1500.903320	61705.468750
1499.844727	61099.523438
1498.787109	61352.675781
1497.728516	61075.339844
1496.669922	60901.410156
1495.611328	60729.832031
1494.552734	61044.816406
1493.493164	60666.773438
1492.434570	60690.312500
1491.375000	60112.917969
1490.315430	59744.410156
1489.254883	60146.402344
1488.195313	60275.457031
1487.134766	60379.253906
1486.074219	60237.812500
1485.013672	60220.140625
1483.953125	59888.644531
1482.892578	60310.777344
1481.831055	60132.800781
1480.769531	60238.785156
1479.708008	60031.125000
1478.646484	59912.792969
1477.583984	59515.332031
1476.522461	60097.214844
1475.459961	59903.441406
1474.397461	60002.476563
1473.334961	59689.878906
1472.271484	59907.792969
1471.208984	60121.054688
1470.145508	59637.195313
1469.082031	60332.554688
1468.018555	59782.574219
1466.954102	59936.304688
1465.890625	59758.839844
1464.826172	60357.765625
1463.761719	59977.101563
1462.697266	60306.433594
1461.631836	60297.894531
1460.567383	60401.156250
1459.501953	60561.410156
1458.436523	60498.082031
1457.371094	60724.390625
1456.305664	60909.574219
1455.239258	60543.011719
1454.172852	60431.855469
1453.107422	60776.503906
1452.040039	60546.863281
1450.973633	60756.957031
1449.907227	60718.714844
1448.839844	60432.273438
1447.772461	60485.167969
1446.705078	60579.019531
1445.637695	60661.453125
1444.569336	60270.535156
1443.500977	60630.558594
1442.432617	60933.582031
1441.364258	61334.289063
1440.295898	60932.156250
1439.227539	60950.761719
1438.158203	61605.832031
1437.088867	61228.855469
1436.019531	61960.894531
1434.950195	61388.601563
1433.879883	61811.421875
1432.810547	62072.839844
1431.740234	62070.765625
1430.669922	62070.957031
1429.598633	61787.417969
1428.528320	62048.644531
1427.457031	62064.714844
1426.386719	61819.890625
1425.314453	61924.453125
1424.243164	61645.714844
1423.171875	61918.054688
1422.099609	61278.964844
1421.027344	61009.554688
1419.955078	61265.988281
1418.882813	61220.984375
1417.810547	61508.996094
1416.737305	60621.398438
1415.664063	60943.378906
1414.590820	60642.605469
1413.517578	60665.652344
1412.444336	59916.894531
1411.370117	60723.023438
1410.295898	60834.273438
1409.221680	61142.281250
1408.147461	61099.613281
1407.073242	60898.667969
1405.998047	61373.796875
1404.922852	61444.125000
1403.847656	61537.027344
1402.772461	61051.421875
1401.697266	61162.429688
1400.621094	61356.972656
1399.544922	61564.996094
1398.468750	61648.746094
1397.392578	62168.187500
1396.316406	62226.964844
1395.239258	62287.976563
1394.162109	62527.218750
1393.084961	62755.093750
1392.007813	62694.167969
1390.930664	63391.003906
1389.852539	63228.511719
1388.774414	64233.843750
1387.696289	63897.699219
1386.618164	64183.660156
1385.540039	64836.773438
1384.460938	65302.675781
1383.382813	65302.167969
1382.303711	65553.875000
1381.223633	66395.390625
1380.144531	65957.960938
1379.064453	66799.093750
1377.985352	66546.273438
1376.905273	67139.500000
1375.825195	67057.664063
1374.744141	66845.406250
1373.664063	66241.945313
1372.583008	66279.468750
1371.501953	65779.726563
1370.420898	65761.125000
1369.338867	65477.367188
1368.257813	65101.597656
1367.175781	64458.660156
1366.093750	64283.085938
1365.011719	64424.179688
1363.929688	64008.453125
1362.846680	63572.667969
1361.763672	63563.441406
1360.680664	63529.535156
1359.597656	62773.257813
1358.514648	63230.722656
1357.430664	62474.765625
1356.346680	62943.324219
1355.262695	62530.679688
1354.178711	62071.117188
1353.094727	62104.730469
1352.009766	62171.941406
1350.925781	62530.351563
1349.840820	62427.234375
1348.755859	61925.539063
1347.669922	61759.871094
1346.584961	61652.460938
1345.499023	61435.417969
1344.413086	62301.527344
1343.327148	61963.621094
1342.240234	61422.273438
1341.154297	61925.585938
1340.067383	62153.671875
1338.980469	61447.128906
1337.893555	61556.738281
1336.805664	61241.667969
1335.718750	61963.527344
1334.630859	62077.445313
1333.542969	62318.640625
1332.455078	62126.480469
1331.367188	61697.699219
1330.278320	61787.015625
1329.189453	62188.789063
1328.100586	62068.195313
1327.011719	62231.019531
1325.922852	62081.457031
1324.833008	62536.410156
1323.743164	61969.812500
1322.653320	62335.425781
1321.563477	62152.500000
1320.473633	62009.761719
1319.382813	62361.792969
1318.291992	62230.199219
1317.201172	62524.136719
1316.110352	62637.558594
1315.019531	62791.019531
1313.927734	62605.996094
1312.835938	62545.699219
1311.744141	62641.218750
1310.652344	62930.296875
1309.560547	63381.683594
1308.467773	63241.199219
1307.375000	63472.179688
1306.282227	63178.292969
1305.189453	63398.078125
1304.095703	63531.089844
1303.002930	63648.496094
1301.909180	63661.417969
1300.815430	63372.191406
1299.721680	63733.890625
1298.626953	63549.128906
1297.533203	63810.738281
1296.438477	64214.332031
1295.343750	64515.675781
1294.248047	63969.164063
1293.153320	64379.156250
1292.057617	64600.433594
1290.961914	65251.925781
1289.866211	65401.996094
1288.770508	65410.105469
1287.674805	65708.609375
1286.578125	65526.046875
1285.481445	65574.015625
1284.384766	65602.015625
1283.288086	65486.015625
1282.190430	65217.234375
1281.092773	64997.265625
1279.996094	65204.675781
1278.897461	64743.500000
1277.799805	64824.722656
1276.702148	64492.121094
1275.603516	64155.207031
1274.504883	64329.390625
1273.406250	64191.667969
1272.307617	64084.953125
1271.208008	63507.371094
1270.108398	63694.796875
1269.008789	63537.390625
1267.909180	63941.273438
1266.809570	63551.910156
1265.708984	63334.968750
1264.609375	62978.972656
1263.508789	63228.097656
1262.407227	62666.941406
1261.306641	62644.539063
1260.206055	62675.105469
1259.104492	62701.246094
1258.002930	62625.898438
1256.901367	62376.335938
1255.798828	62082.753906
1254.697266	61114.613281
1253.594727	61275.468750
1252.492188	61575.113281
1251.389648	60781.664063
1250.286133	60735.382813
1249.183594	61034.957031
1248.080078	60717.746094
1246.976563	60838.843750
1245.872070	60462.339844
1244.768555	60704.500000
1243.664063	60361.160156
1242.560547	60277.589844
1241.455078	60231.449219
1240.350586	60095.136719
1239.246094	60099.617188
1238.140625	59958.976563
1237.035156	59783.207031
1235.929688	59523.976563
1234.824219	59502.179688
1233.717773	59570.472656
1232.612305	59361.941406
1231.505859	59364.335938
1230.399414	59401.863281
1229.291992	59248.359375
1228.185547	58925.875000
1227.078125	59180.742188
1225.970703	59374.070313
1224.863281	58656.808594
1223.755859	58720.734375
1222.647461	58508.285156
1221.539063	58951.566406
1220.430664	59228.058594
1219.322266	58785.464844
1218.213867	59318.300781
1217.104492	58595.371094
1215.995117	58705.214844
1214.885742	58324.363281
1213.776367	58440.777344
1212.666992	58642.546875
1211.556641	58914.292969
1210.446289	58531.480469
1209.335938	58577.734375
1208.225586	58446.738281
1207.115234	58801.445313
1206.003906	58915.421875
1204.892578	59059.972656
1203.781250	59440.601563
1202.669922	58778.347656
1201.557617	59279.093750
1200.446289	58990.781250
1199.333984	59213.828125
1198.221680	59484.847656
1197.108398	60072.453125
1195.996094	59893.382813
1194.882813	59766.769531
1193.769531	59976.359375
1192.656250	60327.734375
1191.542969	60249.109375
1190.428711	60729.015625
1189.314453	60875.011719
1188.200195	60957.707031
1187.085938	61018.566406
1185.971680	60848.308594
1184.856445	61401.769531
1183.741211	60865.378906
1182.625977	61085.257813
1181.510742	61363.871094
1180.395508	61509.519531
1179.279297	61128.105469
1178.163086	61066.894531
1177.046875	61756.734375
1175.930664	61347.179688
1174.813477	61272.898438
1173.697266	61085.500000
1172.580078	61370.214844
1171.462891	60497.761719
1170.344727	61189.109375
