#Wave		#Intensity
2001.182617	33682.304688
2000.212891	33724.914063
1999.243164	33816.765625
1998.273438	33665.535156
1997.303711	33496.820313
1996.333008	33781.523438
1995.363281	33485.125000
1994.392578	33819.804688
1993.421875	33811.398438
1992.451172	33787.972656
1991.479492	33982.277344
1990.508789	33693.601563
1989.537109	33812.800781
1988.566406	33866.925781
1987.594727	33986.050781
1986.622070	33642.566406
1985.650391	33989.179688
1984.677734	33953.246094
1983.706055	34169.734375
1982.733398	34053.824219
1981.760742	33680.640625
1980.788086	33942.015625
1979.814453	34003.511719
1978.841797	34037.519531
1977.868164	33619.656250
1976.894531	33768.535156
1975.920898	33874.933594
1974.947266	33469.792969
1973.972656	34090.113281
1972.999023	34144.015625
1972.024414	33786.417969
1971.049805	33705.710938
1970.075195	34318.070313
1969.099609	33828.519531
1968.125000	33737.875000
1967.149414	34063.367188
1966.173828	33945.304688
1965.198242	33859.664063
1964.222656	33928.453125
1963.247070	33778.105469
1962.270508	34036.082031
1961.294922	34119.734375
1960.318359	33949.519531
1959.341797	34135.171875
1958.364258	34213.781250
1957.387695	34056.074219
1956.410156	34077.468750
1955.433594	33947.187500
1954.456055	33879.097656
1953.478516	33947.738281
1952.500000	34053.628906
1951.522461	33906.042969
1950.543945	34312.492188
1949.565430	34130.136719
1948.586914	34235.917969
1947.608398	34170.335938
1946.629883	34397.710938
1945.650391	34262.621094
1944.671875	34331.074219
1943.692383	34263.031250
1942.712891	34363.707031
1941.733398	34231.195313
1940.752930	34292.160156
1939.773438	34511.785156
1938.792969	34312.378906
1937.812500	33825.519531
1936.832031	34097.152344
1935.851563	34388.511719
1934.870117	34179.347656
1933.888672	34220.421875
1932.908203	34075.750000
1931.926758	34827.437500
1930.945313	34657.949219
1929.962891	34364.761719
1928.981445	34259.753906
1927.999023	34508.601563
1927.016602	34188.378906
1926.034180	34511.351563
1925.051758	34572.074219
1924.069336	34603.101563
1923.085938	34325.109375
1922.102539	34625.578125
1921.119141	34626.925781
1920.135742	34307.062500
1919.152344	34397.394531
1918.168945	34295.039063
1917.184570	34175.429688
1916.200195	34270.671875
1915.215820	34274.539063
1914.231445	34544.968750
1913.247070	34504.363281
1912.261719	34508.179688
1911.276367	34571.203125
1910.291992	34350.558594
1909.306641	34093.000000
1908.320313	34294.132813
1907.334961	34423.703125
1906.348633	34585.265625
1905.363281	34391.914063
1904.376953	34422.839844
1903.390625	34547.363281
1902.403320	34479.726563
1901.416992	34710.085938
1900.429688	34241.113281
1899.443359	34697.906250
1898.456055	34472.765625
1897.467773	34535.621094
1896.480469	34399.156250
1895.493164	34289.800781
1894.504883	34362.488281
1893.516602	34422.855469
1892.528320	34785.617188
1891.540039	34214.113281
1890.550781	34606.273438
1889.562500	34973.726563
1888.573242	34630.980469
1887.583984	34691.226563
1886.594727	34481.281250
1885.605469	34846.031250
1884.615234	34302.214844
1883.625000	34924.625000
1882.635742	34447.250000
1881.645508	34902.542969
1880.654297	34741.843750
1879.664063	34620.445313
1878.673828	34697.757813
1877.682617	34608.285156
1876.691406	34587.496094
1875.700195	34554.457031
1874.708984	34815.539063
1873.716797	34939.296875
1872.725586	34474.996094
1871.733398	34686.957031
1870.741211	34673.515625
1869.749023	35064.125000
1868.755859	34463.011719
1867.763672	34726.226563
1866.770508	34592.855469
1865.777344	34557.410156
1864.784180	34866.953125
1863.791016	34714.050781
1862.797852	34676.156250
1861.803711	34939.046875
1860.809570	35028.257813
1859.815430	35117.433594
1858.821289	34832.636719
1857.827148	34760.535156
1856.832031	34988.968750
1855.837891	35285.718750
1854.842773	35140.300781
1853.847656	35107.261719
1852.852539	34900.886719
1851.856445	35121.765625
1850.861328	35044.808594
1849.865234	34919.074219
1848.869141	35371.609375
1847.873047	35219.027344
1846.876953	35337.214844
1845.879883	35665.066406
1844.883789	35402.796875
1843.886719	35218.625000
1842.889648	35573.128906
1841.892578	35491.332031
1840.895508	35436.359375
1839.897461	35371.660156
1838.899414	35440.933594
1837.901367	35719.597656
1836.903320	35632.968750
1835.905273	35792.218750
1834.907227	35381.914063
1833.908203	35930.484375
1832.909180	35739.257813
1831.910156	35961.621094
1830.911133	35434.832031
1829.912109	35574.488281
1828.912109	36117.671875
1827.913086	35812.328125
1826.913086	35888.652344
1825.913086	35646.632813
1824.913086	35543.175781
1823.912109	36146.605469
1822.912109	36118.382813
1821.911133	36114.449219
1820.910156	36013.402344
1819.909180	36036.187500
1818.908203	35891.503906
1817.906250	35931.285156
1816.904297	36123.890625
1815.903320	36085.992188
1814.900391	35730.402344
1813.898438	36356.972656
1812.896484	35972.367188
1811.893555	36205.996094
1810.891602	36061.476563
1809.888672	36348.308594
1808.885742	36220.769531
1807.881836	36204.699219
1806.878906	35999.730469
1805.875000	36334.792969
1804.871094	36279.968750
1803.867188	36438.167969
1802.863281	36526.125000
1801.859375	36684.218750
1800.854492	36651.140625
1799.849609	36492.292969
1798.844727	36618.867188
1797.839844	36721.214844
1796.834961	36676.058594
1795.830078	36563.238281
1794.824219	36752.539063
1793.818359	36576.917969
1792.812500	36867.609375
1791.806641	37020.519531
1790.799805	37013.988281
1789.793945	36988.140625
1788.787109	36851.253906
1787.780273	37040.257813
1786.773438	36963.738281
1785.766602	37220.214844
1784.758789	37097.847656
1783.751953	37226.371094
1782.744141	37108.871094
1781.736328	37181.886719
1780.728516	37541.750000
1779.719727	37012.093750
1778.711914	37123.640625
1777.703125	37201.417969
1776.694336	37626.058594
1775.685547	37147.335938
1774.676758	37475.507813
1773.666992	37502.597656
1772.657227	37505.605469
1771.648438	37730.042969
1770.638672	37785.945313
1769.627930	37625.285156
1768.618164	37710.054688
1767.607422	37907.832031
1766.597656	37982.894531
1765.586914	38170.933594
1764.576172	37858.898438
1763.564453	37924.312500
1762.553711	38494.343750
1761.541992	38309.746094
1760.530273	38050.746094
1759.518555	38257.781250
1758.506836	38414.312500
1757.495117	38611.601563
1756.482422	39053.667969
1755.469727	38897.960938
1754.457031	38747.105469
1753.444336	38948.988281
1752.431641	38627.863281
1751.417969	38803.308594
1750.405273	39194.507813
1749.391602	39177.988281
1748.377930	39115.929688
1747.364258	39310.332031
1746.349609	39281.816406
1745.335938	39162.265625
1744.321289	39196.058594
1743.306641	39169.968750
1742.291992	39299.531250
1741.276367	39780.984375
1740.261719	39254.511719
1739.246094	39470.140625
1738.230469	39843.625000
1737.214844	39755.234375
1736.199219	39977.832031
1735.182617	39889.445313
1734.166992	40544.742188
1733.150391	40585.382813
1732.133789	40465.855469
1731.117188	40506.492188
1730.099609	40838.628906
1729.083008	40711.949219
1728.065430	41258.906250
1727.047852	41067.710938
1726.030273	41619.183594
1725.012695	41864.875000
1723.994141	41972.039063
1722.976563	42064.839844
1721.958008	42052.621094
1720.939453	42753.722656
1719.920898	42440.835938
1718.901367	42760.042969
1717.882813	42833.542969
1716.863281	43293.218750
1715.843750	43256.945313
1714.824219	43282.648438
1713.803711	43727.699219
1712.784180	43293.523438
1711.763672	43631.222656
1710.743164	43368.679688
1709.722656	44170.546875
1708.702148	43496.148438
1707.681641	43824.050781
1706.660156	43647.320313
1705.638672	43718.105469
1704.617188	43781.722656
1703.595703	43854.835938
1702.574219	44020.660156
1701.551758	43710.898438
1700.529297	43657.980469
1699.507813	43524.269531
1698.484375	43987.082031
1697.461914	44086.203125
1696.439453	43838.457031
1695.416016	43740.429688
1694.392578	44240.859375
1693.369141	44437.203125
1692.345703	44467.308594
1691.322266	44065.429688
1690.297852	44204.742188
1689.273438	44384.335938
1688.249023	44184.316406
1687.224609	44494.296875
1686.200195	44609.714844
1685.174805	44808.070313
1684.150391	44707.671875
1683.125000	44943.859375
1682.099609	45163.375000
1681.073242	44861.574219
1680.047852	45393.703125
1679.021484	45316.964844
1677.995117	45204.734375
1676.968750	45511.597656
1675.942383	45886.996094
1674.916016	45299.003906
1673.888672	46104.972656
1672.862305	45363.363281
1671.834961	45946.675781
1670.806641	45728.031250
1669.779297	45861.789063
1668.751953	46331.214844
1667.723633	45828.960938
1666.695313	46619.636719
1665.666992	46351.437500
1664.638672	46659.781250
1663.609375	46868.808594
1662.581055	46758.933594
1661.551758	46195.730469
1660.522461	46881.613281
1659.493164	47109.328125
1658.462891	47157.601563
1657.433594	47057.199219
1656.403320	46949.753906
1655.373047	46972.078125
1654.342773	46980.238281
1653.312500	47325.578125
1652.281250	47062.558594
1651.250977	47428.968750
1650.219727	47361.625000
1649.188477	47058.679688
1648.156250	47099.785156
1647.125000	47381.128906
1646.092773	47511.652344
1645.060547	47425.503906
1644.028320	47306.429688
1642.996094	46952.023438
1641.963867	47983.832031
1640.930664	47998.832031
1639.898438	47818.566406
1638.865234	47927.664063
1637.832031	48079.054688
1636.797852	48425.535156
1635.764648	48257.070313
1634.730469	48304.894531
1633.696289	48646.449219
1632.662109	48257.167969
1631.627930	48709.011719
1630.592773	48759.066406
1629.558594	48787.964844
1628.523438	48875.546875
1627.488281	48883.281250
1626.453125	49698.390625
1625.416992	49670.773438
1624.381836	49622.050781
1623.345703	49852.488281
1622.309570	52235.886719
1621.273438	52824.511719
1620.237305	53413.136719
1619.200195	54002.316406
1618.163086	54591.496094
1617.125977	55180.675781
1616.088867	55769.855469
1615.051758	56359.035156
1614.014648	56948.214844
1612.976563	57537.949219
1611.938477	58260.496094
1610.900391	58765.089844
1609.862305	58600.160156
1608.823242	58416.570313
1607.785156	57397.832031
1606.746094	57085.863281
1605.707031	55646.753906
1604.667969	54757.652344
1603.628906	54539.828125
1602.588867	53543.714844
1601.548828	52094.566406
1600.508789	52169.402344
1599.468750	51456.914063
1598.428711	51419.714844
1597.387695	51041.566406
1596.347656	50451.070313
1595.306641	49989.179688
1594.265625	50290.707031
1593.224609	49611.972656
1592.182617	49628.796875
1591.140625	49617.617188
1590.099609	49695.070313
1589.057617	49800.480469
1588.014648	49253.000000
1586.972656	48789.636719
1585.929688	49424.230469
1584.887695	48926.042969
1583.844727	49168.949219
1582.800781	49055.351563
1581.757813	49095.515625
1580.714844	49040.183594
1579.670898	49240.984375
1578.626953	49220.562500
1577.583008	49337.464844
1576.538086	49258.851563
1575.494141	49615.343750
1574.449219	48941.195313
1573.404297	49839.523438
1572.359375	50021.312500
1571.314453	50075.160156
1570.269531	49333.988281
1569.223633	49339.128906
1568.177734	49344.265625
1567.131836	48852.210938
1566.085938	48327.808594
1565.040039	48386.535156
1563.993164	48377.898438
1562.946289	48116.199219
1561.899414	47801.207031
1560.852539	47553.628906
1559.805664	47772.539063
1558.757813	47362.648438
1557.709961	47634.859375
1556.662109	47139.328125
1555.614258	47174.964844
1554.566406	47298.687500
1553.517578	47167.386719
1552.469727	47307.285156
1551.420898	47236.273438
1550.372070	47290.382813
1549.322266	47525.144531
1548.273438	47002.535156
1547.223633	46716.281250
1546.173828	47351.511719
1545.124023	46484.332031
1544.074219	46448.253906
1543.024414	47041.539063
1541.973633	46792.539063
1540.922852	47080.234375
1539.872070	47108.820313
1538.821289	46987.105469
1537.770508	47159.019531
1536.718750	47226.863281
1535.666992	47121.363281
1534.615234	46831.058594
1533.563477	47012.113281
1532.511719	46855.886719
1531.458984	46969.898438
1530.407227	46829.898438
1529.354492	46874.617188
1528.300781	46766.988281
1527.248047	47116.300781
1526.195313	46579.531250
1525.141602	46820.328125
1524.087891	46675.878906
1523.034180	46508.417969
1521.980469	46456.292969
1520.925781	46560.933594
1519.871094	46430.453125
1518.817383	46657.183594
1517.762695	46305.554688
1516.707031	46670.429688
1515.652344	45952.738281
1514.596680	45893.855469
1513.541016	46295.437500
1512.485352	45994.820313
1511.429688	46212.125000
1510.374023	46093.406250
1509.317383	46126.566406
1508.260742	45911.292969
1507.204102	45942.167969
1506.147461	45816.675781
1505.090820	45769.390625
1504.033203	45938.179688
1502.975586	45966.722656
1501.917969	45861.988281
1500.860352	45936.476563
1499.802734	45944.324219
1498.744141	45830.460938
1497.686523	45856.691406
1496.627930	45931.117188
1495.569336	46026.175781
1494.509766	46070.710938
1493.451172	45881.199219
1492.391602	46125.316406
1491.332031	45961.085938
1490.272461	46411.484375
1489.212891	45731.390625
1488.152344	45548.976563
1487.092773	45669.160156
1486.032227	45482.234375
1484.971680	45765.054688
1483.910156	45951.558594
1482.849609	46025.773438
1481.788086	45948.824219
1480.726563	45954.324219
1479.665039	45852.234375
1478.603516	46397.867188
1477.541992	46137.839844
1476.479492	46308.015625
1475.416992	46324.871094
1474.354492	46202.214844
1473.291992	46372.281250
1472.229492	46338.816406
1471.166016	46083.640625
1470.102539	45858.261719
1469.039063	46590.363281
1467.975586	46449.500000
1466.912109	46342.949219
1465.847656	46423.699219
1464.783203	46536.386719
1463.718750	47032.558594
1462.654297	47122.265625
1461.589844	47154.886719
1460.524414	46968.453125
1459.458984	46750.144531
1458.393555	47403.203125
1457.328125	47317.160156
1456.262695	46695.332031
1455.196289	47375.398438
1454.130859	47649.519531
1453.064453	47116.835938
1451.998047	47172.171875
1450.930664	47140.917969
1449.864258	47710.960938
1448.796875	47763.878906
1447.729492	47941.996094
1446.662109	48233.863281
1445.594727	48049.953125
1444.526367	48400.855469
1443.458008	48369.410156
1442.390625	48613.214844
1441.321289	48677.261719
1440.252930	49448.468750
1439.184570	49412.300781
1438.115234	49608.000000
1437.045898	50449.070313
1435.976563	50210.503906
1434.907227	50576.339844
1433.836914	50530.906250
1432.767578	51105.484375
1431.697266	51430.082031
1430.626953	51386.785156
1429.555664	50871.375000
1428.485352	50898.539063
1427.414063	51585.976563
1426.342773	51683.324219
1425.271484	51447.210938
1424.200195	52007.175781
1423.128906	52138.402344
1422.056641	52065.546875
1420.984375	52733.886719
1419.912109	52529.511719
1418.839844	52474.750000
1417.767578	52286.347656
1416.694336	52263.355469
1415.621094	52586.835938
1414.547852	51954.742188
1413.474609	51872.957031
1412.400391	51349.855469
1411.327148	51618.949219
1410.252930	51184.312500
1409.178711	51118.550781
1408.104492	51161.367188
1407.029297	51407.683594
1405.955078	51825.734375
1404.879883	51217.386719
1403.804688	52089.585938
1402.729492	52077.949219
1401.653320	52533.972656
1400.578125	52452.234375
1399.501953	52219.207031
1398.425781	52546.246094
1397.349609	52383.269531
1396.272461	52351.261719
1395.196289	52305.726563
1394.119141	52145.128906
1393.041992	52216.953125
1391.964844	52929.332031
1390.886719	52664.960938
1389.809570	52590.085938
1388.731445	52812.812500
1387.653320	53073.769531
1386.575195	53055.195313
1385.497070	53795.929688
1384.417969	53822.281250
1383.338867	54058.085938
1382.259766	53629.484375
1381.180664	53984.566406
1380.101563	54197.695313
1379.021484	53704.023438
1377.941406	53570.644531
1376.861328	53437.265625
1375.781250	53303.890625
1374.701172	53170.511719
1373.620117	53221.640625
1372.539063	53128.859375
1371.458008	52635.988281
1370.376953	52480.414063
1369.295898	52318.148438
1368.213867	52569.324219
1367.132813	52085.886719
1366.050781	52146.113281
1364.967773	52172.632813
1363.885742	52205.878906
1362.802734	52093.207031
1361.720703	52182.554688
1360.637695	52182.117188
1359.554688	51782.347656
1358.470703	51701.226563
1357.387695	51830.941406
1356.303711	51402.296875
1355.219727	51097.105469
1354.135742	51081.156250
1353.050781	50959.890625
1351.966797	51143.378906
1350.881836	50751.078125
1349.796875	50365.636719
1348.711914	50540.171875
1347.626953	50345.214844
1346.541016	50425.667969
1345.455078	50506.085938
1344.369141	50443.261719
1343.283203	50156.722656
1342.197266	50568.207031
1341.110352	50554.601563
1340.023438	50317.386719
1338.936523	50616.828125
1337.849609	51086.042969
1336.762695	51043.292969
1335.674805	50756.992188
1334.586914	50761.226563
1333.499023	50506.347656
1332.411133	51001.949219
1331.323242	50697.988281
1330.234375	51070.585938
1329.145508	51344.832031
1328.056641	51505.160156
1326.967773	52082.679688
1325.878906	51602.550781
1324.789063	51956.792969
1323.699219	52306.441406
1322.609375	52517.722656
1321.519531	52472.562500
1320.429688	52777.343750
1319.338867	52999.562500
1318.248047	53210.558594
1317.157227	54312.535156
1316.066406	54356.167969
1314.975586	54660.324219
1313.883789	53978.050781
1312.791992	54395.687500
1311.700195	54285.695313
1310.608398	55168.199219
1309.516602	54733.273438
1308.423828	54178.386719
1307.331055	54197.496094
1306.238281	54650.207031
1305.145508	54553.609375
1304.051758	54372.582031
1302.958984	54384.964844
1301.865234	54395.121094
1300.771484	54338.625000
1299.677734	55315.011719
1298.583008	55564.832031
1297.489258	55834.546875
1296.394531	56450.484375
1295.299805	57035.121094
1294.204102	56873.886719
1293.109375	57469.324219
1292.013672	56922.066406
1290.917969	56973.863281
1289.822266	56544.417969
1288.726563	56312.457031
1287.630859	55916.535156
1286.534180	55403.285156
1285.437500	55827.585938
1284.340820	54935.667969
1283.244141	54732.992188
1282.146484	54029.847656
1281.048828	54243.714844
1279.951172	53576.332031
1278.853516	53739.281250
1277.755859	53738.398438
1276.658203	53535.144531
1275.559570	53331.707031
1274.460938	53128.273438
1273.362305	52924.839844
1272.262695	52721.222656
1271.164063	52439.738281
1270.064453	52549.593750
1268.964844	51914.644531
1267.865234	52042.226563
1266.765625	52209.523438
1265.665039	52047.652344
1264.564453	51565.621094
1263.463867	51697.582031
1262.363281	51732.355469
1261.262695	51652.343750
1260.161133	51272.238281
1259.059570	51719.660156
1257.958008	51317.613281
1256.856445	51647.964844
1255.754883	51488.640625
1254.652344	51014.093750
1253.549805	51104.035156
1252.447266	50942.687500
1251.344727	50627.148438
1250.242188	51426.523438
1249.138672	51251.984375
1248.035156	50656.851563
1246.931641	50826.015625
1245.828125	51186.656250
1244.724609	51285.222656
1243.620117	50888.578125
1242.515625	50848.535156
1241.411133	51074.699219
1240.306641	51045.203125
1239.201172	51015.683594
1238.096680	50986.187500
1236.991211	50956.667969
1235.885742	50927.148438
1234.779297	50897.597656
1233.673828	50868.078125
1232.567383	50838.531250
1231.460938	50808.984375
1230.354492	51282.871094
1229.248047	51618.261719
1228.140625	51946.941406
1227.033203	52088.945313
1225.926758	51734.960938
1224.818359	51833.066406
1223.710938	52391.789063
1222.602539	52064.253906
1221.495117	51991.203125
1220.386719	51905.019531
1219.278320	52145.472656
1218.168945	51581.519531
1217.060547	51819.746094
1215.951172	51420.363281
1214.841797	51430.730469
1213.731445	51776.160156
1212.622070	51832.433594
1211.511719	51965.308594
1210.402344	52205.382813
1209.291992	51926.714844
1208.180664	52330.804688
1207.070313	52332.226563
1205.958984	52539.242188
1204.847656	52415.972656
1203.736328	52850.281250
1202.625000	52556.484375
1201.512695	52393.925781
1200.401367	53061.816406
1199.289063	53178.882813
1198.176758	53040.324219
1197.063477	53412.878906
1195.951172	53658.644531
1194.837891	53520.070313
1193.724609	53575.812500
1192.611328	53476.582031
1191.498047	54125.828125
1190.383789	53939.261719
1189.269531	53693.863281
1188.155273	53452.917969
1187.041016	53347.246094
1185.926758	53117.347656
1184.811523	52872.269531
1183.696289	52703.554688
1182.581055	53205.992188
1181.465820	53037.273438
1180.350586	52563.683594
1179.234375	52994.000000
1178.118164	52503.167969
1177.001953	52175.777344
1175.885742	52357.804688
1174.768555	52378.730469
1173.652344	52367.011719
1172.535156	52063.800781
1171.417969	51634.558594
1170.299805	52349.261719
