#Wave		#Intensity
2001.221680	40106.738281
2000.251953	40818.585938
1999.282227	40192.460938
1998.312500	41094.992188
1997.342773	40228.535156
1996.372070	40714.949219
1995.402344	40690.308594
1994.431641	40728.273438
1993.460938	40220.472656
1992.490234	40621.441406
1991.518555	41370.125000
1990.547852	40719.851563
1989.576172	40425.042969
1988.604492	40678.113281
1987.632813	40603.488281
1986.661133	40623.898438
1985.689453	40861.800781
1984.716797	41087.117188
1983.745117	40570.125000
1982.772461	40520.562500
1981.799805	40565.945313
1980.827148	40686.242188
1979.853516	40336.996094
1978.880859	41111.480469
1977.907227	40774.761719
1976.933594	40685.265625
1975.959961	40643.218750
1974.986328	40848.203125
1974.011719	41177.851563
1973.038086	40666.808594
1972.063477	40966.441406
1971.088867	41592.609375
1970.114258	41024.417969
1969.138672	41007.273438
1968.164063	40850.578125
1967.188477	40880.812500
1966.212891	40913.523438
1965.237305	40916.332031
1964.261719	41073.539063
1963.286133	40640.582031
1962.309570	41225.972656
1961.333984	41009.679688
1960.357422	40659.078125
1959.380859	40898.296875
1958.404297	40901.093750
1957.426758	41068.050781
1956.450195	41137.960938
1955.472656	41021.359375
1954.495117	40971.917969
1953.517578	41591.117188
1952.540039	41032.136719
1951.561523	41129.316406
1950.583008	41214.035156
1949.605469	41519.785156
1948.626953	41251.761719
1947.647461	41420.832031
1946.668945	41237.324219
1945.690430	40986.859375
1944.710938	41066.542969
1943.731445	41448.910156
1942.751953	41545.843750
1941.772461	41265.734375
1940.791992	41561.058594
1939.812500	41608.332031
1938.832031	41487.007813
1937.851563	41392.992188
1936.871094	41244.488281
1935.890625	41271.953125
1934.909180	41918.738281
1933.928711	41700.859375
1932.947266	41495.441406
1931.965820	41537.691406
1930.984375	41602.207031
1930.002930	41429.085938
1929.020508	41456.472656
1928.038086	41812.929688
1927.056641	41565.640625
1926.074219	41494.050781
1925.090820	41986.320313
1924.108398	41857.808594
1923.125000	41469.769531
1922.142578	41801.121094
1921.159180	41860.519531
1920.175781	42223.804688
1919.191406	41897.726563
1918.208008	42083.039063
1917.223633	41915.140625
1916.240234	41525.085938
1915.255859	41769.609375
1914.271484	41964.679688
1913.286133	42060.968750
1912.301758	42088.136719
1911.316406	41972.214844
1910.331055	41915.523438
1909.345703	42206.566406
1908.360352	42312.582031
1907.375000	42349.535156
1906.388672	41972.394531
1905.402344	41999.531250
1904.416016	42066.082031
1903.429688	41962.628906
1902.443359	41960.195313
1901.457031	41999.621094
1900.469727	42095.664063
1899.482422	42304.910156
1898.495117	42090.738281
1897.507813	42169.484375
1896.520508	42258.042969
1895.532227	42223.566406
1894.543945	42213.695313
1893.556641	42334.164063
1892.568359	42093.156250
1891.579102	42311.929688
1890.590820	41734.281250
1889.601563	42093.109375
1888.613281	42498.496094
1887.624023	42459.097656
1886.634766	42080.769531
1885.644531	42250.191406
1884.655273	42159.292969
1883.665039	42277.085938
1882.674805	42642.734375
1881.684570	42983.707031
1880.694336	42620.394531
1879.704102	42821.425781
1878.712891	42615.238281
1877.722656	42264.437500
1876.731445	42740.019531
1875.740234	42825.664063
1874.748047	42207.855469
1873.756836	42808.167969
1872.764648	42616.890625
1871.773438	42827.425781
1870.781250	42756.218750
1869.788086	42753.605469
1868.795898	42601.636719
1867.803711	42728.785156
1866.810547	43213.226563
1865.817383	43110.195313
1864.824219	43039.007813
1863.831055	43090.152344
1862.837891	43190.191406
1861.843750	42925.835938
1860.849609	43155.449219
1859.855469	42746.964844
1858.861328	42817.656250
1857.867188	43144.906250
1856.872070	43291.242188
1855.877930	43244.546875
1854.882813	42919.437500
1853.887695	43307.480469
1852.892578	43531.804688
1851.896484	43214.132813
1850.901367	43269.992188
1849.905273	43386.828125
1848.909180	42971.753906
1847.913086	43354.492188
1846.916992	43544.417969
1845.919922	43497.738281
1844.923828	44014.269531
1843.926758	43982.148438
1842.929688	43759.937500
1841.932617	43752.234375
1840.935547	43649.519531
1839.937500	43588.246094
1838.939453	44281.996094
1837.942383	44003.910156
1836.943359	44115.460938
1835.945313	44115.000000
1834.947266	44039.089844
1833.948242	44335.503906
1832.949219	44658.574219
1831.951172	44115.566406
1830.951172	44397.214844
1829.952148	44513.410156
1828.953125	44580.937500
1827.953125	44237.640625
1826.953125	44660.023438
1825.953125	44931.597656
1824.953125	45001.429688
1823.952148	44923.058594
1822.952148	44689.285156
1821.951172	44700.835938
1820.950195	44996.433594
1819.949219	44881.703125
1818.948242	44767.011719
1817.946289	44713.023438
1816.945313	44974.437500
1815.943359	45194.523438
1814.941406	44771.847656
1813.939453	45161.625000
1812.936523	45447.011719
1811.934570	45371.132813
1810.931641	45009.304688
1809.928711	45076.488281
1808.925781	45303.539063
1807.921875	45365.796875
1806.918945	45512.792969
1805.915039	45158.515625
1804.912109	45537.906250
1803.908203	45665.425781
1802.903320	45613.812500
1801.899414	46034.046875
1800.894531	45590.468750
1799.890625	45879.941406
1798.885742	45630.011719
1797.880859	45733.191406
1796.875000	46036.984375
1795.870117	45968.437500
1794.864258	45699.328125
1793.858398	45773.417969
1792.852539	46236.429688
1791.846680	46539.859375
1790.840820	46135.593750
1789.833984	46535.511719
1788.828125	46551.441406
1787.821289	46620.464844
1786.814453	46942.855469
1785.806641	46765.671875
1784.799805	46885.277344
1783.791992	46773.285156
1782.784180	46473.230469
1781.776367	46424.039063
1780.768555	47242.718750
1779.760742	47338.023438
1778.751953	47134.464844
1777.743164	47400.820313
1776.735352	47517.718750
1775.725586	47078.191406
1774.716797	47886.246094
1773.708008	47367.351563
1772.698242	47592.496094
1771.688477	47454.117188
1770.678711	47992.003906
1769.668945	47572.093750
1768.659180	47979.863281
1767.648438	48103.671875
1766.637695	48513.601563
1765.626953	48346.347656
1764.616211	47953.179688
1763.605469	48389.351563
1762.593750	48217.394531
1761.583008	48461.152344
1760.571289	48529.457031
1759.559570	48458.437500
1758.547852	49055.015625
1757.535156	48438.910156
1756.523438	49157.703125
1755.510742	49065.011719
1754.498047	49598.664063
1753.485352	49585.097656
1752.472656	49701.070313
1751.458984	49392.484375
1750.445313	50100.746094
1749.432617	50111.066406
1748.417969	50504.921875
1747.404297	50253.925781
1746.390625	50149.187500
1745.375977	49845.628906
1744.361328	50325.480469
1743.346680	50888.988281
1742.332031	50568.691406
1741.317383	51220.531250
1740.302734	51221.046875
1739.287109	51216.773438
1738.271484	51645.609375
1737.255859	52205.878906
1736.240234	51825.875000
1735.223633	52266.328125
1734.208008	52938.570313
1733.191406	52967.457031
1732.174805	53503.082031
1731.158203	53519.902344
1730.140625	53921.421875
1729.124023	54544.984375
1728.106445	54303.628906
1727.088867	55051.085938
1726.071289	55311.164063
1725.053711	55346.734375
1724.035156	56150.886719
1723.017578	56253.113281
1721.999023	56400.636719
1720.980469	56493.238281
1719.961914	56724.144531
1718.942383	57052.750000
1717.923828	57049.796875
1716.904297	57490.273438
1715.884766	57046.277344
1714.865234	57298.320313
1713.844727	57571.718750
1712.825195	57575.812500
1711.804688	57575.140625
1710.784180	57179.144531
1709.763672	57938.089844
1708.743164	57408.847656
1707.722656	57053.546875
1706.701172	57497.976563
1705.679688	57356.921875
1704.658203	57941.492188
1703.636719	57424.601563
1702.615234	56924.535156
1701.592773	57033.328125
1700.571289	56806.890625
1699.548828	56972.707031
1698.526367	56862.796875
1697.502930	56836.082031
1696.480469	56476.796875
1695.457031	56963.191406
1694.433594	56874.726563
1693.410156	56681.820313
1692.386719	56681.261719
1691.363281	57058.085938
1690.338867	56381.140625
1689.314453	56760.253906
1688.290039	56861.679688
1687.265625	56896.656250
1686.241211	56879.449219
1685.215820	56900.183594
1684.191406	56534.511719
1683.166016	57005.609375
1682.140625	57166.113281
1681.115234	57437.910156
1680.088867	57477.464844
1679.062500	57744.371094
1678.037109	57473.644531
1677.010742	57569.984375
1675.983398	58227.304688
1674.957031	57921.128906
1673.930664	58178.242188
1672.903320	57900.570313
1671.875977	57895.023438
1670.848633	58802.386719
1669.820313	58510.554688
1668.792969	58247.195313
1667.764648	59005.085938
1666.736328	58519.570313
1665.708008	59043.207031
1664.679688	59032.722656
1663.651367	59052.945313
1662.622070	58985.777344
1661.592773	59298.796875
1660.563477	59710.859375
1659.534180	59782.867188
1658.504883	60201.769531
1657.474609	60313.777344
1656.444336	59845.378906
1655.415039	60247.531250
1654.383789	60684.910156
1653.353516	60674.128906
1652.323242	60660.988281
1651.291992	61093.343750
1650.260742	61108.406250
1649.229492	61231.855469
1648.198242	62029.019531
1647.166016	62352.464844
1646.134766	62355.511719
1645.102539	61934.730469
1644.070313	62486.363281
1643.038086	62682.382813
1642.004883	63116.015625
1640.972656	63325.968750
1639.939453	63173.558594
1638.906250	63416.347656
1637.873047	63863.640625
1636.839844	63854.636719
1635.805664	63309.644531
1634.772461	63730.855469
1633.738281	64386.914063
1632.704102	64897.062500
1631.668945	64756.316406
1630.634766	65223.933594
1629.599609	65689.039063
1628.565430	65757.179688
1627.530273	66337.039063
1626.494141	66400.343750
1625.458984	66597.375000
1624.422852	67268.273438
1623.387695	68140.664063
1622.351563	68414.671875
1621.315430	69471.796875
1620.278320	69663.406250
1619.242188	71282.523438
1618.205078	72943.242188
1617.167969	74535.406250
1616.130859	76757.242188
1615.093750	78776.828125
1614.055664	81542.804688
1613.018555	83127.617188
1611.980469	84576.062500
1610.942383	85225.789063
1609.904297	85332.312500
1608.865234	85848.281250
1607.827148	84387.156250
1606.788086	82706.671875
1605.749023	81010.414063
1604.709961	78973.359375
1603.669922	76962.750000
1602.630859	75878.484375
1601.590820	74645.031250
1600.550781	73645.671875
1599.510742	71934.132813
1598.470703	71844.234375
1597.429688	71894.484375
1596.389648	71122.812500
1595.348633	70759.953125
1594.307617	70371.546875
1593.265625	70914.429688
1592.224609	70050.132813
1591.182617	69797.359375
1590.140625	70235.085938
1589.098633	70229.554688
1588.056641	70307.968750
1587.014648	69985.382813
1585.971680	70443.726563
1584.928711	70265.710938
1583.886719	70297.445313
1582.842773	70417.695313
1581.799805	71052.632813
1580.755859	70702.296875
1579.712891	71120.421875
1578.668945	71766.531250
1577.625000	71453.484375
1576.580078	72229.609375
1575.536133	71839.804688
1574.491211	72001.460938
1573.446289	72088.617188
1572.401367	73166.367188
1571.356445	73209.117188
1570.311523	73219.296875
1569.265625	73087.695313
1568.219727	72935.226563
1567.173828	73189.390625
1566.127930	72544.500000
1565.082031	72780.054688
1564.035156	72704.367188
1562.988281	71985.601563
1561.941406	71759.195313
1560.894531	72185.023438
1559.847656	71828.710938
1558.799805	71969.000000
1557.751953	72215.945313
1556.704102	71783.281250
1555.656250	71761.187500
1554.608398	72093.804688
1553.560547	72732.265625
1552.511719	71395.968750
1551.462891	72379.570313
1550.414063	71852.335938
1549.365234	71985.429688
1548.315430	71703.921875
1547.265625	71695.742188
1546.216797	71976.945313
1545.166992	72188.601563
1544.116211	72411.750000
1543.066406	72320.140625
1542.015625	72409.007813
1540.965820	72553.343750
1539.915039	72762.382813
1538.863281	72957.468750
1537.812500	72458.968750
1536.760742	72436.765625
1535.709961	72913.734375
1534.658203	72713.546875
1533.605469	72966.203125
1532.553711	72394.218750
1531.501953	72598.343750
1530.449219	72536.875000
1529.396484	71939.867188
1528.343750	72153.187500
1527.290039	72202.585938
1526.237305	72005.101563
1525.183594	71627.750000
1524.129883	71017.585938
1523.076172	70905.726563
1522.022461	71264.234375
1520.968750	71055.546875
1519.914063	71353.968750
1518.859375	71384.984375
1517.804688	71054.273438
1516.750000	71138.304688
1515.694336	71309.820313
1514.639648	70633.890625
1513.583984	70816.945313
1512.528320	70937.773438
1511.472656	71238.070313
1510.416016	71246.023438
1509.360352	70715.632813
1508.303711	71015.796875
1507.247070	71003.085938
1506.190430	70682.257813
1505.132813	70676.500000
1504.076172	70691.421875
1503.018555	70940.750000
1501.960938	70663.812500
1500.903320	70154.937500
1499.844727	70418.000000
1498.787109	70499.539063
1497.728516	70521.351563
1496.669922	70719.921875
1495.611328	70642.984375
1494.552734	70559.187500
1493.493164	70220.742188
1492.434570	70072.812500
1491.375000	70158.882813
1490.315430	69428.539063
1489.254883	69370.242188
1488.195313	69383.023438
1487.134766	69292.664063
1486.074219	69250.453125
1485.013672	68768.359375
1483.953125	69500.515625
1482.892578	68762.031250
1481.831055	68896.257813
1480.769531	68767.140625
1479.708008	68654.085938
1478.646484	69245.984375
1477.583984	69382.304688
1476.522461	68944.328125
1475.459961	68735.242188
1474.397461	69049.960938
1473.334961	68667.140625
1472.271484	68643.390625
1471.208984	68541.937500
1470.145508	68781.031250
1469.082031	68437.375000
1468.018555	69094.468750
1466.954102	69027.257813
1465.890625	68930.375000
1464.826172	68970.515625
1463.761719	68515.257813
1462.697266	68822.515625
1461.631836	68748.546875
1460.567383	68907.335938
1459.501953	69282.781250
1458.436523	68132.187500
1457.371094	69344.570313
1456.305664	69325.281250
1455.239258	68669.976563
1454.172852	68899.242188
1453.107422	68966.632813
1452.040039	69241.335938
1450.973633	68939.593750
1449.907227	69357.679688
1448.839844	68773.648438
1447.772461	69070.937500
1446.705078	68937.882813
1445.637695	69039.304688
1444.569336	69657.226563
1443.500977	69369.421875
1442.432617	69739.117188
1441.364258	69947.203125
1440.295898	70132.468750
1439.227539	70344.945313
1438.158203	70207.281250
1437.088867	70769.656250
1436.019531	71004.617188
1434.950195	71044.117188
1433.879883	71358.437500
1432.810547	71384.218750
1431.740234	71425.882813
1430.669922	71510.664063
1429.598633	71640.812500
1428.528320	72186.210938
1427.457031	72039.359375
1426.386719	71602.179688
1425.314453	71584.765625
1424.243164	71483.453125
1423.171875	71638.382813
1422.099609	71403.335938
1421.027344	70354.664063
1419.955078	71398.046875
1418.882813	70873.140625
1417.810547	70932.882813
1416.737305	70399.187500
1415.664063	71043.242188
1414.590820	70910.460938
1413.517578	71078.796875
1412.444336	70196.898438
1411.370117	70754.515625
1410.295898	71094.734375
1409.221680	70434.984375
1408.147461	70967.375000
1407.073242	70814.406250
1405.998047	70745.132813
1404.922852	70913.242188
1403.847656	70755.828125
1402.772461	70706.937500
1401.697266	71112.171875
1400.621094	70907.367188
1399.544922	71535.992188
1398.468750	71033.125000
1397.392578	71320.593750
1396.316406	71903.656250
1395.239258	71671.796875
1394.162109	72024.429688
1393.084961	72370.156250
1392.007813	72738.320313
1390.930664	72982.304688
1389.852539	73690.687500
1388.774414	73584.984375
1387.696289	74398.929688
1386.618164	74583.843750
1385.540039	74730.375000
1384.460938	75115.648438
1383.382813	75890.429688
1382.303711	76842.835938
1381.223633	76907.789063
1380.144531	76878.171875
1379.064453	77595.796875
1377.985352	77849.601563
1376.905273	77786.070313
1375.825195	77637.070313
1374.744141	77245.226563
1373.664063	77411.195313
1372.583008	76727.250000
1371.501953	76468.398438
1370.420898	76506.296875
1369.338867	75737.484375
1368.257813	74894.812500
1367.175781	75204.765625
1366.093750	74349.000000
1365.011719	73931.414063
1363.929688	74259.320313
1362.846680	73947.390625
1361.763672	73613.125000
1360.680664	72944.640625
1359.597656	73122.171875
1358.514648	73375.898438
1357.430664	72346.757813
1356.346680	72950.304688
1355.262695	72728.656250
1354.178711	72099.140625
1353.094727	72803.250000
1352.009766	72236.679688
1350.925781	71697.195313
1349.840820	71834.320313
1348.755859	71830.312500
1347.669922	72256.179688
1346.584961	71562.609375
1345.499023	72324.093750
1344.413086	72185.718750
1343.327148	72246.515625
1342.240234	72271.500000
1341.154297	71824.554688
1340.067383	71999.421875
1338.980469	71993.125000
1337.893555	72116.476563
1336.805664	72217.429688
1335.718750	72197.679688
1334.630859	72448.265625
1333.542969	72180.531250
1332.455078	72549.382813
1331.367188	71723.492188
1330.278320	72697.304688
1329.189453	72257.835938
1328.100586	72130.960938
1327.011719	72287.500000
1325.922852	72519.835938
1324.833008	72386.281250
1323.743164	72147.953125
1322.653320	72723.546875
1321.563477	72244.484375
1320.473633	73339.171875
1319.382813	72929.242188
1318.291992	73236.898438
1317.201172	73254.843750
1316.110352	73272.781250
1315.019531	73762.804688
1313.927734	73687.117188
1312.835938	73575.843750
1311.744141	74310.359375
1310.652344	74305.820313
1309.560547	74187.804688
1308.467773	74732.726563
1307.375000	74661.375000
1306.282227	74690.117188
1305.189453	75350.250000
1304.095703	75312.164063
1303.002930	75376.320313
1301.909180	75156.031250
1300.815430	75971.093750
1299.721680	75950.679688
1298.626953	76012.445313
1297.533203	75912.085938
1296.438477	76333.468750
1295.343750	75922.335938
1294.248047	77135.828125
1293.153320	76709.156250
1292.057617	76582.125000
1290.961914	76794.500000
1289.866211	77388.218750
1288.770508	77030.539063
1287.674805	77060.921875
1286.578125	77357.265625
1285.481445	77454.054688
1284.384766	77424.515625
1283.288086	77488.023438
1282.190430	77066.460938
1281.092773	76815.554688
1279.996094	76759.570313
1278.897461	76504.382813
1277.799805	76255.914063
1276.702148	76680.234375
1275.603516	76310.140625
1274.504883	76070.687500
1273.406250	76061.320313
1272.307617	76111.664063
1271.208008	75534.109375
1270.108398	75164.546875
1269.008789	75259.210938
1267.909180	75415.703125
1266.809570	74896.125000
1265.708984	74409.859375
1264.609375	75136.179688
1263.508789	74480.031250
1262.407227	73832.945313
1261.306641	73784.242188
1260.206055	74201.179688
1259.104492	73905.304688
1258.002930	73885.281250
1256.901367	73799.093750
1255.798828	73205.742188
1254.697266	73831.851563
1253.594727	72982.992188
1252.492188	72841.914063
1251.389648	73146.015625
1250.286133	72440.937500
1249.183594	72709.750000
1248.080078	72119.531250
1246.976563	72412.515625
1245.872070	72718.601563
1244.768555	72137.500000
1243.664063	71915.328125
1242.560547	72067.304688
1241.455078	72069.617188
1240.350586	72021.335938
1239.246094	71768.546875
1238.140625	71520.250000
1237.035156	72010.695313
1235.929688	72034.984375
1234.824219	71927.406250
1233.717773	71586.953125
1232.612305	71727.726563
1231.505859	72261.601563
1230.399414	71328.351563
1229.291992	71152.921875
1228.185547	71701.968750
1227.078125	71561.640625
1225.970703	71910.718750
1224.863281	71513.695313
1223.755859	70702.226563
1222.647461	71158.726563
1221.539063	70893.625000
1220.430664	70766.734375
1219.322266	71271.187500
1218.213867	71490.539063
1217.104492	71453.445313
1215.995117	71098.687500
1214.885742	70358.539063
1213.776367	70772.804688
1212.666992	71132.171875
1211.556641	70821.500000
1210.446289	70482.484375
1209.335938	71051.789063
1208.225586	70852.890625
1207.115234	70872.812500
1206.003906	70899.296875
1204.892578	70976.062500
1203.781250	71595.031250
1202.669922	71575.445313
1201.557617	71258.617188
1200.446289	71540.664063
1199.333984	71571.343750
1198.221680	71715.601563
1197.108398	71595.531250
1195.996094	71538.828125
1194.882813	71746.320313
1193.769531	72117.445313
1192.656250	71602.351563
1191.542969	71726.789063
1190.428711	71940.625000
1189.314453	72008.242188
1188.200195	72418.218750
1187.085938	72154.281250
1185.971680	73061.132813
1184.856445	72247.890625
1183.741211	72350.234375
1182.625977	72175.820313
1181.510742	73175.679688
1180.395508	72415.257813
1179.279297	72802.765625
1178.163086	72759.023438
1177.046875	72706.585938
1175.930664	72887.046875
1174.813477	72068.609375
1173.697266	72020.664063
1172.580078	71731.281250
1171.462891	72331.539063
1170.344727	71046.257813
