#Wave		#Intensity
2001.221680	31870.330078
2000.251953	32073.359375
1999.282227	31924.914063
1998.312500	32189.949219
1997.342773	31916.273438
1996.372070	32318.978516
1995.402344	32052.884766
1994.431641	31719.279297
1993.460938	31996.630859
1992.490234	32018.576172
1991.518555	31837.804688
1990.547852	31952.347656
1989.576172	32244.468750
1988.604492	32101.267578
1987.632813	31975.621094
1986.661133	32162.566406
1985.689453	32154.449219
1984.716797	32121.335938
1983.745117	31913.298828
1982.772461	32075.132813
1981.799805	32097.009766
1980.827148	32063.925781
1979.853516	32145.730469
1978.880859	32319.890625
1977.907227	32518.951172
1976.933594	32166.320313
1975.959961	32215.603516
1974.986328	32214.962891
1974.011719	31732.839844
1973.038086	32141.343750
1972.063477	32367.654297
1971.088867	32292.179688
1970.114258	31905.109375
1969.138672	31769.919922
1968.164063	31901.431641
1967.188477	31768.777344
1966.212891	32306.312500
1965.237305	31964.406250
1964.261719	31844.259766
1963.286133	32219.648438
1962.309570	32002.408203
1961.333984	31812.619141
1960.357422	32225.144531
1959.380859	32092.609375
1958.404297	32410.404297
1957.426758	31976.916016
1956.450195	31817.134766
1955.472656	32226.804688
1954.495117	31587.234375
1953.517578	31969.457031
1952.540039	32016.050781
1951.561523	31933.423828
1950.583008	31788.716797
1949.605469	31572.027344
1948.626953	31780.074219
1947.647461	31734.785156
1946.668945	32210.841797
1945.690430	31870.119141
1944.710938	32025.849609
1943.731445	31536.404297
1942.751953	31907.962891
1941.772461	32209.941406
1940.791992	31743.037109
1939.812500	31920.960938
1938.832031	31880.664063
1937.851563	32145.251953
1936.871094	31760.460938
1935.890625	32020.017578
1934.909180	31878.158203
1933.928711	31741.298828
1932.947266	31995.767578
1931.965820	31980.259766
1930.984375	31865.730469
1930.002930	31936.878906
1929.020508	31723.408203
1928.038086	31957.855469
1927.056641	31746.927734
1926.074219	31822.988281
1925.090820	32260.076172
1924.108398	31989.859375
1923.125000	31719.736328
1922.142578	31644.970703
1921.159180	31572.701172
1920.175781	31557.285156
1919.191406	31541.871094
1918.208008	32099.492188
1917.223633	31829.626953
1916.240234	32157.373047
1915.255859	31492.605469
1914.271484	32022.689453
1913.286133	31666.648438
1912.301758	31856.017578
1911.316406	31623.474609
1910.331055	31699.324219
1909.345703	31829.398438
1908.360352	31836.144531
1907.375000	31571.714844
1906.388672	31561.248047
1905.402344	31752.859375
1904.416016	31550.177734
1903.429688	31813.162109
1902.443359	31285.417969
1901.457031	31427.685547
1900.469727	31771.798828
1899.482422	31384.656250
1898.495117	31733.576172
1897.507813	31459.773438
1896.520508	31545.289063
1895.532227	31549.593750
1894.543945	31512.082031
1893.556641	31767.220703
1892.568359	31240.398438
1891.579102	31792.945313
1890.590820	31662.015625
1889.601563	31676.115234
1888.613281	31623.873047
1887.624023	31424.253906
1886.634766	31745.400391
1885.644531	31776.662109
1884.655273	31525.556641
1883.665039	31706.587891
1882.674805	31602.843750
1881.684570	31840.238281
1880.694336	31788.029297
1879.704102	31922.273438
1878.712891	31855.349609
1877.722656	31940.488281
1876.731445	31920.166016
1875.740234	31902.302734
1874.748047	31634.445313
1873.756836	31464.703125
1872.764648	32022.695313
1871.773438	31696.164063
1870.781250	32018.791016
1869.788086	31942.150391
1868.795898	31591.316406
1867.803711	32180.615234
1866.810547	31908.181641
1865.817383	31777.771484
1864.824219	31889.625000
1863.831055	31991.654297
1862.837891	31966.464844
1861.843750	31836.132813
1860.849609	32143.486328
1859.855469	32020.500000
1858.861328	31926.882813
1857.867188	31965.255859
1856.872070	31815.484375
1855.877930	31884.033203
1854.882813	31952.648438
1853.887695	32021.263672
1852.892578	32089.878906
1851.896484	32158.560547
1850.901367	31808.775391
1849.905273	31827.582031
1848.909180	31829.302734
1847.913086	32074.957031
1846.916992	32274.183594
1845.919922	31949.062500
1844.923828	32043.402344
1843.926758	32001.199219
1842.929688	31605.617188
1841.932617	31639.044922
1840.935547	31801.339844
1839.937500	31963.794922
1838.939453	32126.250000
1837.942383	32288.544922
1836.943359	32451.158203
1835.945313	32348.078125
1834.947266	32391.060547
1833.948242	32003.324219
1832.949219	32192.322266
1831.951172	32383.685547
1830.951172	32696.583984
1829.952148	32484.138672
1828.953125	32266.904297
1827.953125	32778.976563
1826.953125	32491.285156
1825.953125	32274.160156
1824.953125	32474.982422
1823.952148	32294.369141
1822.952148	32584.974609
1821.951172	32712.787109
1820.950195	32226.324219
1819.949219	32514.355469
1818.948242	32799.859375
1817.946289	32835.328125
1816.945313	32844.101563
1815.943359	32573.919922
1814.941406	32371.736328
1813.939453	32744.298828
1812.936523	32590.642578
1811.934570	32800.628906
1810.931641	32949.953125
1809.928711	32646.105469
1808.925781	32713.031250
1807.921875	32966.441406
1806.918945	33253.667969
1805.915039	33257.492188
1804.912109	32854.593750
1803.908203	33003.714844
1802.903320	32978.535156
1801.899414	32716.234375
1800.894531	33109.640625
1799.890625	33178.785156
1798.885742	32863.378906
1797.880859	33164.664063
1796.875000	32917.062500
1795.870117	33080.453125
1794.864258	32977.949219
1793.858398	33126.773438
1792.852539	33017.046875
1791.846680	33170.640625
1790.840820	33488.394531
1789.833984	33448.679688
1788.828125	33358.285156
1787.821289	33378.949219
1786.814453	33344.101563
1785.806641	33335.804688
1784.799805	33274.433594
1783.791992	33314.390625
1782.784180	33349.503906
1781.776367	33734.222656
1780.768555	33284.699219
1779.760742	33425.847656
1778.751953	33966.988281
1777.743164	33698.363281
1776.735352	33767.089844
1775.725586	33826.160156
1774.716797	33711.820313
1773.708008	33727.539063
1772.698242	34101.937500
1771.688477	33855.226563
1770.678711	33637.476563
1769.668945	33941.914063
1768.659180	34200.535156
1767.648438	33901.062500
1766.637695	34361.597656
1765.626953	34579.128906
1764.616211	34185.992188
1763.605469	34699.105469
1762.593750	34491.117188
1761.583008	34235.148438
1760.571289	34409.265625
1759.559570	34432.003906
1758.547852	34702.078125
1757.535156	35010.468750
1756.523438	34435.359375
1755.510742	34674.082031
1754.498047	35035.101563
1753.485352	34767.390625
1752.472656	34607.718750
1751.458984	34709.527344
1750.445313	34590.687500
1749.432617	35140.800781
1748.417969	34808.582031
1747.404297	35092.425781
1746.390625	35469.625000
1745.375977	35123.140625
1744.361328	35526.546875
1743.346680	35702.285156
1742.332031	35786.960938
1741.317383	35818.937500
1740.302734	35841.328125
1739.287109	36062.351563
1738.271484	36546.511719
1737.255859	36516.125000
1736.240234	36703.417969
1735.223633	37139.371094
1734.208008	36900.855469
1733.191406	36966.046875
1732.174805	37530.796875
1731.158203	37775.097656
1730.140625	38067.101563
1729.124023	38005.414063
1728.106445	38373.707031
1727.088867	38483.937500
1726.071289	39040.648438
1725.053711	38974.050781
1724.035156	39100.820313
1723.017578	39034.234375
1721.999023	39103.679688
1720.980469	39235.125000
1719.961914	39340.285156
1718.942383	39450.175781
1717.923828	39774.625000
1716.904297	39722.285156
1715.884766	39934.539063
1714.865234	40058.539063
1713.844727	39987.109375
1712.825195	40032.437500
1711.804688	39708.554688
1710.784180	39994.441406
1709.763672	39682.582031
1708.743164	39649.363281
1707.722656	39659.000000
1706.701172	39740.023438
1705.679688	40035.160156
1704.658203	39673.605469
1703.636719	39504.832031
1702.615234	39647.652344
1701.592773	39600.203125
1700.571289	39709.671875
1699.548828	39343.730469
1698.526367	39662.324219
1697.502930	39446.203125
1696.480469	39992.718750
1695.457031	39795.617188
1694.433594	39501.218750
1693.410156	39750.640625
1692.386719	39883.648438
1691.363281	39817.238281
1690.338867	39876.625000
1689.314453	39748.546875
1688.290039	39921.785156
1687.265625	39807.972656
1686.241211	40185.074219
1685.215820	40486.167969
1684.191406	40346.234375
1683.166016	40189.761719
1682.140625	40549.929688
1681.115234	40746.492188
1680.088867	40807.957031
1679.062500	40457.296875
1678.037109	41177.093750
1677.010742	41006.421875
1675.983398	40838.175781
1674.957031	41188.304688
1673.930664	40676.968750
1672.903320	41055.390625
1671.875977	41327.230469
1670.848633	41577.683594
1669.820313	41551.382813
1668.792969	41305.222656
1667.764648	41699.734375
1666.736328	42235.906250
1665.708008	42398.539063
1664.679688	42138.218750
1663.651367	42364.585938
1662.622070	42338.167969
1661.592773	42743.871094
1660.563477	42906.261719
1659.534180	42336.855469
1658.504883	42721.097656
1657.474609	43369.476563
1656.444336	42776.695313
1655.415039	43172.441406
1654.383789	42770.929688
1653.353516	43796.101563
1652.323242	43222.515625
1651.291992	43613.183594
1650.260742	43711.484375
1649.229492	44007.671875
1648.198242	44343.800781
1647.166016	44771.667969
1646.134766	44815.519531
1645.102539	44350.765625
1644.070313	45053.839844
1643.038086	45241.187500
1642.004883	45480.242188
1640.972656	46187.437500
1639.939453	46200.398438
1638.906250	46608.500000
1637.873047	46546.121094
1636.839844	47050.414063
1635.805664	47272.425781
1634.772461	47468.500000
1633.738281	47690.355469
1632.704102	48243.414063
1631.668945	48307.656250
1630.634766	48811.082031
1629.599609	49227.441406
1628.565430	49770.437500
1627.530273	51003.390625
1626.494141	51283.003906
1625.458984	52297.007813
1624.422852	52932.910156
1623.387695	53763.285156
1622.351563	54891.226563
1621.315430	56433.820313
1620.278320	57556.187500
1619.242188	59658.000000
1618.205078	60648.144531
1617.167969	62615.085938
1616.130859	64944.468750
1615.093750	66394.601563
1614.055664	68321.992188
1613.018555	69796.757813
1611.980469	70662.281250
1610.942383	71014.859375
1609.904297	70845.406250
1608.865234	70231.421875
1607.827148	69563.843750
1606.788086	68351.484375
1605.749023	66678.828125
1604.709961	65668.500000
1603.669922	63844.949219
1602.630859	62405.390625
1601.590820	61136.945313
1600.550781	60427.398438
1599.510742	59879.304688
1598.470703	59758.855469
1597.429688	58484.765625
1596.389648	58427.644531
1595.348633	58048.375000
1594.307617	57839.628906
1593.265625	56928.507813
1592.224609	56871.695313
1591.182617	56908.214844
1590.140625	56538.867188
1589.098633	56067.042969
1588.056641	55828.546875
1587.014648	55387.320313
1585.971680	55174.664063
1584.928711	55292.996094
1583.886719	54658.707031
1582.842773	55035.664063
1581.799805	54848.832031
1580.755859	54673.710938
1579.712891	54493.992188
1578.668945	54921.917969
1577.625000	55037.800781
1576.580078	54983.769531
1575.536133	54936.734375
1574.491211	55729.480469
1573.446289	55819.546875
1572.401367	55518.914063
1571.356445	56050.726563
1570.311523	56456.824219
1569.265625	56648.949219
1568.219727	56078.816406
1567.173828	55931.734375
1566.127930	55608.156250
1565.082031	55424.042969
1564.035156	55300.367188
1562.988281	55422.828125
1561.941406	54660.847656
1560.894531	54757.847656
1559.847656	54516.031250
1558.799805	54606.054688
1557.751953	54965.121094
1556.704102	55110.687500
1555.656250	54953.039063
1554.608398	54795.390625
1553.560547	54637.742188
1552.511719	54479.949219
1551.462891	54322.152344
1550.414063	54164.359375
1549.365234	54916.742188
1548.315430	54962.511719
1547.265625	54491.914063
1546.216797	54354.851563
1545.166992	54794.175781
1544.116211	55045.890625
1543.066406	54550.156250
1542.015625	53992.132813
1540.965820	54340.996094
1539.915039	54095.402344
1538.863281	53898.449219
1537.812500	53824.085938
1536.760742	53805.218750
1535.709961	53876.480469
1534.658203	53363.160156
1533.605469	53092.582031
1532.553711	52829.023438
1531.501953	52401.601563
1530.449219	52660.058594
1529.396484	52202.804688
1528.343750	52255.785156
1527.290039	51837.992188
1526.237305	51457.265625
1525.183594	51258.902344
1524.129883	51049.082031
1523.076172	50945.402344
1522.022461	50770.292969
1520.968750	50883.378906
1519.914063	50466.339844
1518.859375	50637.046875
1517.804688	50489.750000
1516.750000	50577.460938
1515.694336	50444.046875
1514.639648	50144.882813
1513.583984	50674.632813
1512.528320	50301.875000
1511.472656	50686.410156
1510.416016	50730.261719
1509.360352	50850.011719
1508.303711	50097.949219
1507.247070	50332.757813
1506.190430	50381.230469
1505.132813	50452.671875
1504.076172	50082.765625
1503.018555	50680.500000
1501.960938	50368.128906
1500.903320	50161.539063
1499.844727	50138.773438
1498.787109	49985.113281
1497.728516	49521.539063
1496.669922	49960.320313
1495.611328	49542.816406
1494.552734	49756.539063
1493.493164	49506.710938
1492.434570	49162.914063
1491.375000	48576.117188
1490.315430	49097.140625
1489.254883	48817.792969
1488.195313	48598.148438
1487.134766	48509.218750
1486.074219	48681.554688
1485.013672	48659.082031
1483.953125	48741.988281
1482.892578	48497.351563
1481.831055	48525.292969
1480.769531	48404.410156
1479.708008	48203.449219
1478.646484	48519.796875
1477.583984	48513.382813
1476.522461	48468.078125
1475.459961	48415.925781
1474.397461	47894.945313
1473.334961	48183.617188
1472.271484	48675.652344
1471.208984	48442.914063
1470.145508	48194.257813
1469.082031	48430.105469
1468.018555	48302.621094
1466.954102	48458.414063
1465.890625	48472.554688
1464.826172	48687.625000
1463.761719	48482.554688
1462.697266	48382.554688
1461.631836	48401.257813
1460.567383	48666.375000
1459.501953	48272.101563
1458.436523	48733.296875
1457.371094	49016.449219
1456.305664	48610.921875
1455.239258	48150.820313
1454.172852	48431.640625
1453.107422	48780.722656
1452.040039	48172.738281
1450.973633	48070.687500
1449.907227	48740.781250
1448.839844	48599.953125
1447.772461	48060.730469
1446.705078	48427.703125
1445.637695	48314.308594
1444.569336	48794.878906
1443.500977	48533.570313
1442.432617	48795.546875
1441.364258	48638.949219
1440.295898	48707.523438
1439.227539	48978.414063
1438.158203	49044.625000
1437.088867	49253.992188
1436.019531	49879.109375
1434.950195	49336.253906
1433.879883	49899.796875
1432.810547	50320.062500
1431.740234	50152.070313
1430.669922	50503.187500
1429.598633	50854.621094
1428.528320	51205.738281
1427.457031	51557.171875
1426.386719	51908.289063
1425.314453	52636.125000
1424.243164	52844.371094
1423.171875	53369.972656
1422.099609	53451.054688
1421.027344	54314.074219
1419.955078	54354.160156
1418.882813	54219.765625
1417.810547	54688.003906
1416.737305	54234.238281
1415.664063	54426.023438
1414.590820	54085.667969
1413.517578	53333.433594
1412.444336	53312.523438
1411.370117	52999.699219
1410.295898	51738.996094
1409.221680	51836.003906
1408.147461	51625.382813
1407.073242	50598.515625
1405.998047	50856.191406
1404.922852	50993.968750
1403.847656	50846.925781
1402.772461	50279.636719
1401.697266	50437.769531
1400.621094	49882.046875
1399.544922	50661.261719
1398.468750	50322.464844
1397.392578	50699.457031
1396.316406	51202.714844
1395.239258	51522.988281
1394.162109	52337.296875
1393.084961	53352.093750
1392.007813	53840.972656
1390.930664	55085.156250
1389.852539	55792.253906
1388.774414	56557.707031
1387.696289	57099.738281
1386.618164	56708.597656
1385.540039	56831.316406
1384.460938	56275.910156
1383.382813	56153.152344
1382.303711	55377.375000
1381.223633	55067.941406
1380.144531	54893.683594
1379.064453	54107.292969
1377.985352	54491.343750
1376.905273	54141.785156
1375.825195	53765.355469
1374.744141	53557.742188
1373.664063	53442.398438
1372.583008	53309.105469
1371.501953	53436.613281
1370.420898	53269.656250
1369.338867	53417.343750
1368.257813	53715.503906
1367.175781	53393.585938
1366.093750	54093.644531
1365.011719	54422.949219
1363.929688	54902.550781
1362.846680	55797.238281
1361.763672	56188.890625
1360.680664	57433.054688
1359.597656	58104.691406
1358.514648	58183.929688
1357.430664	58204.824219
1356.346680	58418.542969
1355.262695	57473.167969
1354.178711	56752.269531
1353.094727	55982.332031
1352.009766	55158.890625
1350.925781	54844.269531
1349.840820	53188.128906
1348.755859	52426.093750
1347.669922	51870.320313
1346.584961	51556.507813
1345.499023	50907.085938
1344.413086	51130.621094
1343.327148	50262.242188
1342.240234	50277.769531
1341.154297	49955.574219
1340.067383	49624.546875
1338.980469	49568.632813
1337.893555	49939.687500
1336.805664	49635.652344
1335.718750	49930.582031
1334.630859	49568.570313
1333.542969	49651.195313
1332.455078	49660.093750
1331.367188	49896.738281
1330.278320	50218.136719
1329.189453	50644.320313
1328.100586	51418.496094
1327.011719	51476.144531
1325.922852	52399.355469
1324.833008	53217.398438
1323.743164	53763.070313
1322.653320	55064.410156
1321.563477	56030.882813
1320.473633	58102.527344
1319.382813	60097.656250
1318.291992	61956.144531
1317.201172	64508.996094
1316.110352	66635.507813
1315.019531	68500.710938
1313.927734	70113.640625
1312.835938	71018.101563
1311.744141	70744.851563
1310.652344	70431.640625
1309.560547	69059.515625
1308.467773	67563.312500
1307.375000	65222.507813
1306.282227	63778.675781
1305.189453	61781.777344
1304.095703	60699.187500
1303.002930	58956.921875
1301.909180	57479.707031
1300.815430	57084.960938
1299.721680	56052.859375
1298.626953	55758.449219
1297.533203	55097.769531
1296.438477	55070.035156
1295.343750	54931.328125
1294.248047	55083.386719
1293.153320	54665.148438
1292.057617	55156.613281
1290.961914	55230.910156
1289.866211	55575.726563
1288.770508	55350.593750
1287.674805	55296.234375
1286.578125	55315.031250
1285.481445	55666.222656
1284.384766	55458.949219
1283.288086	55581.816406
1282.190430	54891.800781
1281.092773	54782.207031
1279.996094	54801.062500
1278.897461	54248.800781
1277.799805	54201.347656
1276.702148	54083.097656
1275.603516	54210.464844
1274.504883	53829.023438
1273.406250	53870.136719
1272.307617	53424.765625
1271.208008	52860.171875
1270.108398	53140.152344
1269.008789	53212.289063
1267.909180	52488.941406
1266.809570	52196.648438
1265.708984	52520.710938
1264.609375	51722.792969
1263.508789	51605.218750
1262.407227	51781.300781
1261.306641	51323.847656
1260.206055	51164.476563
1259.104492	51029.433594
1258.002930	51013.558594
1256.901367	50739.632813
1255.798828	50331.289063
1254.697266	50571.300781
1253.594727	50390.183594
1252.492188	50392.058594
1251.389648	50587.851563
1250.286133	50153.453125
1249.183594	50437.324219
1248.080078	50095.609375
1246.976563	50606.187500
1245.872070	50390.050781
1244.768555	50746.304688
1243.664063	50853.734375
1242.560547	50888.511719
1241.455078	51169.671875
1240.350586	51809.261719
1239.246094	51758.070313
1238.140625	52148.851563
1237.035156	52216.324219
1235.929688	52354.109375
1234.824219	52511.617188
1233.717773	52576.785156
1232.612305	52305.816406
1231.505859	51920.730469
1230.399414	51990.355469
1229.291992	51447.378906
1228.185547	51609.257813
1227.078125	50963.390625
1225.970703	51265.734375
1224.863281	50854.917969
1223.755859	50117.398438
1222.647461	50327.609375
1221.539063	49886.480469
1220.430664	49778.753906
1219.322266	50192.765625
1218.213867	49502.050781
1217.104492	49609.187500
1215.995117	49381.085938
1214.885742	49705.050781
1213.776367	49540.523438
1212.666992	49735.152344
1211.556641	50098.277344
1210.446289	49749.898438
1209.335938	50605.281250
1208.225586	50580.761719
1207.115234	50816.578125
1206.003906	51380.390625
1204.892578	51255.140625
1203.781250	51315.785156
1202.669922	51564.402344
1201.557617	51863.195313
1200.446289	51722.644531
1199.333984	51981.972656
1198.221680	52252.125000
1197.108398	52633.562500
1195.996094	53235.406250
1194.882813	53201.703125
1193.769531	52912.613281
1192.656250	53136.507813
1191.542969	53057.007813
1190.428711	52672.101563
1189.314453	51877.253906
1188.200195	51132.855469
1187.085938	51138.808594
1185.971680	50989.972656
1184.856445	50503.335938
1183.741211	50703.351563
1182.625977	50709.371094
1181.510742	50347.218750
1180.395508	50322.800781
1179.279297	50474.785156
1178.163086	50783.476563
1177.046875	50613.136719
1175.930664	50904.273438
1174.813477	50590.343750
1173.697266	50504.976563
1172.580078	50447.917969
1171.462891	50677.968750
1170.344727	50790.503906
