#Wave		#Intensity
2001.248047	36632.882813
2000.278320	37154.238281
1999.308594	36892.132813
1998.338867	36742.871094
1997.369141	36403.261719
1996.398438	37198.437500
1995.428711	37114.308594
1994.458008	36797.343750
1993.487305	36785.910156
1992.516602	37097.371094
1991.545898	37078.378906
1990.574219	37176.996094
1989.603516	37160.496094
1988.631836	37154.003906
1987.660156	36894.929688
1986.688477	37286.050781
1985.715820	37069.539063
1984.744141	37440.496094
1983.771484	37016.605469
1982.798828	37230.019531
1981.826172	37368.410156
1980.853516	37426.824219
1979.880859	37218.000000
1978.907227	37323.859375
1977.933594	37794.164063
1976.959961	37250.910156
1975.986328	37319.265625
1975.012695	37559.765625
1974.039063	37266.308594
1973.064453	37456.843750
1972.089844	37133.574219
1971.115234	37241.781250
1970.140625	37791.207031
1969.166016	37398.253906
1968.190430	37606.039063
1967.215820	37547.136719
1966.240234	37642.714844
1965.264648	37484.191406
1964.289063	37783.953125
1963.312500	38285.292969
1962.336914	38042.093750
1961.360352	37423.128906
1960.383789	37585.812500
1959.407227	38086.828125
1958.430664	37771.683594
1957.454102	37904.367188
1956.476563	38056.898438
1955.499023	38398.343750
1954.521484	37307.718750
1953.543945	37885.304688
1952.566406	37871.222656
1951.587891	37725.449219
1950.610352	37669.164063
1949.631836	38072.406250
1948.653320	38040.906250
1947.674805	38272.617188
1946.696289	38176.546875
1945.716797	37943.992188
1944.737305	38006.835938
1943.758789	38538.613281
1942.779297	38169.667969
1941.798828	38485.433594
1940.819336	38270.382813
1939.838867	37621.488281
1938.859375	38219.792969
1937.878906	38195.750000
1936.898438	37933.808594
1935.916992	38041.140625
1934.936523	37833.816406
1933.955078	38255.695313
1932.974609	38075.640625
1931.993164	37712.421875
1931.010742	38044.972656
1930.029297	38194.246094
1929.047852	38219.726563
1928.065430	37977.972656
1927.083008	37805.566406
1926.100586	38063.601563
1925.118164	38133.593750
1924.135742	38203.562500
1923.152344	38115.285156
1922.168945	38076.476563
1921.185547	38393.539063
1920.202148	38468.347656
1919.218750	38049.046875
1918.235352	38548.718750
1917.250977	38569.128906
1916.266602	38112.992188
1915.282227	38422.300781
1914.297852	38627.832031
1913.313477	38551.960938
1912.328125	38481.050781
1911.343750	38649.453125
1910.358398	38262.835938
1909.373047	38478.070313
1908.387695	38486.117188
1907.401367	38644.535156
1906.416016	38455.367188
1905.429688	38180.007813
1904.443359	38562.609375
1903.457031	38467.160156
1902.470703	38246.125000
1901.483398	38601.421875
1900.497070	38742.378906
1899.509766	38866.054688
1898.522461	38285.750000
1897.535156	38416.839844
1896.546875	38939.093750
1895.559570	38373.839844
1894.571289	38797.531250
1893.583008	38628.417969
1892.594727	38589.675781
1891.606445	38688.609375
1890.618164	38106.679688
1889.628906	38557.070313
1888.639648	38714.921875
1887.650391	38238.921875
1886.661133	38642.382813
1885.671875	38662.609375
1884.682617	38928.355469
1883.692383	38482.105469
1882.702148	38416.441406
1881.711914	39028.097656
1880.721680	38773.433594
1879.731445	38766.625000
1878.740234	38494.925781
1877.749023	38466.093750
1876.757813	38805.046875
1875.766602	38523.671875
1874.775391	38637.003906
1873.784180	38566.500000
1872.791992	38667.531250
1871.799805	38714.628906
1870.807617	39070.312500
1869.815430	38816.117188
1868.823242	38471.421875
1867.830078	38895.500000
1866.837891	38803.000000
1865.844727	39361.460938
1864.851563	38999.777344
1863.858398	39129.910156
1862.864258	39196.406250
1861.871094	38844.718750
1860.876953	39324.433594
1859.882813	38919.062500
1858.888672	39203.066406
1857.894531	38863.835938
1856.899414	39208.828125
1855.905273	39265.445313
1854.910156	39434.390625
1853.915039	39522.691406
1852.919922	39129.984375
1851.923828	39240.273438
1850.928711	39230.929688
1849.932617	39167.906250
1848.936523	39424.511719
1847.940430	39354.152344
1846.944336	39798.433594
1845.947266	39515.878906
1844.951172	39869.761719
1843.954102	39714.050781
1842.957031	39516.960938
1841.959961	40026.605469
1840.962891	40202.289063
1839.964844	39798.156250
1838.966797	39951.894531
1837.969727	39876.679688
1836.970703	39986.527344
1835.972656	40098.761719
1834.974609	39918.906250
1833.975586	40106.546875
1832.976563	40841.527344
1831.978516	40328.378906
1830.978516	40630.152344
1829.979492	40778.621094
1828.980469	40428.640625
1827.980469	40526.046875
1826.980469	40326.910156
1825.980469	40356.257813
1824.980469	40375.875000
1823.979492	40332.328125
1822.979492	40764.808594
1821.978516	40354.542969
1820.977539	41034.500000
1819.976563	40668.019531
1818.975586	40770.066406
1817.973633	40988.550781
1816.972656	40665.937500
1815.970703	41017.769531
1814.968750	41037.218750
1813.966797	41233.667969
1812.963867	41260.343750
1811.961914	41093.093750
1810.958984	41279.730469
1809.956055	40860.531250
1808.953125	41267.601563
1807.950195	41500.128906
1806.946289	41098.058594
1805.943359	41221.570313
1804.939453	41403.136719
1803.935547	41492.656250
1802.930664	41637.808594
1801.926758	41596.589844
1800.922852	41202.175781
1799.917969	41468.238281
1798.913086	40858.742188
1797.908203	41530.984375
1796.903320	41932.226563
1795.897461	41438.988281
1794.891602	41724.097656
1793.886719	42120.253906
1792.880859	41636.902344
1791.874023	41747.914063
1790.868164	41849.222656
1789.862305	41986.710938
1788.855469	42177.261719
1787.848633	42172.234375
1786.841797	41812.453125
1785.833984	42022.230469
1784.827148	42186.097656
1783.819336	42364.375000
1782.812500	42407.539063
1781.804688	42202.339844
1780.795898	42185.250000
1779.788086	42857.503906
1778.779297	42204.093750
1777.771484	42442.406250
1776.762695	42613.179688
1775.753906	41861.402344
1774.744141	42309.152344
1773.735352	42874.726563
1772.725586	42571.054688
1771.715820	42804.226563
1770.706055	43128.757813
1769.696289	42603.839844
1768.686523	42839.285156
1767.675781	42918.304688
1766.666016	43478.246094
1765.655273	43595.593750
1764.644531	43001.335938
1763.632813	42962.492188
1762.622070	43668.613281
1761.610352	43497.515625
1760.598633	43545.082031
1759.586914	43873.636719
1758.575195	43755.421875
1757.563477	44203.867188
1756.550781	43965.605469
1755.538086	44025.039063
1754.525391	44175.632813
1753.512695	44268.593750
1752.500000	44464.667969
1751.486328	44341.683594
1750.473633	44511.296875
1749.459961	44278.054688
1748.446289	44701.710938
1747.432617	44911.906250
1746.417969	44268.949219
1745.404297	45171.546875
1744.389648	44456.906250
1743.375000	45258.558594
1742.360352	45217.027344
1741.344727	45177.906250
1740.330078	45445.195313
1739.314453	45939.753906
1738.298828	45335.792969
1737.283203	45291.886719
1736.267578	45908.199219
1735.251953	46364.050781
1734.235352	46033.035156
1733.218750	46266.355469
1732.202148	46253.390625
1731.185547	46840.296875
1730.168945	46944.312500
1729.151367	47091.296875
1728.133789	47821.058594
1727.117188	47752.886719
1726.098633	48358.101563
1725.081055	48454.589844
1724.063477	48527.167969
1723.044922	48995.886719
1722.026367	48715.191406
1721.007813	49267.207031
1719.989258	49437.378906
1718.970703	49104.285156
1717.951172	50135.203125
1716.931641	49902.226563
1715.912109	50138.898438
1714.892578	50406.464844
1713.873047	50507.144531
1712.853516	50383.843750
1711.833008	50753.640625
1710.812500	50928.023438
1709.791992	50995.195313
1708.771484	51231.367188
1707.750000	50779.570313
1706.729492	50913.359375
1705.708008	50935.269531
1704.686523	51009.503906
1703.665039	51224.046875
1702.642578	51386.191406
1701.621094	51648.140625
1700.598633	51253.867188
1699.576172	51532.382813
1698.553711	51230.945313
1697.531250	51932.289063
1696.507813	51611.882813
1695.485352	51519.601563
1694.461914	51629.203125
1693.438477	51596.304688
1692.415039	51924.246094
1691.390625	52038.460938
1690.367188	52351.968750
1689.342773	52245.402344
1688.318359	52406.937500
1687.293945	52551.808594
1686.269531	52616.000000
1685.244141	52817.679688
1684.218750	53588.214844
1683.194336	53336.957031
1682.168945	53540.765625
1681.142578	53476.773438
1680.117188	53855.773438
1679.090820	53900.691406
1678.064453	53950.328125
1677.038086	54385.859375
1676.011719	54359.636719
1674.985352	53831.671875
1673.958008	54522.546875
1672.931641	55128.007813
1671.904297	54846.187500
1670.876953	54966.531250
1669.848633	54795.976563
1668.821289	54634.937500
1667.792969	55220.917969
1666.764648	55194.566406
1665.736328	55217.847656
1664.708008	55808.128906
1663.679688	55895.066406
1662.650391	55580.476563
1661.621094	55842.156250
1660.591797	56169.839844
1659.562500	56171.664063
1658.533203	55496.160156
1657.502930	55564.167969
1656.472656	55858.632813
1655.442383	56280.363281
1654.412109	55624.175781
1653.381836	56255.648438
1652.351563	55936.816406
1651.320313	55875.023438
1650.289063	56169.105469
1649.257813	56135.558594
1648.226563	56094.957031
1647.194336	55795.269531
1646.163086	56432.976563
1645.130859	56265.187500
1644.098633	56540.039063
1643.066406	56581.769531
1642.033203	56941.183594
1641.000977	56302.832031
1639.967773	56784.492188
1638.934570	56616.804688
1637.901367	56863.066406
1636.868164	57527.761719
1635.833984	57454.058594
1634.800781	57486.148438
1633.766602	57525.269531
1632.732422	57775.839844
1631.697266	58261.234375
1630.663086	58161.617188
1629.627930	58278.078125
1628.593750	58612.851563
1627.558594	58893.511719
1626.522461	58676.488281
1625.487305	58985.191406
1624.451172	59084.968750
1623.416016	59780.539063
1622.379883	59983.332031
1621.343750	60645.664063
1620.306641	60820.089844
1619.270508	61446.867188
1618.233398	62804.664063
1617.196289	63325.410156
1616.159180	64110.718750
1615.122070	65148.730469
1614.083984	66078.632813
1613.046875	67750.507813
1612.008789	68305.015625
1610.970703	69439.843750
1609.932617	69797.257813
1608.893555	69721.648438
1607.855469	69271.734375
1606.816406	68122.578125
1605.777344	67366.734375
1604.738281	66802.890625
1603.698242	65839.476563
1602.659180	64649.660156
1601.619141	64233.832031
1600.579102	63418.585938
1599.539063	62622.316406
1598.499023	62069.250000
1597.458008	61254.816406
1596.417969	61498.414063
1595.376953	60252.476563
1594.335938	60344.437500
1593.294922	60160.988281
1592.252930	60276.261719
1591.210938	60137.207031
1590.169922	59510.714844
1589.127930	60024.816406
1588.084961	59953.492188
1587.042969	59823.910156
1586.000000	59999.710938
1584.958008	60289.632813
1583.915039	60197.332031
1582.872070	60890.125000
1581.828125	61049.292969
1580.785156	61187.441406
1579.741211	62014.722656
1578.697266	62425.011719
1577.653320	62250.949219
1576.609375	62623.812500
1575.564453	63205.937500
1574.520508	63087.652344
1573.475586	63190.363281
1572.430664	64058.093750
1571.384766	63458.437500
1570.339844	63561.019531
1569.293945	63059.273438
1568.249023	62820.292969
1567.202148	62423.406250
1566.156250	62409.941406
1565.110352	61049.425781
1564.063477	61112.835938
1563.017578	60112.890625
1561.970703	60169.472656
1560.922852	59940.570313
1559.875977	59073.628906
1558.829102	59401.804688
1557.781250	59152.277344
1556.733398	59102.285156
1555.685547	59316.652344
1554.636719	58605.914063
1553.588867	58922.277344
1552.540039	58371.765625
1551.491211	58231.582031
1550.442383	58818.890625
1549.393555	58062.535156
1548.344727	57746.464844
1547.294922	58521.089844
1546.245117	58313.855469
1545.195313	58287.234375
1544.145508	58110.191406
1543.094727	57879.996094
1542.044922	57892.785156
1540.994141	58335.785156
1539.943359	58163.476563
1538.892578	57917.242188
1537.840820	58151.933594
1536.790039	58652.339844
1535.738281	58175.050781
1534.686523	57707.171875
1533.634766	58103.429688
1532.583008	57769.683594
1531.530273	58108.054688
1530.477539	58150.765625
1529.424805	58417.378906
1528.372070	58266.140625
1527.319336	57406.519531
1526.265625	57760.789063
1525.212891	57812.742188
1524.159180	57620.195313
1523.105469	57017.253906
1522.051758	57048.554688
1520.997070	57206.621094
1519.942383	56749.269531
1518.888672	57386.628906
1517.833984	56913.273438
1516.778320	56967.589844
1515.723633	56676.417969
1514.667969	57062.332031
1513.612305	56633.109375
1512.556641	56574.632813
1511.500977	56769.335938
1510.445313	56602.703125
1509.388672	55771.253906
1508.332031	56074.097656
1507.275391	56344.628906
1506.218750	56005.730469
1505.162109	55981.910156
1504.104492	55516.773438
1503.047852	55931.984375
1501.990234	56050.640625
1500.931641	55307.761719
1499.874023	55828.437500
1498.816406	55494.632813
1497.757813	55186.203125
1496.699219	55217.640625
1495.640625	55304.148438
1494.582031	55229.984375
1493.522461	55178.789063
1492.462891	55042.730469
1491.403320	55326.449219
1490.343750	54821.203125
1489.284180	55214.910156
1488.224609	55278.371094
1487.164063	55110.316406
1486.103516	55045.441406
1485.042969	55026.410156
1483.982422	55598.394531
1482.920898	55295.265625
1481.860352	55443.355469
1480.798828	55662.367188
1479.737305	55315.890625
1478.675781	56317.566406
1477.613281	55758.285156
1476.550781	56011.390625
1475.489258	55358.570313
1474.426758	55828.921875
1473.363281	55631.402344
1472.300781	56192.980469
1471.237305	56045.753906
1470.174805	56092.832031
1469.111328	56276.996094
1468.046875	56230.343750
1466.983398	56067.218750
1465.919922	56454.531250
1464.855469	56615.652344
1463.791016	57009.574219
1462.726563	57013.039063
1461.661133	57454.664063
1460.596680	57284.632813
1459.531250	57367.886719
1458.465820	57499.003906
1457.400391	57340.449219
1456.334961	57512.562500
1455.268555	58033.398438
1454.202148	58255.464844
1453.135742	58137.898438
1452.069336	58027.210938
1451.002930	57788.988281
1449.935547	58245.519531
1448.869141	58112.093750
1447.801758	58322.503906
1446.734375	58564.710938
1445.666016	59355.335938
1444.598633	59656.425781
1443.530273	60337.359375
1442.461914	60183.210938
1441.393555	60381.640625
1440.325195	61137.109375
1439.256836	61587.648438
1438.187500	61728.882813
1437.118164	62324.605469
1436.048828	62043.000000
1434.979492	62827.011719
1433.909180	62586.300781
1432.839844	62522.816406
1431.769531	62988.421875
1430.699219	62856.773438
1429.627930	63517.351563
1428.557617	63376.574219
1427.486328	63185.925781
1426.416016	63902.796875
1425.343750	63553.339844
1424.272461	63791.371094
1423.201172	64233.382813
1422.128906	64570.949219
1421.056641	65148.648438
1419.984375	64901.250000
1418.912109	65043.648438
1417.839844	65337.773438
1416.766602	65350.933594
1415.693359	64863.621094
1414.620117	64591.574219
1413.546875	64645.601563
1412.473633	63925.546875
1411.399414	64018.140625
1410.325195	63531.492188
1409.250977	63701.027344
1408.176758	64386.167969
1407.102539	64105.484375
1406.027344	65063.867188
1404.952148	64889.402344
1403.876953	65284.535156
1402.801758	65946.164063
1401.726563	66490.070313
1400.650391	67167.046875
1399.574219	66583.570313
1398.498047	66357.062500
1397.421875	66080.976563
1396.345703	65908.812500
1395.268555	65829.234375
1394.191406	65072.765625
1393.114258	65365.605469
1392.037109	65274.886719
1390.959961	65215.769531
1389.881836	64969.523438
1388.804688	64998.394531
1387.726563	64756.781250
1386.647461	65509.074219
1385.569336	65384.613281
1384.491211	65670.195313
1383.412109	66397.132813
1382.333008	66704.945313
1381.253906	66810.000000
1380.173828	66764.195313
1379.094727	66664.382813
1378.014648	67028.171875
1376.934570	66446.859375
1375.854492	66576.601563
1374.773438	66092.281250
1373.693359	65347.289063
1372.612305	65362.488281
1371.531250	64516.734375
1370.450195	64628.710938
1369.369141	64531.667969
1368.287109	63924.660156
1367.205078	64117.542969
1366.123047	63728.671875
1365.041016	63117.640625
1363.958984	63712.417969
1362.875977	63572.980469
1361.793945	63004.937500
1360.710938	63168.589844
1359.626953	62616.527344
1358.543945	62279.988281
1357.460938	62291.175781
1356.376953	62795.644531
1355.292969	62602.726563
1354.208984	62714.707031
1353.124023	62465.839844
1352.040039	62490.414063
1350.955078	61793.632813
1349.870117	61771.281250
1348.785156	62183.375000
1347.700195	62057.957031
1346.614258	62230.316406
1345.528320	62089.265625
1344.442383	62104.910156
1343.356445	61630.558594
1342.270508	62585.796875
1341.183594	61995.226563
1340.096680	62174.101563
1339.009766	61986.246094
1337.922852	62690.363281
1336.835938	62634.339844
1335.748047	62917.984375
1334.661133	63074.175781
1333.573242	63196.804688
1332.484375	63386.386719
1331.396484	63194.066406
1330.307617	63102.277344
1329.219727	63030.605469
1328.130859	63530.277344
1327.041992	63404.996094
1325.952148	63427.000000
1324.863281	64006.621094
1323.773438	63765.351563
1322.683594	63976.792969
1321.593750	63650.894531
1320.502930	64011.613281
1319.413086	63494.171875
1318.322266	63422.531250
1317.231445	63569.230469
1316.140625	63105.597656
1315.048828	62842.546875
1313.958008	63766.300781
1312.866211	63790.386719
1311.774414	64037.023438
1310.682617	63740.605469
1309.589844	63867.019531
1308.498047	63779.832031
1307.405273	64368.789063
1306.312500	64603.968750
1305.218750	65170.328125
1304.125977	65960.984375
1303.032227	67058.054688
1301.939453	67154.796875
1300.845703	68768.890625
1299.750977	69969.242188
1298.657227	71355.710938
1297.562500	73305.664063
1296.467773	74258.109375
1295.373047	74513.242188
1294.278320	74115.828125
1293.183594	74807.992188
1292.087891	74279.773438
1290.992188	73722.906250
1289.896484	72622.914063
1288.800781	72434.601563
1287.704102	71308.640625
1286.608398	70127.671875
1285.511719	69950.984375
1284.415039	69603.750000
1283.317383	68277.515625
1282.220703	67948.429688
1281.123047	67513.164063
1280.025391	67489.859375
1278.927734	66404.031250
1277.830078	66557.992188
1276.731445	66006.000000
1275.633789	65620.140625
1274.535156	65466.679688
1273.436523	65724.632813
1272.336914	65297.011719
1271.238281	64871.753906
1270.138672	64652.218750
1269.039063	64463.695313
1267.939453	64447.589844
1266.839844	63611.871094
1265.739258	63863.187500
1264.638672	63226.628906
1263.538086	63427.128906
1262.437500	63594.445313
1261.336914	63229.757813
1260.235352	62408.394531
1259.134766	62752.304688
1258.033203	62776.218750
1256.930664	62526.625000
1255.829102	62199.937500
1254.726563	62631.820313
1253.625000	62355.925781
1252.522461	61720.882813
1251.418945	62207.695313
1250.316406	61865.925781
1249.212891	61643.230469
1248.110352	61429.421875
1247.006836	61629.664063
1245.902344	61979.542969
1244.798828	61219.882813
1243.694336	61083.324219
1242.589844	61107.441406
1241.485352	60660.746094
1240.380859	61052.261719
1239.276367	61562.386719
1238.170898	61707.324219
1237.065430	61073.968750
1235.959961	61177.175781
1234.854492	61157.273438
1233.748047	62049.222656
1232.642578	61827.058594
1231.536133	61872.933594
1230.429688	61112.851563
1229.322266	61459.636719
1228.215820	62295.824219
1227.108398	62429.363281
1226.000977	62606.742188
1224.893555	62698.484375
1223.786133	63336.402344
1222.677734	63526.667969
1221.569336	63453.722656
1220.460938	63363.265625
1219.352539	63018.558594
1218.244141	63066.277344
1217.134766	63225.730469
1216.025391	62620.519531
1214.916016	62593.804688
1213.806641	62374.371094
1212.697266	62733.078125
1211.586914	62053.953125
1210.476563	62648.976563
1209.366211	62462.507813
1208.255859	62324.242188
1207.145508	62336.972656
1206.034180	63200.535156
1204.922852	62795.406250
1203.811523	62781.796875
1202.700195	62929.957031
1201.587891	62964.406250
1200.476563	63459.929688
1199.364258	63079.140625
1198.251953	63747.031250
1197.138672	63829.347656
1196.026367	64053.566406
1194.913086	64629.210938
1193.799805	64462.464844
1192.686523	64094.988281
1191.573242	64318.984375
1190.458984	64041.113281
1189.344727	63571.382813
1188.230469	64286.046875
1187.116211	63594.027344
1186.001953	63456.003906
1184.886719	63215.582031
1183.772461	63112.539063
1182.657227	63114.117188
1181.541016	62723.566406
1180.425781	62910.347656
1179.309570	62776.937500
1178.193359	62822.113281
1177.077148	61994.324219
1175.960938	62548.925781
1174.844727	62221.992188
1173.727539	61481.785156
1172.610352	61353.117188
1171.493164	62122.738281
1170.375977	61543.863281
