#Wave		#Intensity
2001.242188	40046.730469
2000.272461	39628.140625
1999.302734	39856.792969
1998.333008	39829.789063
1997.363281	40103.421875
1996.392578	40071.371094
1995.422852	39773.871094
1994.452148	39779.449219
1993.481445	40140.511719
1992.510742	39883.199219
1991.540039	39625.976563
1990.568359	40209.562500
1989.596680	39311.929688
1988.625977	40125.484375
1987.654297	40231.011719
1986.681641	39786.414063
1985.709961	39721.964844
1984.738281	40124.949219
1983.765625	39992.984375
1982.792969	39995.992188
1981.820313	40578.585938
1980.847656	40149.367188
1979.874023	40494.480469
1978.901367	40062.929688
1977.927734	40303.078125
1976.954102	40306.019531
1975.980469	39952.085938
1975.006836	40266.980469
1974.032227	40566.792969
1973.058594	40494.851563
1972.083984	40437.894531
1971.109375	40572.953125
1970.134766	40152.023438
1969.160156	40498.945313
1968.184570	40475.714844
1967.209961	40452.503906
1966.234375	40429.273438
1965.258789	40406.042969
1964.283203	40382.808594
1963.306641	40359.554688
1962.331055	40336.324219
1961.354492	40313.066406
1960.377930	40289.812500
1959.401367	40266.558594
1958.424805	40243.300781
1957.447266	40220.023438
1956.470703	40625.812500
1955.493164	40404.871094
1954.515625	40758.273438
1953.538086	40723.800781
1952.560547	40348.875000
1951.582031	40630.039063
1950.604492	40692.488281
1949.625977	40402.210938
1948.647461	40434.875000
1947.668945	40579.257813
1946.689453	41006.601563
1945.710938	40780.996094
1944.731445	40667.148438
1943.751953	40560.777344
1942.772461	40623.140625
1941.792969	41082.339844
1940.813477	40708.113281
1939.833008	41075.390625
1938.852539	40946.726563
1937.873047	40676.820313
1936.891602	41383.417969
1935.911133	40724.519531
1934.930664	41408.562500
1933.949219	41237.835938
1932.967773	40933.437500
1931.986328	40777.703125
1931.004883	41117.144531
1930.023438	40902.027344
1929.041016	41181.933594
1928.059570	41347.917969
1927.077148	40831.058594
1926.094727	41291.382813
1925.112305	41276.726563
1924.128906	41165.648438
1923.146484	41430.367188
1922.163086	41437.937500
1921.179688	41420.789063
1920.196289	41551.898438
1919.212891	41848.472656
1918.228516	41438.535156
1917.245117	41673.285156
1916.260742	41520.300781
1915.276367	41345.152344
1914.291992	41602.003906
1913.307617	41644.066406
1912.322266	41508.464844
1911.336914	41792.281250
1910.352539	41920.613281
1909.367188	41755.433594
1908.380859	41994.671875
1907.395508	41523.851563
1906.409180	41634.875000
1905.423828	41538.859375
1904.437500	41529.109375
1903.451172	41489.796875
1902.463867	41864.289063
1901.477539	41664.863281
1900.490234	41864.375000
1899.503906	42295.222656
1898.516602	42213.960938
1897.528320	41758.671875
1896.541016	42132.714844
1895.553711	41884.242188
1894.565430	42108.089844
1893.577148	41847.406250
1892.588867	42120.359375
1891.600586	42208.839844
1890.611328	42090.824219
1889.623047	41847.523438
1888.633789	42186.613281
1887.644531	42633.671875
1886.655273	41788.644531
1885.666016	42147.207031
1884.675781	42486.000000
1883.686523	42191.324219
1882.696289	42556.988281
1881.706055	42640.308594
1880.715820	42591.113281
1879.724609	42522.304688
1878.734375	42529.550781
1877.743164	42968.390625
1876.751953	42838.253906
1875.760742	42617.457031
1874.769531	42193.304688
1873.778320	42857.339844
1872.786133	42727.304688
1871.793945	43023.558594
1870.801758	42594.726563
1869.809570	42991.296875
1868.817383	42724.214844
1867.824219	42799.937500
1866.832031	43240.308594
1865.838867	43266.968750
1864.845703	43450.203125
1863.851563	42826.117188
1862.858398	43080.289063
1861.865234	42845.296875
1860.871094	42901.335938
1859.876953	42976.906250
1858.882813	43211.312500
1857.887695	43362.554688
1856.893555	43152.140625
1855.898438	43552.500000
1854.904297	43576.589844
1853.909180	43427.296875
1852.913086	43236.546875
1851.917969	43433.992188
1850.922852	43358.015625
1849.926758	43494.359375
1848.930664	43711.171875
1847.934570	43488.816406
1846.938477	43588.480469
1845.941406	43834.414063
1844.945313	43860.835938
1843.948242	43748.300781
1842.951172	43959.949219
1841.954102	44113.042969
1840.956055	44239.277344
1839.958984	44148.671875
1838.960938	43617.269531
1837.962891	43721.609375
1836.964844	44256.835938
1835.966797	44207.664063
1834.968750	44214.484375
1833.969727	44464.636719
1832.970703	44371.656250
1831.971680	44225.191406
1830.972656	44536.007813
1829.973633	44323.906250
1828.973633	44522.753906
1827.974609	44971.902344
1826.974609	44247.027344
1825.974609	44180.917969
1824.974609	44522.984375
1823.973633	44522.429688
1822.973633	44572.875000
1821.972656	44725.285156
1820.971680	44931.050781
1819.970703	44556.605469
1818.968750	44973.468750
1817.967773	44783.558594
1816.965820	44831.468750
1815.964844	45037.023438
1814.961914	44740.488281
1813.959961	44929.011719
1812.958008	44991.402344
1811.955078	45080.429688
1810.953125	45009.472656
1809.950195	45113.000000
1808.947266	45429.683594
1807.943359	45288.453125
1806.940430	45425.781250
1805.936523	45718.023438
1804.932617	45165.246094
1803.928711	45801.144531
1802.924805	45851.152344
1801.920898	45426.882813
1800.916016	44993.085938
1799.911133	46262.285156
1798.907227	45743.847656
1797.901367	45655.988281
1796.896484	45696.285156
1795.891602	45734.148438
1794.885742	45885.585938
1793.879883	45703.519531
1792.874023	45777.593750
1791.868164	46047.289063
1790.862305	45505.457031
1789.855469	46274.914063
1788.848633	45697.015625
1787.842773	46333.410156
1786.834961	46120.105469
1785.828125	46415.984375
1784.821289	45954.257813
1783.813477	46626.328125
1782.805664	46328.710938
1781.797852	46694.261719
1780.790039	46015.839844
1779.782227	46786.242188
1778.773438	46602.062500
1777.764648	46232.417969
1776.755859	46588.015625
1775.747070	46493.082031
1774.738281	46638.992188
1773.729492	46823.378906
1772.719727	47019.730469
1771.709961	46859.792969
1770.700195	47241.363281
1769.690430	46836.023438
1768.680664	47012.984375
1767.669922	47235.578125
1766.659180	47277.734375
1765.648438	47180.421875
1764.637695	46950.925781
1763.626953	46978.683594
1762.615234	47616.808594
1761.604492	47711.707031
1760.592773	47563.949219
1759.581055	48031.097656
1758.569336	47842.507813
1757.556641	48014.121094
1756.544922	48060.847656
1755.532227	48361.964844
1754.519531	48298.226563
1753.506836	48361.664063
1752.494141	48216.382813
1751.480469	48430.910156
1750.466797	48196.937500
1749.454102	48540.855469
1748.440430	48647.335938
1747.425781	48770.554688
1746.412109	48404.882813
1745.397461	48748.515625
1744.383789	49060.882813
1743.369141	48707.324219
1742.353516	49096.210938
1741.338867	49276.664063
1740.324219	49428.328125
1739.308594	49819.269531
1738.292969	49755.417969
1737.277344	49827.960938
1736.261719	50249.710938
1735.245117	50420.191406
1734.229492	50179.324219
1733.212891	50474.074219
1732.196289	50699.394531
1731.179688	51118.222656
1730.162109	51219.093750
1729.145508	51742.792969
1728.127930	51824.402344
1727.110352	51987.183594
1726.092773	52195.269531
1725.075195	52816.304688
1724.056641	52814.113281
1723.039063	53253.433594
1722.020508	53191.511719
1721.001953	53826.230469
1719.983398	54255.593750
1718.963867	54260.292969
1717.945313	54396.136719
1716.925781	54527.160156
1715.906250	54665.285156
1714.886719	55129.851563
1713.867188	55027.160156
1712.846680	54638.621094
1711.826172	55019.574219
1710.806641	54716.906250
1709.786133	55111.992188
1708.764648	55114.128906
1707.744141	54885.386719
1706.722656	54980.371094
1705.701172	54378.164063
1704.679688	54439.894531
1703.658203	54444.519531
1702.636719	54760.671875
1701.614258	54477.531250
1700.592773	54068.492188
1699.570313	54151.605469
1698.547852	53890.105469
1697.524414	53956.585938
1696.501953	54405.503906
1695.478516	54338.855469
1694.456055	53911.265625
1693.432617	54210.367188
1692.408203	53685.621094
1691.384766	54100.953125
1690.360352	54079.492188
1689.336914	54409.187500
1688.312500	53635.683594
1687.288086	53398.480469
1686.262695	53865.652344
1685.238281	54171.433594
1684.212891	54102.562500
1683.187500	54247.019531
1682.162109	53976.730469
1681.136719	54545.253906
1680.110352	53834.394531
1679.084961	54402.738281
1678.058594	53898.171875
1677.032227	53971.472656
1676.005859	54047.109375
1674.978516	54136.921875
1673.952148	54314.253906
1672.924805	54186.316406
1671.897461	54576.464844
1670.870117	54886.058594
1669.842773	54784.093750
1668.814453	54497.753906
1667.787109	54733.914063
1666.758789	54331.871094
1665.730469	55094.914063
1664.701172	55023.703125
1663.672852	54765.910156
1662.643555	54770.351563
1661.615234	54779.515625
1660.585938	55341.113281
1659.555664	55498.875000
1658.526367	55448.898438
1657.497070	55382.417969
1656.466797	55516.488281
1655.436523	55806.187500
1654.406250	55855.230469
1653.375977	55967.921875
1652.344727	55972.121094
1651.313477	55988.101563
1650.282227	55923.949219
1649.250977	56048.316406
1648.219727	56394.085938
1647.188477	56629.027344
1646.156250	56538.890625
1645.124023	56889.089844
1644.091797	56523.500000
1643.059570	56720.578125
1642.027344	57176.453125
1640.994141	56818.058594
1639.961914	57400.781250
1638.928711	57232.988281
1637.895508	57476.789063
1636.861328	57621.746094
1635.828125	57524.519531
1634.793945	57986.718750
1633.759766	58166.753906
1632.725586	58370.218750
1631.691406	58484.339844
1630.656250	58967.167969
1629.622070	58808.734375
1628.586914	59068.277344
1627.551758	59546.042969
1626.516602	58995.625000
1625.480469	59759.519531
1624.445313	59542.417969
1623.409180	60181.609375
1622.373047	60536.777344
1621.336914	61053.621094
1620.300781	61741.429688
1619.263672	62520.414063
1618.227539	63601.457031
1617.190430	65148.429688
1616.153320	66158.328125
1615.115234	67964.304688
1614.078125	69359.773438
1613.040039	70759.429688
1612.001953	72086.000000
1610.963867	72459.398438
1609.925781	72996.484375
1608.887695	71911.781250
1607.848633	70928.062500
1606.809570	69563.406250
1605.770508	68150.125000
1604.731445	67265.804688
1603.692383	65965.648438
1602.652344	64464.929688
1601.613281	63170.406250
1600.573242	62906.792969
1599.533203	62138.652344
1598.492188	61891.664063
1597.452148	61392.539063
1596.411133	61589.410156
1595.370117	61312.292969
1594.329102	60549.777344
1593.288086	60767.687500
1592.247070	60187.531250
1591.205078	60078.820313
1590.163086	59550.300781
1589.121094	59936.132813
1588.079102	59487.101563
1587.036133	59642.011719
1585.994141	59302.730469
1584.951172	59483.250000
1583.908203	59162.753906
1582.865234	59168.511719
1581.822266	59302.367188
1580.778320	59266.171875
1579.734375	59707.292969
1578.691406	59396.343750
1577.646484	59308.941406
1576.602539	59794.027344
1575.558594	59429.710938
1574.513672	59705.234375
1573.468750	60215.566406
1572.423828	60751.292969
1571.378906	60131.300781
1570.333008	60706.367188
1569.288086	61427.644531
1568.242188	60700.964844
1567.196289	60553.054688
1566.150391	60347.121094
1565.103516	59918.296875
1564.057617	59777.566406
1563.010742	59625.273438
1561.963867	59087.699219
1560.916992	59230.328125
1559.869141	58999.308594
1558.822266	58988.773438
1557.774414	58811.230469
1556.726563	58949.156250
1555.678711	58365.890625
1554.630859	58418.062500
1553.582031	58180.468750
1552.534180	58207.156250
1551.485352	57842.242188
1550.436523	58272.082031
1549.386719	58497.933594
1548.337891	58631.066406
1547.288086	58009.308594
1546.238281	58501.312500
1545.188477	58562.609375
1544.138672	58371.636719
1543.088867	57521.292969
1542.038086	58390.101563
1540.987305	58393.546875
1539.936523	57969.160156
1538.885742	58183.074219
1537.834961	58177.296875
1536.783203	58173.832031
1535.731445	58057.128906
1534.679688	58120.687500
1533.627930	57680.617188
1532.576172	57725.738281
1531.523438	57837.804688
1530.471680	57996.007813
1529.418945	57807.886719
1528.366211	57520.585938
1527.312500	57321.074219
1526.259766	57887.621094
1525.206055	57208.300781
1524.152344	56937.445313
1523.098633	57063.312500
1522.044922	57184.519531
1520.990234	57543.109375
1519.936523	57392.226563
1518.881836	57709.167969
1517.827148	57685.019531
1516.772461	57575.644531
1515.716797	57259.035156
1514.662109	57352.406250
1513.606445	57388.187500
1512.550781	57626.511719
1511.495117	57252.570313
1510.438477	58096.000000
1509.382813	57238.976563
1508.326172	57364.441406
1507.269531	57172.488281
1506.212891	57718.699219
1505.155273	57627.898438
1504.098633	57417.605469
1503.041016	56959.187500
1501.983398	57585.457031
1500.925781	57650.953125
1499.867188	57284.609375
1498.809570	57409.839844
1497.750977	57640.644531
1496.692383	57862.183594
1495.633789	57326.203125
1494.575195	57414.609375
1493.515625	57112.929688
1492.457031	57446.800781
1491.397461	57124.578125
1490.337891	57788.539063
1489.277344	57484.707031
1488.217773	57240.582031
1487.157227	57372.425781
1486.096680	57297.976563
1485.036133	57402.265625
1483.975586	57023.167969
1482.915039	56971.718750
1481.853516	57277.511719
1480.791992	57528.246094
1479.730469	57231.796875
1478.668945	57262.730469
1477.606445	57522.476563
1476.544922	57393.195313
1475.482422	57515.574219
1474.419922	57706.515625
1473.357422	57312.015625
1472.293945	57832.136719
1471.231445	57917.765625
1470.167969	57480.007813
1469.104492	58086.640625
1468.041016	57971.128906
1466.976563	57983.570313
1465.913086	58660.578125
1464.848633	58028.980469
1463.784180	58144.128906
1462.719727	58905.191406
1461.655273	58712.050781
1460.589844	58710.640625
1459.524414	58729.757813
1458.458984	58773.957031
1457.393555	59100.917969
1456.328125	58955.785156
1455.261719	58965.718750
1454.196289	59183.054688
1453.129883	58848.835938
1452.063477	59022.820313
1450.996094	59230.914063
1449.929688	59065.398438
1448.862305	59489.738281
1447.794922	59290.078125
1446.727539	59609.507813
1445.660156	59744.460938
1444.591797	59651.808594
1443.524414	60023.320313
1442.456055	60033.011719
1441.387695	59860.750000
1440.318359	60254.753906
1439.250000	60607.691406
1438.180664	60514.968750
1437.111328	60897.273438
1436.041992	61263.531250
1434.972656	61697.812500
1433.903320	61893.429688
1432.833008	61977.691406
1431.762695	61980.175781
1430.692383	62398.113281
1429.622070	61653.734375
1428.550781	62788.718750
1427.480469	63011.140625
1426.409180	62119.582031
1425.337891	62639.175781
1424.266602	62387.527344
1423.194336	61623.527344
1422.122070	61637.382813
1421.050781	61732.828125
1419.978516	61703.593750
1418.905273	61019.562500
1417.833008	61189.816406
1416.759766	61076.882813
1415.687500	61308.203125
1414.614258	61317.550781
1413.540039	61388.015625
1412.466797	60863.191406
1411.392578	61198.468750
1410.319336	61180.667969
1409.245117	60993.214844
1408.169922	61002.593750
1407.095703	61468.746094
1406.020508	61828.468750
1404.946289	61894.195313
1403.871094	62120.359375
1402.794922	62163.410156
1401.719727	61924.035156
1400.643555	61860.929688
1399.568359	61741.386719
1398.492188	61784.464844
1397.415039	61635.621094
1396.338867	61841.218750
1395.261719	62315.296875
1394.185547	62439.457031
1393.108398	62281.570313
1392.031250	62791.398438
1390.953125	63071.007813
1389.875977	63278.359375
1388.797852	63677.257813
1387.719727	63672.546875
1386.641602	64301.089844
1385.562500	64082.210938
1384.484375	64541.492188
1383.405273	64951.050781
1382.326172	65031.675781
1381.247070	65393.710938
1380.166992	65451.710938
1379.087891	65370.140625
1378.007813	65527.128906
1376.927734	65366.824219
1375.847656	64801.660156
1374.767578	64765.238281
1373.686523	64548.179688
1372.605469	64331.125000
1371.524414	64114.066406
1370.443359	63897.011719
1369.362305	63679.953125
1368.280273	63369.660156
1367.199219	63522.210938
1366.117188	62695.503906
1365.034180	62807.695313
1363.952148	62407.972656
1362.870117	62684.031250
1361.787109	61595.484375
1360.704102	62275.472656
1359.621094	61977.078125
1358.537109	61696.730469
1357.454102	60817.703125
1356.370117	61048.886719
1355.286133	61008.726563
1354.202148	60500.125000
1353.118164	60632.628906
1352.033203	60532.062500
1350.948242	60122.378906
1349.863281	59703.882813
1348.778320	60031.253906
1347.693359	60027.132813
1346.607422	59852.878906
1345.521484	59985.316406
1344.435547	59889.449219
1343.349609	59661.609375
1342.263672	59610.570313
1341.176758	60237.222656
1340.090820	60689.226563
1339.003906	59457.546875
1337.916016	59723.988281
1336.829102	60195.949219
1335.741211	60748.175781
1334.654297	60223.351563
1333.566406	60058.343750
1332.478516	59808.523438
1331.389648	59880.335938
1330.301758	60108.394531
1329.212891	60197.976563
1328.124023	60124.609375
1327.035156	59966.476563
1325.945313	60504.441406
1324.856445	60399.824219
1323.766602	60707.812500
1322.676758	60877.441406
1321.586914	60335.863281
1320.496094	60226.882813
1319.406250	60028.800781
1318.315430	60849.023438
1317.224609	60098.429688
1316.133789	60337.015625
1315.041992	60548.792969
1313.951172	60931.929688
1312.859375	60838.542969
1311.767578	60636.132813
1310.675781	60785.382813
1309.583008	60658.691406
1308.491211	60767.839844
1307.398438	60681.226563
1306.305664	60681.367188
1305.212891	60597.019531
1304.119141	61050.632813
1303.026367	61255.160156
1301.932617	61184.078125
1300.838867	61161.898438
1299.744141	60968.687500
1298.650391	61435.132813
1297.555664	61090.945313
1296.461914	61253.050781
1295.366211	61495.000000
1294.271484	61901.082031
1293.176758	61747.867188
1292.081055	61787.710938
1290.985352	61869.679688
1289.889648	62344.136719
1288.793945	61900.488281
1287.697266	62405.796875
1286.601563	62372.332031
1285.504883	61951.070313
1284.408203	61809.125000
1283.311523	61831.156250
1282.213867	61970.562500
1281.116211	61113.429688
1280.018555	60834.460938
1278.920898	61536.222656
1277.823242	61281.617188
1276.725586	60642.074219
1275.626953	60252.765625
1274.528320	60571.433594
1273.429688	60498.531250
1272.330078	60295.191406
1271.231445	59963.695313
1270.131836	59919.667969
1269.032227	59606.035156
1267.932617	59537.777344
1266.833008	59222.113281
1265.732422	59193.707031
1264.632813	59489.941406
1263.532227	58982.351563
1262.430664	58726.613281
1261.330078	58517.312500
1260.228516	58354.429688
1259.127930	58637.296875
1258.026367	57951.625000
1256.924805	58141.824219
1255.822266	58261.382813
1254.720703	57959.777344
1253.618164	57503.972656
1252.515625	57511.171875
1251.413086	57311.226563
1250.309570	57999.242188
1249.207031	57418.191406
1248.103516	57617.000000
1247.000000	57249.816406
1245.895508	57615.898438
1244.791992	57209.226563
1243.687500	57535.562500
1242.583008	57265.472656
1241.478516	57105.476563
1240.374023	56989.527344
1239.269531	57020.964844
1238.164063	57105.156250
1237.058594	56938.703125
1235.953125	56642.621094
1234.847656	56577.394531
1233.741211	56815.402344
1232.635742	56728.195313
1231.529297	56944.121094
1230.422852	56569.238281
1229.315430	56730.218750
1228.208984	56344.531250
1227.101563	56426.476563
1225.994141	56580.804688
1224.886719	56370.871094
1223.779297	56397.917969
1222.670898	55995.082031
1221.562500	55943.242188
1220.454102	56172.050781
1219.345703	55848.378906
1218.237305	56066.156250
1217.127930	55839.035156
1216.018555	55548.457031
1214.909180	55604.070313
1213.799805	55738.503906
1212.690430	55942.953125
1211.580078	55939.347656
1210.469727	55863.511719
1209.359375	55833.656250
1208.249023	55746.921875
1207.138672	56274.941406
1206.027344	56190.339844
1204.916016	56007.359375
1203.804688	56246.425781
1202.693359	56146.566406
1201.581055	56180.062500
1200.469727	56421.148438
1199.357422	56585.671875
1198.245117	56651.832031
1197.131836	56696.121094
1196.019531	57126.906250
1194.906250	57679.792969
1193.792969	57250.183594
1192.679688	57143.734375
1191.566406	57017.683594
1190.452148	56911.308594
1189.337891	57092.902344
1188.223633	57139.210938
1187.109375	57144.070313
1185.995117	57022.480469
1184.879883	57057.871094
1183.764648	57239.261719
1182.649414	57021.839844
1181.534180	56811.035156
1180.418945	56563.273438
1179.302734	56857.851563
1178.186523	56710.324219
1177.070313	56665.160156
1175.954102	57031.375000
1174.837891	56348.562500
1173.720703	56473.191406
1172.603516	56447.675781
1171.486328	56520.039063
1170.369141	56274.886719
