#Wave		#Intensity
2001.182617	36494.593750
2000.212891	36381.800781
1999.243164	36683.695313
1998.273438	36531.968750
1997.303711	36908.882813
1996.333008	36707.070313
1995.363281	36550.402344
1994.392578	37107.390625
1993.421875	36848.062500
1992.451172	37051.882813
1991.479492	36820.179688
1990.508789	36931.351563
1989.537109	36939.910156
1988.566406	37301.144531
1987.594727	36706.937500
1986.622070	36895.554688
1985.650391	37239.101563
1984.677734	36800.179688
1983.706055	37336.050781
1982.733398	37014.699219
1981.760742	37065.691406
1980.788086	36996.769531
1979.814453	36750.562500
1978.841797	37121.171875
1977.868164	37109.691406
1976.894531	37492.585938
1975.920898	37248.953125
1974.947266	37140.140625
1973.972656	37729.882813
1972.999023	37448.917969
1972.024414	37666.816406
1971.049805	37091.738281
1970.075195	37421.804688
1969.099609	37143.578125
1968.125000	37316.511719
1967.149414	37387.230469
1966.173828	37348.308594
1965.198242	37199.800781
1964.222656	37330.265625
1963.247070	37381.003906
1962.270508	37605.988281
1961.294922	37119.027344
1960.318359	37503.246094
1959.341797	37578.792969
1958.364258	37084.625000
1957.387695	37739.757813
1956.410156	37720.722656
1955.433594	37602.234375
1954.456055	37782.105469
1953.478516	37425.031250
1952.500000	37445.820313
1951.522461	37861.664063
1950.543945	37830.195313
1949.565430	37932.863281
1948.586914	38380.683594
1947.608398	37765.644531
1946.629883	38195.957031
1945.650391	37846.742188
1944.671875	38063.464844
1943.692383	37446.425781
1942.712891	38010.449219
1941.733398	38306.394531
1940.752930	38560.078125
1939.773438	38429.355469
1938.792969	37758.242188
1937.812500	38175.472656
1936.832031	37973.011719
1935.851563	38196.792969
1934.870117	38098.441406
1933.888672	38302.304688
1932.908203	38342.648438
1931.926758	38214.605469
1930.945313	38252.472656
1929.962891	37963.605469
1928.981445	38179.679688
1927.999023	38519.386719
1927.016602	38181.144531
1926.034180	38641.929688
1925.051758	38269.156250
1924.069336	38475.089844
1923.085938	38816.914063
1922.102539	38553.058594
1921.119141	37874.125000
1920.135742	38453.066406
1919.152344	38448.796875
1918.168945	38654.472656
1917.184570	38072.304688
1916.200195	38364.386719
1915.215820	38634.148438
1914.231445	38427.449219
1913.247070	38697.101563
1912.261719	38692.785156
1911.276367	38720.539063
1910.291992	38644.687500
1909.306641	38805.601563
1908.320313	38384.574219
1907.334961	38875.808594
1906.348633	38807.371094
1905.363281	38721.707031
1904.376953	38902.167969
1903.390625	38479.023438
1902.403320	38721.035156
1901.416992	39039.304688
1900.429688	38965.976563
1899.443359	38895.136719
1898.456055	39296.882813
1897.467773	38805.199219
1896.480469	39174.835938
1895.493164	38887.523438
1894.504883	38851.183594
1893.516602	38964.863281
1892.528320	38635.933594
1891.540039	39010.183594
1890.550781	39079.527344
1889.562500	39426.535156
1888.573242	38957.703125
1887.583984	38786.277344
1886.594727	39039.812500
1885.605469	39251.515625
1884.615234	39404.214844
1883.625000	39296.648438
1882.635742	39471.371094
1881.645508	39248.492188
1880.654297	39371.636719
1879.664063	39104.695313
1878.673828	39742.875000
1877.682617	39157.167969
1876.691406	39331.722656
1875.700195	39405.707031
1874.708984	39599.761719
1873.716797	39575.652344
1872.725586	39453.546875
1871.733398	39444.164063
1870.741211	39569.492188
1869.749023	39249.093750
1868.755859	39908.148438
1867.763672	39749.363281
1866.770508	39808.460938
1865.777344	39884.664063
1864.784180	39564.484375
1863.791016	39701.859375
1862.797852	39787.816406
1861.803711	39709.910156
1860.809570	39893.632813
1859.815430	39544.390625
1858.821289	39686.523438
1857.827148	40285.566406
1856.832031	40288.253906
1855.837891	40137.046875
1854.842773	40132.433594
1853.847656	40342.703125
1852.852539	40162.265625
1851.856445	40023.382813
1850.861328	40311.660156
1849.865234	40368.011719
1848.869141	40639.042969
1847.873047	40187.937500
1846.876953	40305.250000
1845.879883	40546.882813
1844.883789	40444.667969
1843.886719	40642.308594
1842.889648	40871.566406
1841.892578	40684.054688
1840.895508	40981.433594
1839.897461	40937.683594
1838.899414	40928.042969
1837.901367	40808.828125
1836.903320	40346.375000
1835.905273	40991.632813
1834.907227	41054.996094
1833.908203	41368.968750
1832.909180	41205.980469
1831.910156	40658.718750
1830.911133	41488.179688
1829.912109	41386.042969
1828.912109	41011.644531
1827.913086	41053.039063
1826.913086	41181.906250
1825.913086	41310.730469
1824.913086	41157.687500
1823.912109	41318.039063
1822.912109	41405.480469
1821.911133	41587.585938
1820.910156	41543.843750
1819.909180	41259.808594
1818.908203	41582.597656
1817.906250	41386.007813
1816.904297	41844.515625
1815.903320	41516.960938
1814.900391	41356.859375
1813.898438	41720.558594
1812.896484	41725.328125
1811.893555	41635.562500
1810.891602	41911.773438
1809.888672	41872.882813
1808.885742	41521.488281
1807.881836	41875.078125
1806.878906	41867.699219
1805.875000	41579.441406
1804.871094	41906.195313
1803.867188	41671.281250
1802.863281	42114.066406
1801.859375	42053.410156
1800.854492	41879.066406
1799.849609	42149.843750
1798.844727	42294.765625
1797.839844	42234.113281
1796.834961	42067.109375
1795.830078	42064.523438
1794.824219	42339.851563
1793.818359	42308.218750
1792.812500	42774.253906
1791.806641	42592.800781
1790.799805	42713.277344
1789.793945	42420.828125
1788.787109	42789.941406
1787.780273	42794.460938
1786.773438	42881.027344
1785.766602	43085.785156
1784.758789	42957.562500
1783.751953	42665.367188
1782.744141	42833.878906
1781.736328	43245.855469
1780.728516	43153.847656
1779.719727	43076.332031
1778.711914	43018.121094
1777.703125	43087.625000
1776.694336	43217.332031
1775.685547	42983.296875
1774.676758	43717.414063
1773.666992	43521.890625
1772.657227	43771.785156
1771.648438	43547.437500
1770.638672	43688.945313
1769.627930	43844.839844
1768.618164	43784.171875
1767.607422	43843.781250
1766.597656	44312.175781
1765.586914	43869.167969
1764.576172	44130.652344
1763.564453	44139.679688
1762.553711	44706.207031
1761.541992	43852.585938
1760.530273	44116.285156
1759.518555	44596.050781
1758.506836	44360.039063
1757.495117	44685.929688
1756.482422	45076.511719
1755.469727	44715.734375
1754.457031	45053.378906
1753.444336	44987.835938
1752.431641	45047.046875
1751.417969	45653.070313
1750.405273	45263.722656
1749.391602	45862.292969
1748.377930	45693.578125
1747.364258	45592.027344
1746.349609	45725.347656
1745.335938	45566.320313
1744.321289	45833.734375
1743.306641	45849.578125
1742.291992	46126.421875
1741.276367	45799.843750
1740.261719	45892.277344
1739.246094	46326.917969
1738.230469	46857.117188
1737.214844	46695.710938
1736.199219	47084.523438
1735.182617	46760.503906
1734.166992	47022.433594
1733.150391	47575.937500
1732.133789	47897.382813
1731.117188	47886.515625
1730.099609	47651.042969
1729.083008	48376.046875
1728.065430	48319.714844
1727.047852	48903.437500
1726.030273	49307.867188
1725.012695	49315.851563
1723.994141	49595.941406
1722.976563	49608.636719
1721.958008	49998.332031
1720.939453	49987.093750
1719.920898	50662.812500
1718.901367	50868.472656
1717.882813	50740.246094
1716.863281	50967.273438
1715.843750	50812.847656
1714.824219	51454.449219
1713.803711	51214.210938
1712.784180	51157.492188
1711.763672	51088.882813
1710.743164	51634.710938
1709.722656	51666.039063
1708.702148	50980.792969
1707.681641	51419.234375
1706.660156	51405.363281
1705.638672	52074.367188
1704.617188	51389.523438
1703.595703	52053.535156
1702.574219	51946.804688
1701.551758	51295.632813
1700.529297	51940.281250
1699.507813	51959.593750
1698.484375	51482.234375
1697.461914	51855.636719
1696.439453	51708.664063
1695.416016	51796.875000
1694.392578	51861.308594
1693.369141	52001.691406
1692.345703	52165.761719
1691.322266	51874.070313
1690.297852	52047.593750
1689.273438	52821.324219
1688.249023	52100.300781
1687.224609	52245.222656
1686.200195	52183.785156
1685.174805	52515.941406
1684.150391	52262.464844
1683.125000	52862.300781
1682.099609	52957.187500
1681.073242	53016.500000
1680.047852	53277.140625
1679.021484	53502.156250
1677.995117	53487.925781
1676.968750	53622.855469
1675.942383	53573.097656
1674.916016	53525.718750
1673.888672	53733.917969
1672.862305	53457.035156
1671.834961	53738.500000
1670.806641	53740.785156
1669.779297	54010.269531
1668.751953	54409.683594
1667.723633	54161.281250
1666.695313	54501.441406
1665.666992	54151.503906
1664.638672	54380.500000
1663.609375	54051.960938
1662.581055	54550.121094
1661.551758	54738.777344
1660.522461	54492.972656
1659.493164	54905.808594
1658.462891	54641.171875
1657.433594	54886.300781
1656.403320	55419.160156
1655.373047	54866.800781
1654.342773	55281.550781
1653.312500	54616.230469
1652.281250	55007.296875
1651.250977	55098.878906
1650.219727	55329.464844
1649.188477	55029.812500
1648.156250	56070.726563
1647.125000	55398.894531
1646.092773	55021.671875
1645.060547	55226.156250
1644.028320	55508.250000
1642.996094	55408.941406
1641.963867	55737.964844
1640.930664	55753.937500
1639.898438	56190.992188
1638.865234	56011.652344
1637.832031	56305.050781
1636.797852	56163.371094
1635.764648	56517.753906
1634.730469	56296.167969
1633.696289	56866.593750
1632.662109	56184.511719
1631.627930	56505.742188
1630.592773	57289.550781
1629.558594	57025.746094
1628.523438	56804.292969
1627.488281	57381.046875
1626.453125	57880.144531
1625.416992	58163.171875
1624.381836	58561.058594
1623.345703	59327.089844
1622.309570	59776.222656
1621.273438	60168.914063
1620.237305	61065.535156
1619.200195	61755.554688
1618.163086	62775.785156
1617.125977	63673.800781
1616.088867	64904.179688
1615.051758	66672.875000
1614.014648	67766.445313
1612.976563	69171.046875
1611.938477	70163.101563
1610.900391	71145.437500
1609.862305	71252.125000
1608.823242	70553.828125
1607.785156	70700.351563
1606.746094	69644.515625
1605.707031	68836.960938
1604.667969	67075.671875
1603.628906	65922.843750
1602.588867	65251.945313
1601.548828	63466.519531
1600.508789	63079.015625
1599.468750	62962.648438
1598.428711	61286.023438
1597.387695	61529.656250
1596.347656	60271.832031
1595.306641	60125.687500
1594.265625	60014.605469
1593.224609	59695.859375
1592.182617	59265.230469
1591.140625	58946.726563
1590.099609	58999.195313
1589.057617	59476.070313
1588.014648	59113.394531
1586.972656	59235.730469
1585.929688	58682.097656
1584.887695	59098.089844
1583.844727	59094.542969
1582.800781	59079.343750
1581.757813	59620.808594
1580.714844	59235.253906
1579.670898	59664.734375
1578.626953	59961.371094
1577.583008	60197.386719
1576.538086	60254.128906
1575.494141	60897.164063
1574.449219	60281.484375
1573.404297	60689.371094
1572.359375	60938.984375
1571.314453	60958.335938
1570.269531	61042.761719
1569.223633	61117.863281
1568.177734	60830.429688
1567.131836	60399.054688
1566.085938	60374.335938
1565.040039	59550.691406
1563.993164	59776.914063
1562.946289	59422.636719
1561.899414	59449.167969
1560.852539	58835.140625
1559.805664	58836.238281
1558.757813	58628.531250
1557.709961	58462.652344
1556.662109	58637.742188
1555.614258	59005.226563
1554.566406	59103.652344
1553.517578	58789.449219
1552.469727	58486.941406
1551.420898	58249.417969
1550.372070	58111.593750
1549.322266	58342.105469
1548.273438	58623.480469
1547.223633	58462.500000
1546.173828	58364.085938
1545.124023	58666.128906
1544.074219	58283.058594
1543.024414	58730.773438
1541.973633	58252.976563
1540.922852	58284.199219
1539.872070	58854.226563
1538.821289	58395.156250
1537.770508	58645.941406
1536.718750	58741.777344
1535.666992	58527.917969
1534.615234	58797.019531
1533.563477	58772.648438
1532.511719	58785.234375
1531.458984	59086.472656
1530.407227	58609.523438
1529.354492	58587.500000
1528.300781	59050.160156
1527.248047	58531.929688
1526.195313	58712.957031
1525.141602	58658.625000
1524.087891	58265.277344
1523.034180	58178.761719
1521.980469	58318.210938
1520.925781	58312.386719
1519.871094	58006.953125
1518.817383	58167.089844
1517.762695	57831.835938
1516.707031	58330.550781
1515.652344	58313.203125
1514.596680	58153.093750
1513.541016	58527.160156
1512.485352	57918.210938
1511.429688	57956.171875
1510.374023	57860.664063
1509.317383	58087.261719
1508.260742	58212.574219
1507.204102	57309.847656
1506.147461	57837.632813
1505.090820	57758.308594
1504.033203	58099.636719
1502.975586	57836.441406
1501.917969	57784.726563
1500.860352	58098.292969
1499.802734	58202.730469
1498.744141	58164.746094
1497.686523	58142.847656
1496.627930	58093.406250
1495.569336	57917.742188
1494.509766	57778.855469
1493.451172	57855.691406
1492.391602	58237.597656
1491.332031	58062.023438
1490.272461	57528.777344
1489.212891	57770.671875
1488.152344	57709.886719
1487.092773	58013.539063
1486.032227	57968.769531
1484.971680	58166.867188
1483.910156	58163.312500
1482.849609	57832.246094
1481.788086	57920.343750
1480.726563	57852.722656
1479.665039	57725.605469
1478.603516	57877.750000
1477.541992	58647.664063
1476.479492	58266.515625
1475.416992	58169.144531
1474.354492	58433.152344
1473.291992	58052.242188
1472.229492	59020.320313
1471.166016	58298.855469
1470.102539	58676.910156
1469.039063	58504.152344
1467.975586	58717.542969
1466.912109	58533.414063
1465.847656	58452.113281
1464.783203	58939.390625
1463.718750	59011.000000
1462.654297	59164.750000
1461.589844	59256.824219
1460.524414	59116.132813
1459.458984	59707.781250
1458.393555	59411.953125
1457.328125	59316.914063
1456.262695	59609.511719
1455.196289	59952.152344
1454.130859	60084.980469
1453.064453	59142.156250
1451.998047	59906.195313
1450.930664	60216.636719
1449.864258	59909.734375
1448.796875	60308.871094
1447.729492	60425.539063
1446.662109	60526.226563
1445.594727	60601.839844
1444.526367	61048.339844
1443.458008	61324.039063
1442.390625	61881.707031
1441.321289	62191.269531
1440.252930	61970.894531
1439.184570	63201.093750
1438.115234	62755.574219
1437.045898	62787.480469
1435.976563	63107.949219
1434.907227	64025.800781
1433.836914	64184.652344
1432.767578	64141.320313
1431.697266	64472.660156
1430.626953	64660.851563
1429.555664	64292.863281
1428.485352	65465.941406
1427.414063	65327.109375
1426.342773	65281.332031
1425.271484	65428.367188
1424.200195	65786.250000
1423.128906	65874.187500
1422.056641	65923.546875
1420.984375	66059.023438
1419.912109	65727.609375
1418.839844	66336.601563
1417.767578	66610.101563
1416.694336	66210.820313
1415.621094	65845.640625
1414.547852	65211.160156
1413.474609	65310.351563
1412.400391	65079.058594
1411.327148	65309.480469
1410.252930	65469.675781
1409.178711	64702.359375
1408.104492	65138.527344
1407.029297	65176.550781
1405.955078	65614.726563
1404.879883	65865.132813
1403.804688	66330.148438
1402.729492	66869.554688
1401.653320	66462.156250
1400.578125	66569.906250
1399.501953	66889.906250
1398.425781	67142.054688
1397.349609	66913.226563
1396.272461	66862.804688
1395.196289	66607.031250
1394.119141	66423.554688
1393.041992	66910.156250
1391.964844	66616.164063
1390.886719	67303.265625
1389.809570	67744.343750
1388.731445	67517.976563
1387.653320	67868.703125
1386.575195	67721.257813
1385.497070	67767.640625
1384.417969	68474.046875
1383.338867	68923.437500
1382.259766	69602.359375
1381.180664	69238.578125
1380.101563	69127.046875
1379.021484	69098.835938
1377.941406	69234.898438
1376.861328	69505.906250
1375.781250	68861.265625
1374.701172	68392.289063
1373.620117	68143.851563
1372.539063	68176.531250
1371.458008	67815.812500
1370.376953	67347.351563
1369.295898	67328.468750
1368.213867	66720.960938
1367.132813	66973.984375
1366.050781	66218.531250
1364.967773	66006.742188
1363.885742	66104.843750
1362.802734	66021.093750
1361.720703	65625.421875
1360.637695	66089.265625
1359.554688	65770.000000
1358.470703	65527.101563
1357.387695	65403.148438
1356.303711	65016.898438
1355.219727	65047.757813
1354.135742	64919.468750
1353.050781	64896.542969
1351.966797	64378.460938
1350.881836	64261.550781
1349.796875	63566.824219
1348.711914	64762.363281
1347.626953	64291.683594
1346.541016	63818.933594
1345.455078	64431.855469
1344.369141	63822.742188
1343.283203	64095.359375
1342.197266	63871.277344
1341.110352	63486.238281
1340.023438	64188.097656
1338.936523	63745.011719
1337.849609	64303.503906
1336.762695	64030.402344
1335.674805	64324.960938
1334.586914	64156.953125
1333.499023	64183.335938
1332.411133	64428.570313
1331.323242	64198.101563
1330.234375	64336.078125
1329.145508	64264.187500
1328.056641	64939.933594
1326.967773	64700.605469
1325.878906	65119.468750
1324.789063	64989.484375
1323.699219	65263.187500
1322.609375	65474.355469
1321.519531	65330.992188
1320.429688	65684.710938
1319.338867	65759.750000
1318.248047	66157.820313
1317.157227	66206.007813
1316.066406	67185.164063
1314.975586	67034.945313
1313.883789	66900.367188
1312.791992	66939.468750
1311.700195	67283.460938
1310.608398	67391.453125
1309.516602	67334.765625
1308.423828	66788.718750
1307.331055	67506.117188
1306.238281	67449.429688
1305.145508	67463.906250
1304.051758	67662.867188
1302.958984	68237.343750
1301.865234	67991.679688
1300.771484	68310.398438
1299.677734	69415.304688
1298.583008	70397.664063
1297.489258	71122.101563
1296.394531	72039.414063
1295.299805	72323.796875
1294.204102	72264.101563
1293.109375	72701.437500
1292.013672	72417.625000
1290.917969	71909.898438
1289.822266	71324.734375
1288.726563	71251.953125
1287.630859	70279.179688
1286.534180	69849.765625
1285.437500	69389.484375
1284.340820	69356.968750
1283.244141	68566.875000
1282.146484	68377.273438
1281.048828	67977.367188
1279.951172	67761.359375
1278.853516	67459.101563
1277.755859	67391.546875
1276.658203	66582.734375
1275.559570	66311.820313
1274.460938	66034.359375
1273.362305	65849.890625
1272.262695	65375.820313
1271.164063	65215.847656
1270.064453	65064.769531
1268.964844	64635.289063
1267.865234	64751.726563
1266.765625	64348.960938
1265.665039	64275.449219
1264.564453	63943.578125
1263.463867	64031.343750
1262.363281	63562.761719
1261.262695	63414.390625
1260.161133	63363.164063
1259.059570	63400.214844
1257.958008	63344.593750
1256.856445	63103.722656
1255.754883	63063.609375
1254.652344	62498.769531
1253.549805	63047.339844
1252.447266	62562.046875
1251.344727	62676.296875
1250.242188	62288.179688
1249.138672	62527.992188
1248.035156	61946.230469
1246.931641	62243.265625
1245.828125	61688.175781
1244.724609	62084.199219
1243.620117	62028.914063
1242.515625	61956.042969
1241.411133	61419.000000
1240.306641	62373.460938
1239.201172	61825.539063
1238.096680	61886.871094
1236.991211	62154.828125
1235.885742	61644.597656
1234.779297	61831.183594
1233.673828	62055.054688
1232.567383	61624.195313
1231.460938	61742.589844
1230.354492	62142.023438
1229.248047	62255.882813
1228.140625	62251.160156
1227.033203	62261.796875
1225.926758	62178.070313
1224.818359	62634.089844
1223.710938	62118.183594
1222.602539	62639.839844
1221.495117	62659.156250
1220.386719	62347.410156
1219.278320	62697.757813
1218.168945	62324.746094
1217.060547	61708.644531
1215.951172	61969.085938
1214.841797	61786.968750
1213.731445	61751.644531
1212.622070	61681.296875
1211.511719	62177.980469
1210.402344	61496.894531
1209.291992	61601.699219
1208.180664	61649.570313
1207.070313	62161.199219
1205.958984	61797.750000
1204.847656	61852.113281
1203.736328	62759.164063
1202.625000	62441.703125
1201.512695	61897.046875
1200.401367	62418.984375
1199.289063	62628.292969
1198.176758	63405.480469
1197.063477	62939.660156
1195.951172	63065.777344
1194.837891	63676.523438
1193.724609	64132.066406
1192.611328	63190.667969
1191.498047	63377.734375
1190.383789	63780.710938
1189.269531	63636.042969
1188.155273	63275.519531
1187.041016	63150.613281
1185.926758	63051.914063
1184.811523	62617.578125
1183.696289	62213.906250
1182.581055	61869.207031
1181.465820	62768.542969
1180.350586	62044.878906
1179.234375	62260.058594
1178.118164	62483.863281
1177.001953	62028.394531
1175.885742	61958.328125
1174.768555	61553.167969
1173.652344	61639.859375
1172.535156	61582.945313
1171.417969	61075.847656
1170.299805	60438.457031
