#Wave		#Intensity
2001.242188	40455.292969
2000.272461	40515.449219
1999.302734	40613.632813
1998.333008	40553.921875
1997.363281	40336.406250
1996.392578	40657.488281
1995.422852	40470.078125
1994.452148	40560.664063
1993.481445	40836.472656
1992.510742	40396.320313
1991.540039	40842.234375
1990.568359	40294.636719
1989.596680	40597.812500
1988.625977	40508.179688
1987.654297	40788.699219
1986.681641	40851.585938
1985.709961	40406.957031
1984.738281	40919.800781
1983.765625	40737.714844
1982.792969	40987.960938
1981.820313	41053.246094
1980.847656	40494.062500
1979.874023	41401.015625
1978.901367	40826.984375
1977.927734	41231.765625
1976.954102	41182.128906
1975.980469	41017.707031
1975.006836	41025.511719
1974.032227	41095.675781
1973.058594	41293.027344
1972.083984	41223.460938
1971.109375	40991.847656
1970.134766	41475.800781
1969.160156	41583.207031
1968.184570	41563.472656
1967.209961	41065.347656
1966.234375	41115.464844
1965.258789	41050.988281
1964.283203	41639.007813
1963.306641	41131.246094
1962.331055	41263.464844
1961.354492	41348.343750
1960.377930	41368.488281
1959.401367	41376.179688
1958.424805	41448.550781
1957.447266	41379.117188
1956.470703	41441.511719
1955.493164	41309.937500
1954.515625	41817.316406
1953.538086	41598.726563
1952.560547	41501.980469
1951.582031	41350.605469
1950.604492	41797.992188
1949.625977	41919.839844
1948.647461	41761.015625
1947.668945	41741.289063
1946.689453	41438.562500
1945.710938	41808.589844
1944.731445	41682.152344
1943.751953	41535.906250
1942.772461	41818.886719
1941.792969	41960.386719
1940.813477	42015.039063
1939.833008	41606.003906
1938.852539	41980.496094
1937.873047	41655.878906
1936.891602	41834.449219
1935.911133	41589.257813
1934.930664	41792.546875
1933.949219	41639.093750
1932.967773	41458.445313
1931.986328	41948.867188
1931.004883	41810.312500
1930.023438	41357.457031
1929.041016	41404.656250
1928.059570	41879.890625
1927.077148	41516.316406
1926.094727	41642.609375
1925.112305	42211.519531
1924.128906	42078.023438
1923.146484	41791.296875
1922.163086	42303.031250
1921.179688	42112.742188
1920.196289	42298.085938
1919.212891	41779.300781
1918.228516	41841.136719
1917.245117	42147.433594
1916.260742	42120.292969
1915.276367	41952.445313
1914.291992	42194.378906
1913.307617	41718.101563
1912.322266	42354.769531
1911.336914	42221.527344
1910.352539	42334.984375
1909.367188	42130.273438
1908.380859	42199.320313
1907.395508	42578.957031
1906.409180	42061.281250
1905.423828	42154.941406
1904.437500	42162.332031
1903.451172	41810.050781
1902.463867	42647.539063
1901.477539	41938.210938
1900.490234	42369.121094
1899.503906	42566.011719
1898.516602	42282.878906
1897.528320	42226.242188
1896.541016	42113.031250
1895.553711	41785.839844
1894.565430	42659.039063
1893.577148	42491.707031
1892.588867	42599.808594
1891.600586	42427.625000
1890.611328	42678.253906
1889.623047	42776.429688
1888.633789	42606.761719
1887.644531	42793.347656
1886.655273	42658.117188
1885.666016	42721.843750
1884.675781	42743.804688
1883.686523	42851.675781
1882.696289	42574.167969
1881.706055	42520.066406
1880.715820	43057.285156
1879.724609	42598.351563
1878.734375	42495.214844
1877.743164	42855.585938
1876.751953	42960.843750
1875.760742	42813.566406
1874.769531	42859.968750
1873.778320	42778.921875
1872.786133	43236.925781
1871.793945	43028.457031
1870.801758	43001.300781
1869.809570	42599.488281
1868.817383	42964.156250
1867.824219	42819.519531
1866.832031	43159.542969
1865.838867	43178.875000
1864.845703	42902.152344
1863.851563	42980.230469
1862.858398	43161.003906
1861.865234	43067.828125
1860.871094	42947.789063
1859.876953	43702.925781
1858.882813	43235.753906
1857.887695	43606.917969
1856.893555	43161.914063
1855.898438	43269.136719
1854.904297	43449.589844
1853.909180	43739.863281
1852.913086	43451.398438
1851.917969	43973.468750
1850.922852	43355.574219
1849.926758	43328.425781
1848.930664	43745.328125
1847.934570	43722.996094
1846.938477	43873.832031
1845.941406	43602.757813
1844.945313	43795.007813
1843.948242	44033.503906
1842.951172	43630.925781
1841.954102	43589.136719
1840.956055	43924.988281
1839.958984	43922.132813
1838.960938	44070.273438
1837.962891	44354.722656
1836.964844	44286.050781
1835.966797	43825.492188
1834.968750	44270.460938
1833.969727	43965.800781
1832.970703	44211.082031
1831.971680	44441.683594
1830.972656	43903.667969
1829.973633	44280.136719
1828.973633	44449.820313
1827.974609	44561.101563
1826.974609	44409.863281
1825.974609	45036.250000
1824.974609	44260.597656
1823.973633	45207.425781
1822.973633	44611.734375
1821.972656	44742.285156
1820.971680	44860.648438
1819.970703	44481.359375
1818.968750	44740.484375
1817.967773	44657.378906
1816.965820	44928.511719
1815.964844	44813.863281
1814.961914	44815.667969
1813.959961	44817.472656
1812.958008	44935.640625
1811.955078	44741.078125
1810.953125	45196.082031
1809.950195	44940.960938
1808.947266	45262.523438
1807.943359	45097.097656
1806.940430	45212.660156
1805.936523	45030.351563
1804.932617	44874.734375
1803.928711	45009.632813
1802.924805	45064.621094
1801.920898	45714.824219
1800.916016	45997.070313
1799.911133	45565.667969
1798.907227	45383.507813
1797.901367	45218.335938
1796.896484	45406.179688
1795.891602	45417.507813
1794.885742	45738.167969
1793.879883	45645.527344
1792.874023	45683.378906
1791.868164	45820.242188
1790.862305	45541.679688
1789.855469	45789.589844
1788.848633	45866.003906
1787.842773	46099.281250
1786.834961	45900.496094
1785.828125	46505.257813
1784.821289	46562.187500
1783.813477	46566.031250
1782.805664	46591.574219
1781.797852	46467.613281
1780.790039	46789.679688
1779.782227	46913.988281
1778.773438	46635.796875
1777.764648	46680.574219
1776.755859	46672.332031
1775.747070	47090.410156
1774.738281	46735.320313
1773.729492	47112.304688
1772.719727	46860.847656
1771.709961	47353.207031
1770.700195	47599.929688
1769.690430	47389.414063
1768.680664	47178.972656
1767.669922	47153.800781
1766.659180	47441.257813
1765.648438	47442.496094
1764.637695	47037.464844
1763.626953	48002.570313
1762.615234	47729.750000
1761.604492	48358.019531
1760.592773	48063.609375
1759.581055	48489.839844
1758.569336	48428.441406
1757.556641	48508.718750
1756.544922	48322.503906
1755.532227	49221.203125
1754.519531	48478.199219
1753.506836	48318.480469
1752.494141	48794.500000
1751.480469	48841.035156
1750.466797	49554.191406
1749.454102	48660.734375
1748.440430	49294.562500
1747.425781	48967.082031
1746.412109	49440.078125
1745.397461	49148.621094
1744.383789	49341.148438
1743.369141	50024.578125
1742.353516	49445.820313
1741.338867	49415.523438
1740.324219	49655.734375
1739.308594	49867.132813
1738.292969	50738.898438
1737.277344	50275.351563
1736.261719	50756.824219
1735.245117	50685.664063
1734.229492	50961.246094
1733.212891	50949.839844
1732.196289	51287.421875
1731.179688	51761.113281
1730.162109	51749.562500
1729.145508	52540.746094
1728.127930	52299.746094
1727.110352	52479.160156
1726.092773	52999.964844
1725.075195	52988.195313
1724.056641	53298.667969
1723.039063	53382.308594
1722.020508	54074.378906
1721.001953	54055.257813
1719.983398	54281.832031
1718.963867	54403.386719
1717.945313	54210.148438
1716.925781	54317.363281
1715.906250	54960.847656
1714.886719	54927.281250
1713.867188	55077.195313
1712.846680	55034.089844
1711.826172	54929.062500
1710.806641	54988.394531
1709.786133	55081.039063
1708.764648	54607.054688
1707.744141	54756.851563
1706.722656	55144.578125
1705.701172	55111.011719
1704.679688	54573.117188
1703.658203	54608.636719
1702.636719	54396.820313
1701.614258	54389.554688
1700.592773	54601.000000
1699.570313	54396.421875
1698.547852	54450.941406
1697.524414	54158.542969
1696.501953	53939.890625
1695.478516	54186.847656
1694.456055	54008.632813
1693.432617	54269.726563
1692.408203	53894.523438
1691.384766	54093.832031
1690.360352	53842.187500
1689.336914	53645.199219
1688.312500	53329.671875
1687.288086	53936.875000
1686.262695	54083.820313
1685.238281	54107.417969
1684.212891	54384.652344
1683.187500	53744.554688
1682.162109	54005.164063
1681.136719	54329.648438
1680.110352	54031.011719
1679.084961	54319.843750
1678.058594	53737.148438
1677.032227	54080.378906
1676.005859	53968.996094
1674.978516	53888.414063
1673.952148	54115.480469
1672.924805	54245.464844
1671.897461	54406.148438
1670.870117	54228.570313
1669.842773	54623.296875
1668.814453	54757.816406
1667.787109	54998.660156
1666.758789	54232.609375
1665.730469	54563.246094
1664.701172	54825.250000
1663.672852	54586.386719
1662.643555	54907.332031
1661.615234	54779.515625
1660.585938	54637.578125
1659.555664	54665.636719
1658.526367	55135.015625
1657.497070	55174.769531
1656.466797	55318.316406
1655.436523	55464.167969
1654.406250	55220.835938
1653.375977	55305.339844
1652.344727	55102.195313
1651.313477	55375.257813
1650.282227	55511.531250
1649.250977	55742.003906
1648.219727	55055.968750
1647.188477	55945.953125
1646.156250	55778.222656
1645.124023	55728.281250
1644.091797	55607.730469
1643.059570	55640.210938
1642.027344	55988.023438
1640.994141	55785.128906
1639.961914	56309.226563
1638.928711	56656.730469
1637.895508	56416.191406
1636.861328	55989.988281
1635.828125	56572.437500
1634.793945	56701.050781
1633.759766	56611.066406
1632.725586	56424.777344
1631.691406	57168.816406
1630.656250	56888.542969
1629.622070	56829.109375
1628.586914	57027.960938
1627.551758	56771.328125
1626.516602	57918.328125
1625.480469	57509.089844
1624.445313	57778.058594
1623.409180	58046.925781
1622.373047	58665.160156
1621.336914	58342.835938
1620.300781	59401.566406
1619.263672	60668.546875
1618.227539	61321.019531
1617.190430	62186.500000
1616.153320	63346.867188
1615.115234	64792.605469
1614.078125	66069.195313
1613.040039	67319.570313
1612.001953	68026.335938
1610.963867	68711.781250
1609.925781	69394.632813
1608.887695	68399.492188
1607.848633	67708.843750
1606.809570	66178.687500
1605.770508	65565.851563
1604.731445	64546.363281
1603.692383	63188.246094
1602.652344	62171.878906
1601.613281	61501.753906
1600.573242	60913.648438
1599.533203	59935.601563
1598.492188	59754.406250
1597.452148	59771.785156
1596.411133	59203.074219
1595.370117	58942.726563
1594.329102	58245.984375
1593.288086	58417.632813
1592.247070	58143.558594
1591.205078	57813.585938
1590.163086	57616.683594
1589.121094	57576.093750
1588.079102	57367.640625
1587.036133	57513.605469
1585.994141	57496.355469
1584.951172	57150.527344
1583.908203	56769.871094
1582.865234	57176.738281
1581.822266	56977.878906
1580.778320	56744.160156
1579.734375	57274.207031
1578.691406	57077.757813
1577.646484	57072.230469
1576.602539	57197.019531
1575.558594	57624.226563
1574.513672	57083.562500
1573.468750	57387.363281
1572.423828	57832.902344
1571.378906	57492.433594
1570.333008	57214.847656
1569.288086	57739.195313
1568.242188	57529.046875
1567.196289	57374.734375
1566.150391	56611.867188
1565.103516	57177.742188
1564.057617	56517.351563
1563.010742	56913.554688
1561.963867	56169.875000
1560.916992	56368.722656
1559.869141	56247.277344
1558.822266	56019.152344
1557.774414	56313.015625
1556.726563	56335.429688
1555.678711	56332.324219
1554.630859	55972.191406
1553.582031	56013.187500
1552.534180	55843.273438
1551.485352	55634.027344
1550.436523	55807.109375
1549.386719	55507.601563
1548.337891	55798.750000
1547.288086	55992.539063
1546.238281	55792.703125
1545.188477	55676.257813
1544.138672	55696.394531
1543.088867	55813.703125
1542.038086	55600.148438
1540.987305	55444.492188
1539.936523	55730.589844
1538.885742	55214.269531
1537.834961	55296.867188
1536.783203	55074.339844
1535.731445	55006.722656
1534.679688	55221.007813
1533.627930	54476.523438
1532.576172	54265.843750
1531.523438	54999.722656
1530.471680	54200.257813
1529.418945	54361.390625
1528.366211	54307.816406
1527.312500	53947.347656
1526.259766	54701.378906
1525.206055	54050.308594
1524.152344	54266.664063
1523.098633	54344.582031
1522.044922	54277.222656
1520.990234	53868.722656
1519.936523	53886.742188
1518.881836	53538.367188
1517.827148	53950.398438
1516.772461	53440.886719
1515.716797	53762.964844
1514.662109	54112.558594
1513.606445	53895.671875
1512.550781	53416.449219
1511.495117	53641.632813
1510.438477	53882.843750
1509.382813	53974.421875
1508.326172	53362.109375
1507.269531	53508.941406
1506.212891	53621.226563
1505.155273	53848.417969
1504.098633	53560.652344
1503.041016	53518.886719
1501.983398	53564.445313
1500.925781	53639.855469
1499.867188	53650.917969
1498.809570	53250.906250
1497.750977	53744.207031
1496.692383	53505.011719
1495.633789	53121.300781
1494.575195	53426.179688
1493.515625	53102.269531
1492.457031	53074.402344
1491.397461	53337.832031
1490.337891	53518.609375
1489.277344	53708.488281
1488.217773	53946.441406
1487.157227	53386.699219
1486.096680	52845.492188
1485.036133	53074.296875
1483.975586	53138.085938
1482.915039	52828.531250
1481.853516	53155.675781
1480.791992	53759.730469
1479.730469	53237.335938
1478.668945	53328.492188
1477.606445	53229.687500
1476.544922	52629.875000
1475.482422	53178.574219
1474.419922	53178.183594
1473.357422	53202.945313
1472.293945	53012.792969
1471.231445	53268.437500
1470.167969	53151.464844
1469.104492	52906.578125
1468.041016	53175.804688
1466.976563	53689.335938
1465.913086	53421.640625
1464.848633	53398.355469
1463.784180	53370.507813
1462.719727	53799.175781
1461.655273	53693.671875
1460.589844	54074.207031
1459.524414	53927.625000
1458.458984	54255.515625
1457.393555	54159.117188
1456.328125	54163.078125
1455.261719	54442.871094
1454.196289	53690.058594
1453.129883	53899.187500
1452.063477	54381.652344
1450.996094	54109.914063
1449.929688	54243.687500
1448.862305	54532.257813
1447.794922	54447.332031
1446.727539	54769.906250
1445.660156	54457.363281
1444.591797	54506.746094
1443.524414	54685.792969
1442.456055	55349.296875
1441.387695	54861.738281
1440.318359	55220.257813
1439.250000	55246.714844
1438.180664	55325.437500
1437.111328	56388.214844
1436.041992	55728.203125
1434.972656	56438.378906
1433.903320	56132.941406
1432.833008	56856.410156
1431.762695	56986.972656
1430.692383	57346.781250
1429.622070	57359.171875
1428.550781	57135.531250
1427.480469	57279.554688
1426.409180	57425.792969
1425.337891	57236.277344
1424.266602	57543.476563
1423.194336	57020.695313
1422.122070	56874.421875
1421.050781	56621.667969
1419.978516	56770.117188
1418.905273	56229.714844
1417.833008	56795.003906
1416.759766	56143.804688
1415.687500	56369.218750
1414.614258	55666.246094
1413.540039	56699.816406
1412.466797	56291.265625
1411.392578	55993.746094
1410.319336	56103.585938
1409.245117	56342.320313
1408.169922	56332.179688
1407.095703	56380.835938
1406.020508	56759.558594
1404.946289	56615.976563
1403.871094	57089.437500
1402.794922	56100.726563
1401.719727	56415.960938
1400.643555	56552.628906
1399.568359	57289.992188
1398.492188	56688.070313
1397.415039	56996.187500
1396.338867	57044.613281
1395.261719	57072.703125
1394.185547	57346.734375
1393.108398	57672.550781
1392.031250	58180.949219
1390.953125	58096.050781
1389.875977	58734.960938
1388.797852	58726.636719
1387.719727	58952.722656
1386.641602	59582.113281
1385.562500	59303.253906
1384.484375	60031.472656
1383.405273	59955.335938
1382.326172	60322.855469
1381.247070	60251.195313
1380.166992	60796.363281
1379.087891	61093.757813
1378.007813	60376.144531
1376.927734	60597.000000
1375.847656	60916.753906
1374.767578	60422.214844
1373.686523	60858.812500
1372.605469	60182.343750
1371.524414	60762.687500
1370.443359	60016.804688
1369.362305	59810.484375
1368.280273	60069.300781
1367.199219	59593.488281
1366.117188	59369.382813
1365.034180	58671.562500
1363.952148	58779.968750
1362.870117	58964.648438
1361.787109	58224.632813
1360.704102	58214.128906
1359.621094	58223.816406
1358.537109	57923.957031
1357.454102	57837.257813
1356.370117	57454.613281
1355.286133	57444.242188
1354.202148	58256.472656
1353.118164	57172.515625
1352.033203	57041.207031
1350.948242	56844.972656
1349.863281	57065.410156
1348.778320	56824.449219
1347.693359	57136.605469
1346.607422	56815.128906
1345.521484	56578.812500
1344.435547	57060.906250
1343.349609	56404.003906
1342.263672	56217.097656
1341.176758	56985.265625
1340.090820	56706.636719
1339.003906	56839.480469
1337.916016	56735.328125
1336.829102	56894.937500
1335.741211	56451.156250
1334.654297	56646.500000
1333.566406	56430.761719
1332.478516	55875.632813
1331.389648	56441.632813
1330.301758	56306.410156
1329.212891	56912.300781
1328.124023	56690.003906
1327.035156	56706.531250
1325.945313	56941.683594
1324.856445	57379.722656
1323.766602	57010.304688
1322.676758	57069.117188
1321.586914	57337.460938
1320.496094	56787.703125
1319.406250	57229.820313
1318.315430	57030.085938
1317.224609	56886.109375
1316.133789	56755.550781
1315.041992	57241.878906
1313.951172	57382.929688
1312.859375	57394.808594
1311.767578	56981.582031
1310.675781	56837.757813
1309.583008	57281.347656
1308.491211	57230.945313
1307.398438	57216.144531
1306.305664	57677.207031
1305.212891	57571.171875
1304.119141	57711.906250
1303.026367	57668.125000
1301.932617	57948.777344
1300.838867	57693.910156
1299.744141	57603.503906
1298.650391	57948.410156
1297.555664	58133.320313
1296.461914	57825.312500
1295.366211	58065.664063
1294.271484	58452.394531
1293.176758	59063.082031
1292.081055	58646.414063
1290.985352	58806.585938
1289.889648	58822.546875
1288.793945	59124.523438
1287.697266	58792.375000
1286.601563	59222.796875
1285.504883	59169.964844
1284.408203	58733.847656
1283.311523	58390.925781
1282.213867	58821.093750
1281.116211	57838.308594
1280.018555	58740.003906
1278.920898	57939.101563
1277.823242	58231.812500
1276.725586	57938.019531
1275.626953	57659.820313
1274.528320	57503.378906
1273.429688	56986.496094
1272.330078	57400.718750
1271.231445	56782.343750
1270.131836	56789.734375
1269.032227	57223.648438
1267.932617	56923.816406
1266.833008	56909.078125
1265.732422	55741.347656
1264.632813	55682.656250
1263.532227	56681.613281
1262.430664	56062.039063
1261.330078	56135.742188
1260.228516	55697.441406
1259.127930	56029.332031
1258.026367	55445.609375
1256.924805	55953.867188
1255.822266	55725.402344
1254.720703	55483.789063
1253.618164	55594.964844
1252.515625	55236.644531
1251.413086	55369.855469
1250.309570	55289.304688
1249.207031	54783.640625
1248.103516	54861.796875
1247.000000	54845.234375
1245.895508	54707.585938
1244.791992	54528.164063
1243.687500	54711.933594
1242.583008	55271.906250
1241.478516	54850.472656
1240.374023	54646.949219
1239.269531	54553.457031
1238.164063	54611.714844
1237.058594	54771.074219
1235.953125	54853.445313
1234.847656	55028.082031
1233.741211	54692.898438
1232.635742	54511.613281
1231.529297	55028.851563
1230.422852	54362.246094
1229.315430	55118.640625
1228.208984	54357.863281
1227.101563	54699.160156
1225.994141	54564.136719
1224.886719	54190.015625
1223.779297	54311.785156
1222.670898	54273.406250
1221.562500	54083.730469
1220.454102	54455.382813
1219.345703	54189.019531
1218.237305	54639.410156
1217.127930	54331.468750
1216.018555	54779.476563
1214.909180	54123.339844
1213.799805	54045.609375
1212.690430	54151.832031
1211.580078	53914.304688
1210.469727	54005.187500
1209.359375	54166.066406
1208.249023	54051.187500
1207.138672	54159.492188
1206.027344	54689.890625
1204.916016	54144.164063
1203.804688	54405.433594
1202.693359	54699.398438
1201.581055	54230.460938
1200.469727	54845.578125
1199.357422	54737.281250
1198.245117	54779.746094
1197.131836	55228.433594
1196.019531	55764.296875
1194.906250	55072.968750
1193.792969	55300.878906
1192.679688	54924.156250
1191.566406	55368.031250
1190.452148	55242.324219
1189.337891	55380.593750
1188.223633	55228.753906
1187.109375	55168.546875
1185.995117	55178.125000
1184.879883	55366.429688
1183.764648	55009.839844
1182.649414	55378.949219
1181.534180	55412.433594
1180.418945	55193.242188
1179.302734	54982.839844
1178.186523	54681.066406
1177.070313	54653.691406
1175.954102	54521.847656
1174.837891	54829.628906
1173.720703	54641.230469
1172.603516	54866.210938
1171.486328	53757.871094
1170.369141	53667.617188
