#Wave		#Intensity
2001.248047	38174.394531
2000.278320	38129.277344
1999.308594	38127.636719
1998.338867	38333.960938
1997.369141	38279.667969
1996.398438	37889.753906
1995.428711	38281.328125
1994.458008	38309.699219
1993.487305	38498.281250
1992.516602	38176.175781
1991.545898	38559.914063
1990.574219	38788.382813
1989.603516	38786.613281
1988.631836	38197.039063
1987.660156	38280.398438
1986.688477	38416.234375
1985.715820	38147.027344
1984.744141	38290.335938
1983.771484	38451.085938
1982.798828	38386.898438
1981.826172	38347.714844
1980.853516	38595.789063
1979.880859	38204.453125
1978.907227	38547.343750
1977.933594	38667.929688
1976.959961	39097.980469
1975.986328	38484.714844
1975.012695	38964.546875
1974.039063	38628.429688
1973.064453	38896.050781
1972.089844	38819.425781
1971.115234	38745.316406
1970.140625	38613.894531
1969.166016	39100.667969
1968.190430	38794.777344
1967.215820	39027.195313
1966.240234	38542.050781
1965.264648	38879.042969
1964.289063	38516.121094
1963.312500	38984.964844
1962.336914	38978.148438
1961.360352	38993.730469
1960.383789	39293.011719
1959.407227	38756.152344
1958.430664	38794.156250
1957.454102	39058.488281
1956.476563	38628.882813
1955.499023	38940.390625
1954.521484	39020.589844
1953.543945	39125.613281
1952.566406	39006.933594
1951.587891	39124.343750
1950.610352	39139.855469
1949.631836	38966.589844
1948.653320	38887.750000
1947.674805	39111.863281
1946.696289	38970.960938
1945.716797	39485.378906
1944.737305	39361.832031
1943.758789	38945.535156
1942.779297	38846.929688
1941.798828	39227.066406
1940.819336	39108.601563
1939.838867	39391.855469
1938.859375	39429.578125
1937.878906	39199.597656
1936.898438	39433.121094
1935.916992	39079.328125
1934.936523	39374.718750
1933.955078	39407.449219
1932.974609	39739.824219
1931.993164	39398.601563
1931.010742	39505.574219
1930.029297	39756.074219
1929.047852	39427.394531
1928.065430	39878.230469
1927.083008	39569.433594
1926.100586	39609.496094
1925.118164	39397.296875
1924.135742	39709.351563
1923.152344	39692.503906
1922.168945	39744.871094
1921.185547	39508.078125
1920.202148	39886.601563
1919.218750	39677.039063
1918.235352	39561.406250
1917.250977	39932.308594
1916.266602	39705.558594
1915.282227	39424.578125
1914.297852	39955.738281
1913.313477	40035.105469
1912.328125	40055.230469
1911.343750	40149.351563
1910.358398	40169.441406
1909.373047	40246.242188
1908.387695	40133.164063
1907.401367	40012.726563
1906.416016	40279.296875
1905.429688	40043.046875
1904.443359	40021.242188
1903.457031	39817.144531
1902.470703	39953.015625
1901.483398	40475.468750
1900.497070	39818.351563
1899.509766	40197.859375
1898.522461	40237.570313
1897.535156	40390.468750
1896.546875	40553.152344
1895.559570	40570.636719
1894.571289	40194.578125
1893.583008	40182.605469
1892.594727	40482.894531
1891.606445	40517.578125
1890.618164	40399.863281
1889.628906	40744.183594
1888.639648	40614.179688
1887.650391	40442.460938
1886.661133	40425.535156
1885.671875	40172.867188
1884.682617	40318.042969
1883.692383	40615.363281
1882.702148	40588.593750
1881.711914	40581.468750
1880.721680	40898.207031
1879.731445	41001.417969
1878.740234	40864.222656
1877.749023	40707.457031
1876.757813	40614.492188
1875.766602	40874.558594
1874.775391	41019.339844
1873.784180	41254.738281
1872.791992	40877.523438
1871.799805	40647.421875
1870.807617	40566.800781
1869.815430	40726.191406
1868.823242	41345.820313
1867.830078	41030.113281
1866.837891	41123.250000
1865.844727	41037.718750
1864.851563	41426.863281
1863.858398	40646.574219
1862.864258	40835.093750
1861.871094	41236.289063
1860.876953	41065.230469
1859.882813	41500.468750
1858.888672	41461.398438
1857.894531	41727.796875
1856.899414	41353.976563
1855.905273	41559.226563
1854.910156	41520.167969
1853.915039	41117.273438
1852.919922	41183.289063
1851.923828	41495.824219
1850.928711	41478.765625
1849.932617	41200.605469
1848.936523	41905.773438
1847.940430	41595.921875
1846.944336	41905.664063
1845.947266	41630.058594
1844.951172	41920.179688
1843.954102	41703.164063
1842.957031	41734.824219
1841.959961	41656.812500
1840.962891	41449.699219
1839.964844	41936.898438
1838.966797	41576.371094
1837.969727	41758.988281
1836.970703	42138.746094
1835.972656	42119.160156
1834.974609	41763.714844
1833.975586	41839.093750
1832.976563	42077.457031
1831.978516	42303.566406
1830.978516	41982.382813
1829.979492	41709.941406
1828.980469	42140.214844
1827.980469	42125.503906
1826.980469	42472.914063
1825.980469	42023.187500
1824.980469	42351.058594
1823.979492	42188.140625
1822.979492	42326.425781
1821.978516	42343.253906
1820.977539	42275.097656
1819.976563	42420.574219
1818.975586	42667.929688
1817.973633	42687.105469
1816.972656	42461.234375
1815.970703	42531.375000
1814.968750	42635.441406
1813.966797	42591.554688
1812.963867	42705.269531
1811.961914	42518.371094
1810.958984	42600.546875
1809.956055	42399.191406
1808.953125	42670.324219
1807.950195	42384.246094
1806.946289	42379.195313
1805.943359	42727.667969
1804.939453	42816.972656
1803.935547	42792.480469
1802.930664	42951.921875
1801.926758	43222.609375
1800.922852	43205.312500
1799.917969	43129.964844
1798.913086	43238.441406
1797.908203	42839.105469
1796.903320	43045.550781
1795.897461	43252.195313
1794.891602	43458.843750
1793.886719	43665.289063
1792.880859	43871.933594
1791.874023	44078.781250
1790.868164	43167.800781
1789.862305	43237.453125
1788.855469	43654.710938
1787.848633	43779.761719
1786.841797	43161.476563
1785.833984	43380.667969
1784.827148	43886.855469
1783.819336	43485.957031
1782.812500	43610.917969
1781.804688	43456.140625
1780.795898	43884.808594
1779.788086	43703.519531
1778.779297	43859.675781
1777.771484	43984.453125
1776.762695	43998.367188
1775.753906	44204.964844
1774.744141	43814.257813
1773.735352	43678.914063
1772.725586	43700.085938
1771.715820	44019.707031
1770.706055	44274.238281
1769.696289	44126.867188
1768.686523	44311.523438
1767.675781	44171.410156
1766.666016	44387.250000
1765.655273	44444.328125
1764.644531	44724.945313
1763.632813	44695.410156
1762.622070	45050.378906
1761.610352	44511.433594
1760.598633	44746.191406
1759.586914	45374.761719
1758.575195	44687.156250
1757.563477	45082.617188
1756.550781	45158.667969
1755.538086	45013.878906
1754.525391	45593.843750
1753.512695	45564.191406
1752.500000	45608.910156
1751.486328	45442.550781
1750.473633	45360.179688
1749.459961	45457.652344
1748.446289	45344.140625
1747.432617	45940.093750
1746.417969	45965.519531
1745.404297	46007.703125
1744.389648	46140.898438
1743.375000	46029.750000
1742.360352	46225.148438
1741.344727	46250.492188
1740.330078	46208.796875
1739.314453	46473.460938
1738.298828	46400.632813
1737.283203	46344.574219
1736.267578	46874.585938
1735.251953	46954.781250
1734.235352	47001.472656
1733.218750	47241.796875
1732.202148	47431.835938
1731.185547	47769.980469
1730.168945	47596.648438
1729.151367	47884.472656
1728.133789	48375.226563
1727.117188	48206.652344
1726.098633	48580.171875
1725.081055	48679.003906
1724.063477	48932.953125
1723.044922	48859.851563
1722.026367	49025.386719
1721.007813	49159.851563
1719.989258	49642.511719
1718.970703	50039.148438
1717.951172	50144.742188
1716.931641	49954.675781
1715.912109	49950.593750
1714.892578	50201.511719
1713.873047	50514.292969
1712.853516	51034.218750
1711.833008	50684.566406
1710.812500	50658.917969
1709.791992	50368.976563
1708.771484	50207.691406
1707.750000	50920.000000
1706.729492	51018.070313
1705.708008	50654.503906
1704.686523	50647.906250
1703.665039	50967.164063
1702.642578	50722.699219
1701.621094	51205.890625
1700.598633	50823.582031
1699.576172	50738.515625
1698.553711	50491.878906
1697.531250	50542.328125
1696.507813	50609.386719
1695.485352	50845.054688
1694.461914	50748.171875
1693.438477	50703.558594
1692.415039	50939.082031
1691.390625	51392.875000
1690.367188	51098.992188
1689.342773	50757.761719
1688.318359	51301.484375
1687.293945	51323.218750
1686.269531	51525.167969
1685.244141	51444.898438
1684.218750	51869.578125
1683.194336	51177.785156
1682.168945	51569.183594
1681.142578	52401.125000
1680.117188	52394.195313
1679.090820	52382.527344
1678.064453	52373.234375
1677.038086	51746.000000
1676.011719	52328.605469
1674.985352	52413.988281
1673.958008	52558.496094
1672.931641	52634.339844
1671.904297	52483.066406
1670.876953	52795.398438
1669.848633	52431.328125
1668.821289	52696.269531
1667.792969	53169.132813
1666.764648	52890.265625
1665.736328	53289.664063
1664.708008	53088.835938
1663.679688	53358.140625
1662.650391	53044.003906
1661.621094	53346.269531
1660.591797	53164.453125
1659.562500	53509.078125
1658.533203	53773.335938
1657.502930	53497.144531
1656.472656	53490.000000
1655.442383	53567.773438
1654.412109	53794.089844
1653.381836	53402.546875
1652.351563	53569.871094
1651.320313	53239.785156
1650.289063	52940.453125
1649.257813	53564.878906
1648.226563	53944.070313
1647.194336	53395.089844
1646.163086	54115.652344
1645.130859	53686.914063
1644.098633	53404.289063
1643.066406	53820.824219
1642.033203	53345.292969
1641.000977	53966.390625
1639.967773	53933.269531
1638.934570	53944.847656
1637.901367	54511.410156
1636.868164	54203.109375
1635.833984	54983.343750
1634.800781	54374.214844
1633.766602	54662.988281
1632.732422	54040.031250
1631.697266	55085.183594
1630.663086	54734.820313
1629.627930	55025.667969
1628.593750	54849.175781
1627.558594	54970.875000
1626.522461	55012.730469
1625.487305	55481.656250
1624.451172	55915.218750
1623.416016	55914.652344
1622.379883	56261.199219
1621.343750	56708.457031
1620.306641	57263.398438
1619.270508	57508.718750
1618.233398	58363.312500
1617.196289	59421.468750
1616.159180	60296.500000
1615.122070	61173.562500
1614.083984	62062.015625
1613.046875	62971.230469
1612.008789	63835.632813
1610.970703	64561.617188
1609.932617	64685.859375
1608.893555	65205.511719
1607.855469	63759.753906
1606.816406	63224.433594
1605.777344	62429.699219
1604.738281	61515.996094
1603.698242	60509.097656
1602.659180	60680.640625
1601.619141	59407.824219
1600.579102	58785.039063
1599.539063	58157.804688
1598.499023	57217.792969
1597.458008	57221.609375
1596.417969	56700.050781
1595.376953	56643.257813
1594.335938	56185.007813
1593.294922	56231.000000
1592.252930	55912.980469
1591.210938	55420.105469
1590.169922	55818.410156
1589.127930	55421.335938
1588.084961	55581.664063
1587.042969	55431.882813
1586.000000	55135.308594
1584.958008	55871.203125
1583.915039	55493.101563
1582.872070	55746.449219
1581.828125	55883.242188
1580.785156	56155.050781
1579.741211	56773.679688
1578.697266	56959.097656
1577.653320	56688.257813
1576.609375	56896.890625
1575.564453	56972.824219
1574.520508	57351.144531
1573.475586	57315.324219
1572.430664	56895.828125
1571.384766	56983.324219
1570.339844	57661.230469
1569.293945	56965.312500
1568.249023	56594.964844
1567.202148	56315.355469
1566.156250	55633.980469
1565.110352	55287.285156
1564.063477	54833.894531
1563.017578	54970.371094
1561.970703	54962.878906
1560.922852	54433.195313
1559.875977	54780.824219
1558.829102	54478.718750
1557.781250	54473.632813
1556.733398	54245.898438
1555.685547	53955.640625
1554.636719	54150.019531
1553.588867	54274.789063
1552.540039	54327.667969
1551.491211	53900.882813
1550.442383	53766.148438
1549.393555	54168.843750
1548.344727	54536.656250
1547.294922	54174.960938
1546.245117	54234.734375
1545.195313	54634.734375
1544.145508	54569.429688
1543.094727	54524.968750
1542.044922	54610.074219
1540.994141	54334.320313
1539.943359	54541.992188
1538.892578	54650.164063
1537.840820	54954.789063
1536.790039	54917.230469
1535.738281	54796.488281
1534.686523	54645.750000
1533.634766	54661.390625
1532.583008	54794.816406
1531.530273	54944.359375
1530.477539	54659.781250
1529.424805	54553.050781
1528.372070	54467.128906
1527.319336	54748.148438
1526.265625	54535.320313
1525.212891	54267.207031
1524.159180	54492.750000
1523.105469	54554.484375
1522.051758	54602.363281
1520.997070	54265.265625
1519.942383	54250.949219
1518.888672	54031.546875
1517.833984	54072.566406
1516.778320	53848.664063
1515.723633	53459.019531
1514.667969	53661.296875
1513.612305	53918.753906
1512.556641	53731.863281
1511.500977	53462.183594
1510.445313	53636.691406
1509.388672	53804.238281
1508.332031	53162.050781
1507.275391	52954.753906
1506.218750	53352.257813
1505.162109	53390.984375
1504.104492	53133.179688
1503.047852	53406.335938
1501.990234	53403.664063
1500.931641	53529.640625
1499.874023	53747.445313
1498.816406	53820.492188
1497.757813	53698.343750
1496.699219	53723.160156
1495.640625	53532.210938
1494.582031	53690.144531
1493.522461	53490.085938
1492.462891	53829.195313
1491.403320	53328.714844
1490.343750	54220.386719
1489.284180	54004.320313
1488.224609	53618.691406
1487.164063	53739.722656
1486.103516	54078.406250
1485.042969	53796.066406
1483.982422	54173.558594
1482.920898	54702.070313
1481.860352	54703.714844
1480.798828	54567.984375
1479.737305	54757.351563
1478.675781	54401.941406
1477.613281	54490.582031
1476.550781	54675.277344
1475.489258	54596.851563
1474.426758	54804.328125
1473.363281	54661.875000
1472.300781	54823.535156
1471.237305	55426.296875
1470.174805	55363.792969
1469.111328	55065.949219
1468.046875	55078.917969
1466.983398	55352.273438
1465.919922	55109.398438
1464.855469	55357.527344
1463.791016	55473.156250
1462.726563	55709.714844
1461.661133	55806.976563
1460.596680	55694.281250
1459.531250	56094.917969
1458.465820	56372.242188
1457.400391	56083.906250
1456.334961	56149.078125
1455.268555	56287.175781
1454.202148	56131.199219
1453.135742	56307.988281
1452.069336	56541.667969
1451.002930	56212.593750
1449.935547	56728.628906
1448.869141	56809.527344
1447.801758	57181.828125
1446.734375	57285.378906
1445.666016	57516.343750
1444.598633	57337.617188
1443.530273	57702.718750
1442.461914	58217.824219
1441.393555	58432.523438
1440.325195	59029.167969
1439.256836	59686.980469
1438.187500	59912.660156
1437.118164	60079.164063
1436.048828	60888.667969
1434.979492	60752.773438
1433.909180	60925.843750
1432.839844	61019.363281
1431.769531	60933.464844
1430.699219	60929.320313
1429.627930	60775.367188
1428.557617	61025.425781
1427.486328	61572.640625
1426.416016	61575.179688
1425.343750	61643.496094
1424.272461	61775.285156
1423.201172	61825.394531
1422.128906	61870.953125
1421.056641	61540.234375
1419.984375	61991.468750
1418.912109	62025.632813
1417.839844	61749.429688
1416.766602	61833.449219
1415.693359	61561.902344
1414.620117	61870.070313
1413.546875	61068.894531
1412.473633	60670.875000
1411.399414	60578.496094
1410.325195	60943.171875
1409.250977	60262.621094
1408.176758	60717.683594
1407.102539	60901.226563
1406.027344	60856.351563
1404.952148	61867.136719
1403.876953	62308.015625
1402.801758	61842.605469
1401.726563	62943.027344
1400.650391	63550.625000
1399.574219	62760.015625
1398.498047	62872.906250
1397.421875	62940.605469
1396.345703	62832.207031
1395.268555	61940.734375
1394.191406	62504.964844
1393.114258	62216.214844
1392.037109	62617.785156
1390.959961	62320.097656
1389.881836	62178.089844
1388.804688	62468.976563
1387.726563	62897.250000
1386.647461	63104.511719
1385.569336	63045.828125
1384.491211	63861.230469
1383.412109	64264.152344
1382.333008	64117.457031
1381.253906	64416.613281
1380.173828	65044.324219
1379.094727	64634.222656
1378.014648	64723.835938
1376.934570	64934.910156
1375.854492	64252.851563
1374.773438	64106.320313
1373.693359	64018.308594
1372.612305	63280.562500
1371.531250	63246.675781
1370.450195	62832.968750
1369.369141	62531.765625
1368.287109	62376.703125
1367.205078	61502.882813
1366.123047	61761.292969
1365.041016	61525.609375
1363.958984	61238.367188
1362.875977	60666.160156
1361.793945	60810.066406
1360.710938	60902.312500
1359.626953	60734.285156
1358.543945	60622.390625
1357.460938	60389.429688
1356.376953	60405.437500
1355.292969	60260.027344
1354.208984	60509.156250
1353.124023	59610.796875
1352.040039	59799.449219
1350.955078	60079.882813
1349.870117	59688.273438
1348.785156	60313.484375
1347.700195	59823.449219
1346.614258	59349.265625
1345.528320	59947.332031
1344.442383	59759.722656
1343.356445	59880.937500
1342.270508	59970.785156
1341.183594	59765.375000
1340.096680	59486.242188
1339.009766	59712.488281
1337.922852	60025.828125
1336.835938	60144.609375
1335.748047	59765.046875
1334.661133	60717.160156
1333.573242	60699.492188
1332.484375	60561.222656
1331.396484	60467.664063
1330.307617	60499.152344
1329.219727	60463.667969
1328.130859	60865.605469
1327.041992	60879.152344
1325.952148	60921.691406
1324.863281	60785.769531
1323.773438	61361.296875
1322.683594	60821.765625
1321.593750	61089.433594
1320.502930	60793.089844
1319.413086	60793.242188
1318.322266	60592.859375
1317.231445	60341.312500
1316.140625	60544.222656
1315.048828	60364.027344
1313.958008	60495.605469
1312.866211	60257.605469
1311.774414	60444.789063
1310.682617	60264.734375
1309.589844	60389.550781
1308.498047	60781.253906
1307.405273	60736.898438
1306.312500	61052.785156
1305.218750	61264.062500
1304.125977	61966.515625
1303.032227	62070.867188
1301.939453	62641.812500
1300.845703	63776.847656
1299.750977	64567.171875
1298.657227	65597.062500
1297.562500	66442.281250
1296.467773	67074.062500
1295.373047	68205.031250
1294.278320	68277.015625
1293.183594	67610.093750
1292.087891	67939.492188
1290.992188	67071.031250
1289.896484	66903.648438
1288.800781	65767.398438
1287.704102	65145.863281
1286.608398	64848.144531
1285.511719	64406.492188
1284.415039	63964.996094
1283.317383	63131.562500
1282.220703	62466.753906
1281.123047	62532.941406
1280.025391	62319.492188
1278.927734	62106.042969
1277.830078	61892.593750
1276.731445	61678.957031
1275.633789	61465.507813
1274.535156	61251.867188
1273.436523	61038.230469
1272.336914	60662.316406
1271.238281	59797.949219
1270.138672	59585.960938
1269.039063	59877.933594
1267.939453	59575.406250
1266.839844	59480.656250
1265.739258	59003.812500
1264.638672	58741.355469
1263.538086	58856.562500
1262.437500	58561.105469
1261.336914	58497.511719
1260.235352	58659.035156
1259.134766	57873.949219
1258.033203	58536.281250
1256.930664	58192.617188
1255.829102	57924.050781
1254.726563	58246.468750
1253.625000	58163.156250
1252.522461	58134.968750
1251.418945	57542.667969
1250.316406	57340.550781
1249.212891	57649.550781
1248.110352	57630.277344
1247.006836	57034.085938
1245.902344	57292.328125
1244.798828	57136.648438
1243.694336	56910.597656
1242.589844	56693.429688
1241.485352	57200.136719
1240.380859	56235.125000
1239.276367	56183.128906
1238.170898	56823.773438
1237.065430	56371.574219
1235.959961	56563.554688
1234.854492	56577.457031
1233.748047	56604.535156
1232.642578	56798.554688
1231.536133	56873.898438
1230.429688	56909.683594
1229.322266	56901.542969
1228.215820	57200.730469
1227.108398	57289.101563
1226.000977	57190.917969
1224.893555	57654.433594
1223.786133	57650.539063
1222.677734	57747.527344
1221.569336	58186.562500
1220.460938	57680.500000
1219.352539	57661.246094
1218.244141	57519.269531
1217.134766	57263.394531
1216.025391	57125.917969
1214.916016	57236.003906
1213.806641	57140.187500
1212.697266	57217.382813
1211.586914	57060.300781
1210.476563	57319.152344
1209.366211	57254.019531
1208.255859	57079.503906
1207.145508	57036.304688
1206.034180	57419.636719
1204.922852	57264.859375
1203.811523	57409.679688
1202.700195	57565.378906
1201.587891	58177.816406
1200.476563	57826.332031
1199.364258	57654.128906
1198.251953	57682.960938
1197.138672	58157.328125
1196.026367	58323.621094
1194.913086	58749.660156
1193.799805	58649.468750
1192.686523	58752.285156
1191.573242	59101.632813
1190.458984	58739.625000
1189.344727	58816.179688
1188.230469	58554.671875
1187.116211	58642.132813
1186.001953	58031.929688
1184.886719	58221.894531
1183.772461	57696.976563
1182.657227	57775.804688
1181.541016	57477.718750
1180.425781	57591.402344
1179.309570	57685.445313
1178.193359	57492.042969
1177.077148	57189.863281
1175.960938	57403.625000
1174.844727	56801.261719
1173.727539	57097.691406
1172.610352	56338.972656
1171.493164	56911.589844
1170.375977	56520.675781
