#Wave		#Intensity
2001.182617	46179.699219
2000.212891	46036.828125
1999.243164	45665.414063
1998.273438	45913.015625
1997.303711	45854.894531
1996.333008	46380.402344
1995.363281	45989.144531
1994.392578	46211.472656
1993.421875	46373.636719
1992.451172	46480.675781
1991.479492	46304.886719
1990.508789	46632.085938
1989.537109	46486.347656
1988.566406	46580.781250
1987.594727	46742.699219
1986.622070	46727.035156
1985.650391	46346.382813
1984.677734	46763.199219
1983.706055	46792.515625
1982.733398	46891.781250
1981.760742	46603.792969
1980.788086	46745.515625
1979.814453	46787.292969
1978.841797	46976.371094
1977.868164	46656.105469
1976.894531	46882.578125
1975.920898	47188.828125
1974.947266	46796.328125
1973.972656	46541.171875
1972.999023	46650.269531
1972.024414	47243.128906
1971.049805	46638.949219
1970.075195	47408.597656
1969.099609	47028.921875
1968.125000	47230.035156
1967.149414	47009.988281
1966.173828	47355.519531
1965.198242	47040.875000
1964.222656	47114.828125
1963.247070	47178.796875
1962.270508	46879.277344
1961.294922	47560.542969
1960.318359	47039.570313
1959.341797	47222.933594
1958.364258	47038.042969
1957.387695	47161.640625
1956.410156	47160.851563
1955.433594	47010.875000
1954.456055	47452.613281
1953.478516	47685.410156
1952.500000	47115.429688
1951.522461	47591.699219
1950.543945	47121.300781
1949.565430	47247.179688
1948.586914	47661.085938
1947.608398	46942.621094
1946.629883	46917.027344
1945.650391	47571.531250
1944.671875	47473.863281
1943.692383	47316.679688
1942.712891	47447.320313
1941.733398	47255.468750
1940.752930	47324.070313
1939.773438	47348.019531
1938.792969	47547.968750
1937.812500	47906.476563
1936.832031	47878.261719
1935.851563	47825.277344
1934.870117	47546.875000
1933.888672	47526.164063
1932.908203	47339.535156
1931.926758	47945.292969
1930.945313	48003.734375
1929.962891	47742.859375
1928.981445	48041.359375
1927.999023	47369.839844
1927.016602	48140.796875
1926.034180	47818.242188
1925.051758	47718.363281
1924.069336	47692.695313
1923.085938	47840.078125
1922.102539	48229.632813
1921.119141	47803.542969
1920.135742	47805.046875
1919.152344	47764.554688
1918.168945	47869.796875
1917.184570	47737.933594
1916.200195	47759.191406
1915.215820	47738.476563
1914.231445	47707.894531
1913.247070	47623.027344
1912.261719	47883.617188
1911.276367	48326.664063
1910.291992	48088.808594
1909.306641	48181.484375
1908.320313	48343.160156
1907.334961	47814.531250
1906.348633	47981.140625
1905.363281	48007.226563
1904.376953	47934.746094
1903.390625	47766.210938
1902.403320	47477.050781
1901.416992	47614.011719
1900.429688	48272.902344
1899.443359	47745.011719
1898.456055	47812.933594
1897.467773	47255.773438
1896.480469	47796.152344
1895.493164	47782.847656
1894.504883	47575.238281
1893.516602	47967.726563
1892.528320	47573.292969
1891.540039	47739.476563
1890.550781	47890.855469
1889.562500	48346.898438
1888.573242	48019.007813
1887.583984	47794.402344
1886.594727	48289.511719
1885.605469	47797.265625
1884.615234	47936.187500
1883.625000	48561.113281
1882.635742	48258.058594
1881.645508	48266.761719
1880.654297	48179.773438
1879.664063	48328.308594
1878.673828	48297.746094
1877.682617	48505.058594
1876.691406	48099.347656
1875.700195	48402.222656
1874.708984	48464.796875
1873.716797	48319.054688
1872.725586	47957.753906
1871.733398	48253.082031
1870.741211	48420.949219
1869.749023	48789.554688
1868.755859	48692.839844
1867.763672	48787.093750
1866.770508	48940.054688
1865.777344	48657.382813
1864.784180	49010.933594
1863.791016	48789.496094
1862.797852	48555.910156
1861.803711	48527.812500
1860.809570	48619.523438
1859.815430	48786.976563
1858.821289	49301.429688
1857.827148	49153.472656
1856.832031	49127.726563
1855.837891	49197.257813
1854.842773	49374.222656
1853.847656	48523.082031
1852.852539	49295.820313
1851.856445	49409.203125
1850.861328	49549.390625
1849.865234	49979.910156
1848.869141	49695.425781
1847.873047	49357.375000
1846.876953	49897.441406
1845.879883	49547.277344
1844.883789	50150.507813
1843.886719	49797.984375
1842.889648	49684.421875
1841.892578	50145.972656
1840.895508	50293.074219
1839.897461	49916.402344
1838.899414	50044.003906
1837.901367	50113.117188
1836.903320	50325.843750
1835.905273	51103.226563
1834.907227	50527.167969
1833.908203	50430.671875
1832.909180	50679.679688
1831.910156	50332.644531
1830.911133	51024.210938
1829.912109	50533.769531
1828.912109	51050.003906
1827.913086	50999.691406
1826.913086	51022.304688
1825.913086	51103.226563
1824.913086	51509.667969
1823.912109	51590.468750
1822.912109	51552.238281
1821.911133	51402.324219
1820.910156	51575.347656
1819.909180	51199.738281
1818.908203	51564.460938
1817.906250	51613.609375
1816.904297	51475.937500
1815.903320	51454.738281
1814.900391	51305.007813
1813.898438	51938.531250
1812.896484	51977.867188
1811.893555	51493.617188
1810.891602	51908.652344
1809.888672	51812.273438
1808.885742	51984.835938
1807.881836	51924.808594
1806.878906	52293.453125
1805.875000	52448.882813
1804.871094	52183.019531
1803.867188	52328.730469
1802.863281	52140.417969
1801.859375	52281.242188
1800.854492	52373.632813
1799.849609	52872.339844
1798.844727	52224.570313
1797.839844	52783.574219
1796.834961	53301.281250
1795.830078	53458.660156
1794.824219	52970.730469
1793.818359	53679.007813
1792.812500	53430.371094
1791.806641	53406.453125
1790.799805	53237.644531
1789.793945	53933.292969
1788.787109	53332.324219
1787.780273	53783.921875
1786.773438	53772.019531
1785.766602	53661.191406
1784.758789	53671.019531
1783.751953	53726.671875
1782.744141	53977.636719
1781.736328	54291.199219
1780.728516	53751.261719
1779.719727	53809.261719
1778.711914	54072.074219
1777.703125	53626.421875
1776.694336	54161.386719
1775.685547	54192.769531
1774.676758	54168.750000
1773.666992	54301.242188
1772.657227	54012.406250
1771.648438	53981.203125
1770.638672	53901.882813
1769.627930	54130.558594
1768.618164	54248.496094
1767.607422	54241.316406
1766.597656	54647.757813
1765.586914	54438.542969
1764.576172	54214.980469
1763.564453	54390.468750
1762.553711	54248.691406
1761.541992	54746.058594
1760.530273	54582.644531
1759.518555	55173.441406
1758.506836	54753.058594
1757.495117	55187.554688
1756.482422	54704.902344
1755.469727	54853.636719
1754.457031	55218.285156
1753.444336	55230.117188
1752.431641	54838.945313
1751.417969	54865.226563
1750.405273	55380.679688
1749.391602	55059.207031
1748.377930	55210.078125
1747.364258	55833.039063
1746.349609	55703.351563
1745.335938	55751.003906
1744.321289	56399.878906
1743.306641	56030.656250
1742.291992	55963.277344
1741.276367	55541.585938
1740.261719	55732.835938
1739.246094	56665.933594
1738.230469	56682.230469
1737.214844	56583.679688
1736.199219	56965.960938
1735.182617	56735.855469
1734.166992	56996.019531
1733.150391	57667.296875
1732.133789	58032.371094
1731.117188	58280.210938
1730.099609	58444.328125
1729.083008	59098.144531
1728.065430	58662.507813
1727.047852	59609.796875
1726.030273	59367.628906
1725.012695	59946.796875
1723.994141	60170.105469
1722.976563	60541.296875
1721.958008	60788.277344
1720.939453	60958.824219
1719.920898	61651.679688
1718.901367	62039.027344
1717.882813	61925.511719
1716.863281	62415.183594
1715.843750	62623.417969
1714.824219	63010.308594
1713.803711	62789.468750
1712.784180	62649.703125
1711.763672	62717.207031
1710.743164	63139.519531
1709.722656	63340.246094
1708.702148	63188.566406
1707.681641	63139.289063
1706.660156	62866.324219
1705.638672	63266.812500
1704.617188	63146.167969
1703.595703	62939.941406
1702.574219	63399.644531
1701.551758	63633.308594
1700.529297	63206.011719
1699.507813	63232.835938
1698.484375	63585.214844
1697.461914	63493.160156
1696.439453	63415.386719
1695.416016	63180.882813
1694.392578	63616.125000
1693.369141	63170.351563
1692.345703	63204.250000
1691.322266	63238.140625
1690.297852	63412.019531
1689.273438	63571.601563
1688.249023	63633.863281
1687.224609	63862.125000
1686.200195	64002.562500
1685.174805	64150.058594
1684.150391	64216.906250
1683.125000	64587.097656
1682.099609	64841.039063
1681.073242	65052.242188
1680.047852	65152.035156
1679.021484	64879.949219
1677.995117	65162.066406
1676.968750	65612.179688
1675.942383	65612.367188
1674.916016	65390.082031
1673.888672	66074.171875
1672.862305	66086.101563
1671.834961	65669.875000
1670.806641	66287.320313
1669.779297	66214.070313
1668.751953	66306.335938
1667.723633	66512.031250
1666.695313	66415.140625
1665.666992	66566.390625
1664.638672	66819.171875
1663.609375	66790.773438
1662.581055	66233.359375
1661.551758	65673.781250
1660.522461	65827.375000
1659.493164	66205.156250
1658.462891	66023.476563
1657.433594	66561.531250
1656.403320	66301.992188
1655.373047	65705.242188
1654.342773	65606.312500
1653.312500	65778.570313
1652.281250	65896.539063
1651.250977	65957.898438
1650.219727	66245.476563
1649.188477	65915.609375
1648.156250	66290.250000
1647.125000	66075.898438
1646.092773	66641.125000
1645.060547	66874.148438
1644.028320	66393.789063
1642.996094	66494.968750
1641.963867	67304.445313
1640.930664	66760.726563
1639.898438	67341.679688
1638.865234	67734.257813
1637.832031	68493.546875
1636.797852	68279.156250
1635.764648	68208.250000
1634.730469	68861.273438
1633.696289	68945.367188
1632.662109	69191.554688
1631.627930	69804.117188
1630.592773	70273.179688
1629.558594	70749.125000
1628.523438	70720.101563
1627.488281	71472.781250
1626.453125	71812.125000
1625.416992	72362.531250
1624.381836	73426.554688
1623.345703	73314.968750
1622.309570	73656.070313
1621.273438	74749.773438
1620.237305	75686.000000
1619.200195	76572.664063
1618.163086	77784.789063
1617.125977	79083.171875
1616.088867	80507.609375
1615.051758	81809.726563
1614.014648	83514.203125
1612.976563	85337.500000
1611.938477	86750.429688
1610.900391	87493.390625
1609.862305	87669.718750
1608.823242	88112.734375
1607.785156	86793.921875
1606.746094	85791.359375
1605.707031	84590.367188
1604.667969	83614.265625
1603.628906	82545.000000
1602.588867	81707.515625
1601.548828	79914.484375
1600.508789	79837.156250
1599.468750	79290.281250
1598.428711	78372.203125
1597.387695	77356.375000
1596.347656	77174.468750
1595.306641	77048.656250
1594.265625	76598.445313
1593.224609	76332.757813
1592.182617	76092.820313
1591.140625	75577.695313
1590.099609	75216.687500
1589.057617	75413.156250
1588.014648	75019.656250
1586.972656	75400.257813
1585.929688	74482.468750
1584.887695	74597.359375
1583.844727	74565.414063
1582.800781	74538.140625
1581.757813	74578.414063
1580.714844	75419.750000
1579.670898	75173.468750
1578.626953	75586.062500
1577.583008	76498.906250
1576.538086	76403.812500
1575.494141	76415.773438
1574.449219	77460.562500
1573.404297	76997.867188
1572.359375	77312.007813
1571.314453	77340.031250
1570.269531	77368.046875
1569.223633	77396.093750
1568.177734	77424.140625
1567.131836	76223.109375
1566.085938	75686.851563
1565.040039	75524.703125
1563.993164	74865.687500
1562.946289	74121.007813
1561.899414	73550.671875
1560.852539	73268.328125
1559.805664	72343.328125
1558.757813	71822.328125
1557.709961	71821.101563
1556.662109	71495.187500
1555.614258	71129.968750
1554.566406	70516.820313
1553.517578	70274.750000
1552.469727	69300.429688
1551.420898	69767.687500
1550.372070	69558.312500
1549.322266	69462.500000
1548.273438	69088.812500
1547.223633	69009.320313
1546.173828	68920.593750
1545.124023	69118.914063
1544.074219	69321.781250
1543.024414	69330.218750
1541.973633	68716.351563
1540.922852	68826.656250
1539.872070	68532.218750
1538.821289	68901.476563
1537.770508	68473.046875
1536.718750	68987.781250
1535.666992	68603.398438
1534.615234	68944.632813
1533.563477	68682.820313
1532.511719	68769.859375
1531.458984	67755.351563
1530.407227	68555.937500
1529.354492	68017.359375
1528.300781	67439.734375
1527.248047	67584.593750
1526.195313	67124.914063
1525.141602	66586.960938
1524.087891	66390.546875
1523.034180	66565.445313
1521.980469	66419.820313
1520.925781	66124.406250
1519.871094	66147.148438
1518.817383	65665.234375
1517.762695	66240.976563
1516.707031	65968.828125
1515.652344	65680.656250
1514.596680	65770.218750
1513.541016	65664.054688
1512.485352	65127.488281
1511.429688	65293.039063
1510.374023	65334.273438
1509.317383	65828.703125
1508.260742	65460.394531
1507.204102	65066.914063
1506.147461	64788.539063
1505.090820	64793.031250
1504.033203	64912.445313
1502.975586	65105.351563
1501.917969	64294.093750
1500.860352	64516.902344
1499.802734	64337.675781
1498.744141	64103.394531
1497.686523	63357.175781
1496.627930	64165.367188
1495.569336	63947.304688
1494.509766	63192.328125
1493.451172	63337.023438
1492.391602	63676.656250
1491.332031	63337.261719
1490.272461	63598.800781
1489.212891	63092.167969
1488.152344	63076.277344
1487.092773	63039.757813
1486.032227	63351.566406
1484.971680	63477.675781
1483.910156	63113.527344
1482.849609	63081.601563
1481.788086	63290.121094
1480.726563	62937.644531
1479.665039	63045.390625
1478.603516	63180.558594
1477.541992	63661.203125
1476.479492	62620.261719
1475.416992	62785.164063
1474.354492	63112.378906
1473.291992	62851.820313
1472.229492	62888.558594
1471.166016	62932.136719
1470.102539	62546.046875
1469.039063	62603.375000
1467.975586	62838.875000
1466.912109	61820.292969
1465.847656	62546.847656
1464.783203	62574.437500
1463.718750	62362.312500
1462.654297	62145.699219
1461.589844	61974.796875
1460.524414	62139.363281
1459.458984	62269.648438
1458.393555	62440.941406
1457.328125	62112.750000
1456.262695	61987.597656
1455.196289	62238.628906
1454.130859	62526.031250
1453.064453	62225.394531
1451.998047	61815.500000
1450.930664	62004.867188
1449.864258	61784.191406
1448.796875	61861.906250
1447.729492	61796.156250
1446.662109	62349.593750
1445.594727	62595.578125
1444.526367	62122.398438
1443.458008	62206.792969
1442.390625	62591.421875
1441.321289	62859.917969
1440.252930	63148.781250
1439.184570	62966.921875
1438.115234	63296.570313
1437.045898	63482.921875
1435.976563	64255.449219
1434.907227	63678.203125
1433.836914	64607.144531
1432.767578	64184.472656
1431.697266	64454.496094
1430.626953	64415.664063
1429.555664	64363.230469
1428.485352	64812.351563
1427.414063	65381.562500
1426.342773	65018.175781
1425.271484	65292.277344
1424.200195	65373.515625
1423.128906	66005.695313
1422.056641	66172.914063
1420.984375	65567.171875
1419.912109	66266.953125
1418.839844	66087.367188
1417.767578	65690.375000
1416.694336	65388.648438
1415.621094	65012.292969
1414.547852	65127.390625
1413.474609	64617.656250
1412.400391	64492.863281
1411.327148	63942.687500
1410.252930	63980.957031
1409.178711	63992.062500
1408.104492	63464.886719
1407.029297	63962.250000
1405.955078	63851.257813
1404.879883	64452.347656
1403.804688	63525.425781
1402.729492	63983.996094
1401.653320	64476.285156
1400.578125	64597.949219
1399.501953	64486.949219
1398.425781	64497.917969
1397.349609	64285.375000
1396.272461	64341.515625
1395.196289	63664.171875
1394.119141	64291.265625
1393.041992	64464.675781
1391.964844	65165.828125
1390.886719	64998.480469
1389.809570	65209.992188
1388.731445	65168.937500
1387.653320	65445.703125
1386.575195	65803.492188
1385.497070	65847.968750
1384.417969	66257.359375
1383.338867	66851.296875
1382.259766	65870.921875
1381.180664	66003.148438
1380.101563	66371.687500
1379.021484	65873.578125
1377.941406	65445.398438
1376.861328	66074.820313
1375.781250	65469.042969
1374.701172	65416.757813
1373.620117	64734.859375
1372.539063	64365.710938
1371.458008	64455.257813
1370.376953	63872.781250
1369.295898	63706.214844
1368.213867	63914.898438
1367.132813	63833.738281
1366.050781	63269.746094
1364.967773	63889.300781
1363.885742	63778.996094
1362.802734	63659.750000
1361.720703	63554.007813
1360.637695	63719.800781
1359.554688	63351.605469
1358.470703	63622.792969
1357.387695	63315.289063
1356.303711	62951.835938
1355.219727	62223.105469
1354.135742	61877.906250
1353.050781	62057.222656
1351.966797	61622.554688
1350.881836	61797.363281
1349.796875	61340.496094
1348.711914	61237.605469
1347.626953	60713.828125
1346.541016	60734.207031
1345.455078	60472.570313
1344.369141	60812.976563
1343.283203	60117.367188
1342.197266	60576.265625
1341.110352	60102.363281
1340.023438	59892.492188
1338.936523	60044.882813
1337.849609	60112.273438
1336.762695	60038.835938
1335.674805	60769.851563
1334.586914	60629.292969
1333.499023	60298.917969
1332.411133	60980.347656
1331.323242	60464.695313
1330.234375	60701.574219
1329.145508	60773.191406
1328.056641	61043.402344
1326.967773	61371.523438
1325.878906	61652.679688
1324.789063	61630.382813
1323.699219	61808.796875
1322.609375	62181.128906
1321.519531	62029.441406
1320.429688	62874.113281
1319.338867	63185.871094
1318.248047	63649.023438
1317.157227	64074.136719
1316.066406	64492.410156
1314.975586	64596.542969
1313.883789	65635.742188
1312.791992	65570.445313
1311.700195	66077.164063
1310.608398	65698.046875
1309.516602	65824.101563
1308.423828	65476.300781
1307.331055	64977.390625
1306.238281	64360.804688
1305.145508	64444.761719
1304.051758	64319.734375
1302.958984	63596.917969
1301.865234	63820.945313
1300.771484	64024.890625
1299.677734	64739.640625
1298.583008	64836.742188
1297.489258	65513.335938
1296.394531	66127.515625
1295.299805	66233.187500
1294.204102	66487.500000
1293.109375	66786.093750
1292.013672	66325.882813
1290.917969	66160.835938
1289.822266	65820.648438
1288.726563	65194.562500
1287.630859	64881.269531
1286.534180	64785.296875
1285.437500	64498.777344
1284.340820	64471.585938
1283.244141	64043.449219
1282.146484	63154.792969
1281.048828	62873.195313
1279.951172	63284.675781
1278.853516	62841.558594
1277.755859	62571.226563
1276.658203	62624.058594
1275.559570	62035.277344
1274.460938	61933.343750
1273.362305	61833.656250
1272.262695	61347.042969
1271.164063	61497.312500
1270.064453	61357.960938
1268.964844	60807.601563
1267.865234	60133.703125
1266.765625	60334.882813
1265.665039	59793.835938
1264.564453	59721.160156
1263.463867	59831.769531
1262.363281	59935.710938
1261.262695	59609.214844
1260.161133	59944.871094
1259.059570	58965.398438
1257.958008	58996.613281
1256.856445	59550.539063
1255.754883	59427.273438
1254.652344	58697.734375
1253.549805	59004.515625
1252.447266	58251.070313
1251.344727	58747.324219
1250.242188	58637.519531
1249.138672	58353.734375
1248.035156	58490.703125
1246.931641	58819.191406
1245.828125	59015.464844
1244.724609	58727.402344
1243.620117	58509.871094
1242.515625	58387.027344
1241.411133	58807.625000
1240.306641	58554.992188
1239.201172	58504.777344
1238.096680	58318.250000
1236.991211	58606.640625
1235.885742	58725.679688
1234.779297	58279.890625
1233.673828	58812.011719
1232.567383	58823.296875
1231.460938	58726.953125
1230.354492	58573.546875
1229.248047	58407.019531
1228.140625	58734.464844
1227.033203	58469.199219
1225.926758	59250.750000
1224.818359	58891.140625
1223.710938	58375.914063
1222.602539	58692.089844
1221.495117	58407.324219
1220.386719	58672.949219
1219.278320	58995.468750
1218.168945	58353.566406
1217.060547	58413.078125
1215.951172	58525.140625
1214.841797	58026.042969
1213.731445	57735.171875
1212.622070	57985.238281
1211.511719	58154.207031
1210.402344	58106.425781
1209.291992	57831.058594
1208.180664	58411.304688
1207.070313	58236.609375
1205.958984	58643.777344
1204.847656	58980.816406
1203.736328	58620.257813
1202.625000	59086.148438
1201.512695	58896.175781
1200.401367	58961.945313
1199.289063	59230.875000
1198.176758	59735.625000
1197.063477	59506.351563
1195.951172	59753.191406
1194.837891	60342.710938
1193.724609	59995.570313
1192.611328	60580.457031
1191.498047	60739.628906
1190.383789	59884.273438
1189.269531	60289.992188
1188.155273	59581.140625
1187.041016	59596.457031
1185.926758	59208.453125
1184.811523	59053.816406
1183.696289	58931.917969
1182.581055	59210.976563
1181.465820	58315.730469
1180.350586	58991.207031
1179.234375	58477.414063
1178.118164	58664.898438
1177.001953	58541.011719
1175.885742	57701.101563
1174.768555	58271.609375
1173.652344	57919.406250
1172.535156	57965.410156
1171.417969	57624.261719
1170.299805	57824.691406
