#Wave		#Intensity
2001.110352	36774.847656
2000.140625	36381.332031
1999.170898	36475.222656
1998.201172	36596.640625
1997.231445	36793.167969
1996.261719	36766.707031
1995.291016	36835.417969
1994.320313	36626.175781
1993.349609	36381.957031
1992.378906	37131.500000
1991.408203	37074.964844
1990.436523	36700.679688
1989.464844	37119.550781
1988.494141	36810.421875
1987.522461	36864.011719
1986.549805	37197.617188
1985.578125	36656.140625
1984.606445	36897.183594
1983.633789	36923.226563
1982.661133	37129.156250
1981.688477	37197.613281
1980.715820	36948.835938
1979.742188	36812.519531
1978.769531	36831.058594
1977.795898	37011.851563
1976.822266	37075.269531
1975.848633	36976.457031
1974.875000	36780.367188
1973.900391	37305.300781
1972.925781	37181.550781
1971.952148	37397.000000
1970.977539	36764.628906
1970.002930	37177.011719
1969.027344	36948.683594
1968.052734	36899.855469
1967.077148	37050.378906
1966.101563	36911.867188
1965.125977	36878.015625
1964.150391	36784.402344
1963.174805	37119.085938
1962.198242	37254.492188
1961.221680	36904.492188
1960.245117	37552.531250
1959.268555	37172.742188
1958.291992	37402.570313
1957.315430	37393.542969
1956.337891	37091.066406
1955.360352	37823.035156
1954.382813	37540.476563
1953.405273	37635.816406
1952.427734	37589.468750
1951.449219	37664.886719
1950.471680	37611.093750
1949.493164	37274.167969
1948.514648	37491.148438
1947.536133	37755.222656
1946.556641	37291.839844
1945.578125	37694.847656
1944.598633	37199.371094
1943.619141	37356.617188
1942.639648	37543.578125
1941.660156	37509.718750
1940.680664	37632.105469
1939.700195	37407.328125
1938.719727	37700.738281
1937.739258	37961.820313
1936.758789	37357.941406
1935.778320	37257.246094
1934.797852	37612.402344
1933.816406	37581.046875
1932.834961	37505.125000
1931.853516	38055.648438
1930.872070	37779.148438
1929.890625	37742.832031
1928.908203	37946.566406
1927.925781	37375.792969
1926.944336	37492.933594
1925.960938	37555.617188
1924.978516	37524.308594
1923.996094	37836.687500
1923.012695	37508.687500
1922.030273	37677.597656
1921.046875	37947.769531
1920.062500	38212.906250
1919.079102	37798.601563
1918.095703	37858.664063
1917.111328	37634.714844
1916.126953	38213.277344
1915.142578	37878.253906
1914.158203	37913.574219
1913.173828	38447.359375
1912.188477	37621.472656
1911.204102	37876.363281
1910.218750	38042.375000
1909.233398	38102.285156
1908.247070	38179.433594
1907.261719	37842.406250
1906.275391	38188.222656
1905.290039	37954.812500
1904.303711	38394.109375
1903.317383	37953.816406
1902.330078	38124.492188
1901.343750	38127.652344
1900.356445	38322.859375
1899.369141	38355.523438
1898.381836	38119.894531
1897.394531	38403.582031
1896.407227	38131.121094
1895.418945	38220.371094
1894.431641	38466.992188
1893.443359	38231.546875
1892.455078	38079.773438
1891.466797	37866.601563
1890.477539	38017.253906
1889.489258	38005.664063
1888.500000	38303.652344
1887.510742	38171.644531
1886.521484	38047.054688
1885.531250	38087.031250
1884.541992	38244.839844
1883.551758	38427.144531
1882.561523	38614.289063
1881.571289	38720.390625
1880.581055	38539.390625
1879.590820	38574.324219
1878.599609	38471.898438
1877.608398	38536.253906
1876.618164	38348.054688
1875.625977	38628.125000
1874.634766	38459.578125
1873.643555	38379.308594
1872.651367	38580.820313
1871.659180	38694.070313
1870.666992	38302.750000
1869.674805	38609.460938
1868.682617	38791.195313
1867.689453	38818.648438
1866.697266	38753.089844
1865.704102	38875.968750
1864.710938	38790.847656
1863.717773	38749.781250
1862.723633	38926.402344
1861.730469	39034.488281
1860.736328	38323.500000
1859.742188	38842.320313
1858.748047	38813.492188
1857.752930	38923.960938
1856.758789	39034.390625
1855.763672	39152.105469
1854.768555	39369.910156
1853.773438	39116.359375
1852.778320	39214.460938
1851.783203	39214.886719
1850.787109	39273.886719
1849.791016	39174.253906
1848.795898	38833.117188
1847.798828	39258.042969
1846.802734	39475.511719
1845.806641	39012.578125
1844.809570	39622.531250
1843.812500	39435.179688
1842.815430	39581.781250
1841.818359	39379.878906
1840.821289	39056.230469
1839.823242	39271.019531
1838.826172	39195.917969
1837.828125	39454.433594
1836.830078	39459.660156
1835.831055	39576.859375
1834.833008	39684.277344
1833.833984	39869.519531
1832.834961	40037.667969
1831.835938	39334.941406
1830.836914	39687.953125
1829.837891	39683.398438
1828.837891	39744.480469
1827.838867	39577.054688
1826.838867	39732.914063
1825.838867	39582.554688
1824.838867	40158.648438
1823.837891	40083.562500
1822.837891	39938.074219
1821.836914	40164.144531
1820.835938	39834.179688
1819.834961	40516.515625
1818.833008	39965.757813
1817.832031	40016.953125
1816.830078	40179.722656
1815.828125	40153.238281
1814.826172	40192.238281
1813.824219	40682.226563
1812.822266	40582.933594
1811.819336	39778.324219
1810.816406	40214.808594
1809.813477	40578.441406
1808.810547	39783.945313
1807.807617	40307.386719
1806.803711	40075.058594
1805.800781	40423.929688
1804.796875	40181.976563
1803.792969	40373.367188
1802.789063	40516.292969
1801.784180	40743.851563
1800.780273	40637.480469
1799.775391	40381.179688
1798.770508	40528.832031
1797.765625	41031.863281
1796.760742	40881.996094
1795.754883	40853.031250
1794.749023	40814.406250
1793.744141	40577.667969
1792.738281	40821.750000
1791.731445	40396.695313
1790.725586	41135.777344
1789.718750	41256.488281
1788.712891	41437.503906
1787.706055	41669.144531
1786.699219	41294.980469
1785.691406	41222.550781
1784.684570	41167.027344
1783.676758	41224.882813
1782.668945	41485.285156
1781.661133	41629.859375
1780.653320	41629.746094
1779.645508	41648.906250
1778.636719	41636.734375
1777.627930	42123.308594
1776.619141	41684.667969
1775.610352	41751.972656
1774.601563	41323.179688
1773.591797	42009.296875
1772.583008	41879.109375
1771.573242	42247.179688
1770.563477	41864.316406
1769.553711	42590.746094
1768.542969	42410.023438
1767.533203	42609.375000
1766.522461	42294.046875
1765.511719	42385.148438
1764.500977	42353.621094
1763.489258	42504.765625
1762.478516	42946.621094
1761.466797	42564.226563
1760.455078	42871.390625
1759.443359	43147.218750
1758.431641	43413.343750
1757.419922	43194.390625
1756.407227	43609.238281
1755.394531	43834.335938
1754.381836	43754.597656
1753.369141	43398.980469
1752.356445	44034.179688
1751.342773	43776.964844
1750.330078	44212.843750
1749.316406	44329.695313
1748.302734	44161.253906
1747.288086	44182.203125
1746.274414	44514.656250
1745.259766	44681.675781
1744.246094	44204.281250
1743.231445	44522.175781
1742.215820	44804.039063
1741.201172	44707.531250
1740.186523	45089.792969
1739.170898	45392.941406
1738.155273	45358.589844
1737.139648	45092.183594
1736.124023	45612.835938
1735.107422	45430.179688
1734.090820	45979.277344
1733.075195	45808.574219
1732.058594	46029.933594
1731.041016	46048.078125
1730.024414	46505.871094
1729.007813	46796.269531
1727.990234	46988.628906
1726.972656	47412.570313
1725.955078	47093.769531
1724.936523	47465.019531
1723.918945	47511.515625
1722.900391	48161.773438
1721.881836	48086.437500
1720.863281	48006.355469
1719.844727	48260.226563
1718.826172	48184.906250
1717.806641	48813.003906
1716.787109	49297.835938
1715.767578	48554.976563
1714.748047	49263.691406
1713.728516	49138.214844
1712.708008	48760.257813
1711.688477	48913.585938
1710.667969	48764.417969
1709.647461	49277.218750
1708.626953	49118.511719
1707.605469	48931.292969
1706.583984	49022.574219
1705.563477	48911.574219
1704.541992	49331.109375
1703.519531	49429.398438
1702.498047	49156.671875
1701.476563	49485.582031
1700.454102	48796.929688
1699.431641	49375.347656
1698.409180	48829.535156
1697.385742	48856.519531
1696.363281	48988.011719
1695.339844	48943.699219
1694.316406	48949.269531
1693.292969	49021.316406
1692.269531	49019.742188
1691.246094	48484.152344
1690.221680	49166.093750
1689.197266	49105.179688
1688.172852	49400.105469
1687.148438	49087.761719
1686.124023	49057.710938
1685.098633	49549.265625
1684.074219	49277.355469
1683.048828	49415.554688
1682.023438	49466.027344
1680.997070	49985.585938
1679.971680	48972.347656
1678.945313	49707.328125
1677.918945	49438.031250
1676.892578	50172.660156
1675.866211	50066.707031
1674.839844	50223.488281
1673.812500	49992.144531
1672.785156	49995.097656
1671.758789	50669.832031
1670.730469	50008.093750
1669.703125	50578.542969
1668.675781	50482.085938
1667.647461	50324.207031
1666.619141	50631.957031
1665.590820	50372.500000
1664.562500	50994.339844
1663.533203	51089.214844
1662.504883	50853.421875
1661.475586	51465.394531
1660.446289	51057.273438
1659.416992	51676.070313
1658.386719	51294.015625
1657.357422	51487.824219
1656.327148	51933.988281
1655.296875	51276.117188
1654.266602	51571.226563
1653.235352	51977.046875
1652.205078	51526.968750
1651.173828	51315.105469
1650.142578	51878.644531
1649.111328	51746.902344
1648.080078	51902.609375
1647.048828	52585.859375
1646.016602	52475.250000
1644.984375	52303.460938
1643.952148	52797.941406
1642.919922	52548.480469
1641.886719	52433.238281
1640.854492	52741.550781
1639.821289	52854.500000
1638.788086	53026.207031
1637.754883	53696.390625
1636.721680	53414.101563
1635.687500	53531.542969
1634.653320	53453.863281
1633.620117	53310.410156
1632.584961	53730.886719
1631.550781	54329.742188
1630.516602	54266.058594
1629.481445	54521.757813
1628.446289	54373.535156
1627.411133	55004.703125
1626.375977	54922.160156
1625.340820	55210.402344
1624.304688	55214.656250
1623.268555	55514.468750
1622.232422	56430.992188
1621.196289	56988.417969
1620.160156	57287.750000
1619.123047	58482.406250
1618.086914	58936.042969
1617.049805	60446.316406
1616.012695	61524.968750
1614.974609	62589.179688
1613.937500	63742.007813
1612.899414	65149.652344
1611.861328	66147.093750
1610.823242	66226.601563
1609.785156	66837.328125
1608.747070	67101.539063
1607.708008	65582.953125
1606.668945	64787.683594
1605.629883	63592.781250
1604.590820	62218.257813
1603.551758	60869.937500
1602.511719	60445.375000
1601.471680	59146.921875
1600.431641	58984.507813
1599.391602	58004.488281
1598.351563	58022.183594
1597.310547	56939.929688
1596.270508	57076.878906
1595.229492	56513.433594
1594.188477	56323.636719
1593.146484	56397.609375
1592.105469	55633.917969
1591.063477	56109.230469
1590.021484	56073.570313
1588.979492	55718.437500
1587.937500	55391.406250
1586.895508	55090.136719
1585.852539	55499.847656
1584.809570	55373.433594
1583.766602	55680.429688
1582.723633	55977.992188
1581.680664	55693.175781
1580.636719	55818.308594
1579.593750	55396.250000
1578.549805	55446.890625
1577.504883	55704.656250
1576.460938	56053.078125
1575.416992	55991.890625
1574.372070	56495.988281
1573.327148	56592.894531
1572.282227	56561.867188
1571.237305	56200.707031
1570.191406	56279.011719
1569.146484	56443.277344
1568.100586	56296.105469
1567.054688	56297.671875
1566.007813	55827.695313
1564.961914	56008.171875
1563.915039	55724.175781
1562.869141	55045.601563
1561.822266	55330.566406
1560.774414	55160.550781
1559.727539	55294.566406
1558.679688	55191.894531
1557.632813	55838.468750
1556.584961	55789.074219
1555.537109	55832.441406
1554.488281	55504.863281
1553.440430	55840.312500
1552.391602	55607.863281
1551.342773	55083.539063
1550.293945	55013.468750
1549.245117	55397.398438
1548.195313	55412.976563
1547.146484	55942.566406
1546.096680	54971.847656
1545.046875	55758.238281
1543.996094	55313.210938
1542.946289	55148.304688
1541.895508	55635.820313
1540.844727	55512.542969
1539.793945	55701.496094
1538.743164	55737.781250
1537.692383	55464.285156
1536.640625	55385.031250
1535.588867	55543.824219
1534.537109	55335.195313
1533.485352	55297.582031
1532.433594	55301.550781
1531.380859	54728.214844
1530.329102	54771.531250
1529.276367	54720.183594
1528.222656	55160.453125
1527.169922	55164.433594
1526.117188	55087.656250
1525.063477	54609.539063
1524.009766	54680.492188
1522.956055	54859.792969
1521.902344	54939.890625
1520.847656	54789.453125
1519.792969	54597.582031
1518.738281	54603.152344
1517.683594	54608.726563
1516.628906	54614.296875
1515.574219	54619.867188
1514.518555	54625.445313
1513.462891	54631.023438
1512.407227	54636.597656
1511.351563	54642.175781
1510.294922	54647.757813
1509.239258	54516.046875
1508.182617	54803.003906
1507.125977	54749.496094
1506.069336	54652.320313
1505.011719	55014.957031
1503.955078	54644.242188
1502.897461	54836.687500
1501.839844	54751.042969
1500.782227	54587.320313
1499.724609	54359.343750
1498.666016	54622.882813
1497.607422	54502.890625
1496.548828	54502.308594
1495.490234	54593.531250
1494.431641	54335.914063
1493.372070	54516.613281
1492.313477	54694.949219
1491.253906	53985.613281
1490.194336	54333.671875
1489.133789	54392.714844
1488.074219	54084.964844
1487.013672	54382.386719
1485.953125	54414.769531
1484.892578	54447.152344
1483.832031	54479.535156
1482.770508	54511.945313
1481.709961	54544.328125
1480.648438	54401.761719
1479.586914	54799.457031
1478.524414	54736.992188
1477.462891	54431.996094
1476.400391	54319.285156
1475.337891	54076.230469
1474.275391	54569.667969
1473.212891	54651.343750
1472.150391	55043.902344
1471.086914	54638.593750
1470.023438	54811.621094
1468.959961	55078.265625
1467.896484	54716.566406
1466.833008	54818.671875
1465.768555	55112.566406
1464.704102	55383.523438
1463.639648	55487.730469
1462.575195	55295.171875
1461.510742	55698.304688
1460.445313	55701.996094
1459.379883	55550.562500
1458.314453	55789.203125
1457.249023	55694.812500
1456.183594	55650.613281
1455.117188	55417.218750
1454.051758	56669.945313
1452.985352	56049.054688
1451.917969	56273.664063
1450.851563	56245.335938
1449.785156	56100.859375
1448.717773	56359.488281
1447.650391	56540.613281
1446.583008	56484.929688
1445.514648	56618.167969
1444.447266	57183.703125
1443.378906	56782.113281
1442.310547	57235.949219
1441.242188	57111.953125
1440.173828	58111.296875
1439.104492	57396.078125
1438.036133	58185.882813
1436.966797	58250.425781
1435.897461	58349.023438
1434.827148	58433.957031
1433.757813	59159.394531
1432.687500	59253.230469
1431.617188	59356.109375
1430.546875	59608.785156
1429.476563	59364.281250
1428.406250	59798.406250
1427.334961	59581.179688
1426.263672	59631.718750
1425.192383	59797.914063
1424.121094	59299.593750
1423.048828	59567.812500
1421.977539	59532.164063
1420.905273	59807.039063
1419.833008	59456.363281
1418.759766	59386.761719
1417.687500	59328.507813
1416.614258	59469.582031
1415.541992	59375.097656
1414.468750	59500.261719
1413.394531	58753.859375
1412.321289	59057.882813
1411.247070	58615.046875
1410.172852	58500.429688
1409.098633	58935.523438
1408.024414	58712.324219
1406.950195	58871.347656
1405.875000	58668.582031
1404.799805	59162.097656
1403.724609	59113.027344
1402.649414	59240.222656
1401.574219	58987.820313
1400.498047	59401.855469
1399.421875	59201.453125
1398.345703	59208.859375
1397.269531	59740.015625
1396.193359	59627.683594
1395.116211	60147.285156
1394.039063	60165.785156
1392.961914	60024.105469
1391.884766	60759.878906
1390.807617	60724.125000
1389.729492	60807.886719
1388.651367	61121.554688
1387.573242	61843.066406
1386.495117	62305.164063
1385.416992	62278.164063
1384.337891	62188.097656
1383.258789	62278.246094
1382.179688	62672.363281
1381.100586	62956.011719
1380.021484	62816.351563
1378.941406	63050.355469
1377.861328	62870.218750
1376.781250	62789.140625
1375.701172	63164.726563
1374.621094	63218.562500
1373.540039	62532.570313
1372.458984	62273.988281
1371.377930	62433.597656
1370.296875	61750.355469
1369.215820	61813.371094
1368.133789	61456.246094
1367.051758	61472.117188
1365.969727	60861.398438
1364.887695	61247.855469
1363.805664	60843.933594
1362.722656	61277.386719
1361.639648	60839.937500
1360.556641	60642.726563
1359.473633	60667.679688
1358.390625	60441.406250
1357.306641	60253.335938
1356.223633	60318.695313
1355.139648	59899.812500
1354.054688	59584.175781
1352.970703	59923.011719
1351.885742	59134.722656
1350.801758	59092.687500
1349.716797	59180.570313
1348.630859	58722.019531
1347.545898	58783.062500
1346.459961	58667.238281
1345.375000	59025.937500
1344.289063	58583.398438
1343.202148	58798.789063
1342.116211	58618.164063
1341.029297	58459.968750
1339.943359	58903.339844
1338.856445	58939.648438
1337.768555	58551.238281
1336.681641	58455.734375
1335.593750	59115.519531
1334.506836	58970.796875
1333.418945	59105.328125
1332.330078	58857.921875
1331.242188	58655.261719
1330.153320	59037.574219
1329.065430	58971.105469
1327.976563	59518.363281
1326.886719	59088.128906
1325.797852	59628.468750
1324.708008	59443.718750
1323.619141	59914.660156
1322.529297	59506.953125
1321.438477	60298.722656
1320.348633	59944.578125
1319.257813	60437.367188
1318.167969	60237.054688
1317.076172	61119.441406
1315.985352	60963.621094
1314.894531	61611.734375
1313.802734	61188.703125
1312.710938	61177.636719
1311.619141	61008.550781
1310.527344	61384.703125
1309.435547	61435.894531
1308.342773	61849.640625
1307.250000	61398.097656
1306.157227	61480.378906
1305.064453	61718.253906
1303.970703	61326.988281
1302.877930	61035.867188
1301.784180	61398.117188
1300.690430	61158.179688
1299.596680	61367.007813
1298.501953	62182.035156
1297.407227	62159.675781
1296.313477	62703.421875
1295.217773	62004.000000
1294.123047	62720.664063
1293.028320	62733.714844
1291.932617	62813.308594
1290.836914	62688.816406
1289.741211	62661.941406
1288.645508	62770.320313
1287.548828	62633.820313
1286.453125	62497.445313
1285.356445	62360.945313
1284.259766	62224.445313
1283.162109	62087.828125
1282.065430	61951.328125
1280.967773	61621.238281
1279.870117	61368.750000
1278.772461	61521.433594
1277.674805	60706.910156
1276.576172	60859.652344
1275.477539	60682.699219
1274.378906	60167.375000
1273.280273	60264.835938
1272.181641	59827.160156
1271.082031	59756.625000
1269.983398	59416.449219
1268.883789	59790.210938
1267.783203	59363.976563
1266.683594	59426.113281
1265.583984	59386.625000
1264.483398	58903.269531
1263.382813	58799.855469
1262.282227	59104.871094
1261.180664	58604.164063
1260.080078	58553.816406
1258.978516	59059.480469
1257.876953	58536.988281
1256.775391	58449.175781
1255.672852	58932.523438
1254.571289	58974.746094
1253.468750	58203.546875
1252.366211	58003.445313
1251.262695	57922.406250
1250.160156	57616.675781
1249.056641	57637.058594
1247.953125	57681.656250
1246.849609	57706.417969
1245.746094	57607.882813
1244.642578	57890.179688
1243.538086	57375.699219
1242.433594	57679.933594
1241.329102	57321.867188
1240.224609	57221.281250
1239.119141	57406.613281
1238.014648	57079.570313
1236.909180	57431.933594
1235.803711	57592.945313
1234.697266	57984.636719
1233.591797	57191.917969
1232.485352	57956.984375
1231.378906	57608.218750
1230.272461	57336.433594
1229.166016	57598.269531
1228.058594	57317.800781
1226.951172	57794.621094
1225.843750	56980.984375
1224.736328	57468.660156
1223.628906	57177.441406
1222.520508	56732.804688
1221.412109	57132.542969
1220.303711	57286.585938
1219.195313	57096.429688
1218.086914	57189.054688
1216.977539	56896.000000
1215.868164	57231.796875
1214.758789	56741.703125
1213.649414	56479.539063
1212.540039	56832.738281
1211.429688	56839.917969
1210.319336	56593.191406
1209.208984	56480.046875
1208.098633	56338.496094
1206.987305	56369.812500
1205.876953	57107.582031
1204.765625	56994.414063
1203.654297	57333.867188
1202.542969	57531.109375
1201.430664	57026.695313
1200.318359	56946.394531
1199.206055	56968.804688
1198.093750	57454.300781
1196.981445	57522.468750
1195.868164	57955.273438
1194.755859	57942.542969
1193.642578	58414.402344
1192.528320	58032.757813
1191.415039	58068.015625
1190.301758	58550.492188
1189.187500	57789.492188
1188.073242	58217.316406
1186.958984	57495.894531
1185.843750	57614.050781
1184.729492	57392.132813
1183.614258	57505.898438
1182.499023	56896.242188
1181.382813	57365.140625
1180.267578	57165.203125
1179.151367	56834.675781
1178.035156	56708.925781
1176.918945	57373.425781
1175.802734	56562.031250
1174.686523	56736.695313
1173.569336	56643.679688
1172.452148	56470.214844
1171.334961	56716.558594
1170.217773	56193.046875
