#Wave		#Intensity
2001.182617	38504.804688
2000.212891	39499.882813
1999.243164	39034.378906
1998.273438	39350.792969
1997.303711	39173.570313
1996.333008	39352.082031
1995.363281	39270.082031
1994.392578	39203.132813
1993.421875	39614.359375
1992.451172	39206.964844
1991.479492	38847.253906
1990.508789	39165.746094
1989.537109	39376.554688
1988.566406	38909.445313
1987.594727	39397.812500
1986.622070	39715.980469
1985.650391	39309.050781
1984.677734	39432.156250
1983.706055	39347.796875
1982.733398	39500.835938
1981.760742	39401.500000
1980.788086	39614.417969
1979.814453	39267.863281
1978.841797	39188.589844
1977.868164	39743.445313
1976.894531	39424.496094
1975.920898	38980.882813
1974.947266	39418.203125
1973.972656	39256.640625
1972.999023	40003.046875
1972.024414	39923.734375
1971.049805	39954.156250
1970.075195	39565.750000
1969.099609	40007.484375
1968.125000	39285.261719
1967.149414	39617.257813
1966.173828	39358.718750
1965.198242	39356.816406
1964.222656	39678.660156
1963.247070	39691.640625
1962.270508	39719.550781
1961.294922	39824.609375
1960.318359	39952.031250
1959.341797	39726.082031
1958.364258	40380.871094
1957.387695	39351.527344
1956.410156	39608.250000
1955.433594	39820.128906
1954.456055	40076.675781
1953.478516	40164.113281
1952.500000	40022.890625
1951.522461	39991.039063
1950.543945	39623.824219
1949.565430	39890.109375
1948.586914	40171.203125
1947.608398	39915.875000
1946.629883	40033.015625
1945.650391	39755.460938
1944.671875	39783.246094
1943.692383	40441.246094
1942.712891	39816.453125
1941.733398	40129.445313
1940.752930	39943.867188
1939.773438	40683.195313
1938.792969	40269.507813
1937.812500	39734.515625
1936.832031	39903.507813
1935.851563	40159.160156
1934.870117	40162.035156
1933.888672	39872.636719
1932.908203	40009.289063
1931.926758	40059.226563
1930.945313	40487.910156
1929.962891	40258.054688
1928.981445	40377.214844
1927.999023	39961.886719
1927.016602	40058.785156
1926.034180	40304.050781
1925.051758	40455.261719
1924.069336	40366.578125
1923.085938	40186.457031
1922.102539	40495.789063
1921.119141	40283.578125
1920.135742	40543.363281
1919.152344	40385.566406
1918.168945	40400.714844
1917.184570	40638.117188
1916.200195	40665.558594
1915.215820	40268.386719
1914.231445	40411.886719
1913.247070	40256.734375
1912.261719	40128.777344
1911.276367	40417.769531
1910.291992	40822.582031
1909.306641	39905.453125
1908.320313	39974.890625
1907.334961	40670.453125
1906.348633	40611.562500
1905.363281	40441.792969
1904.376953	40185.847656
1903.390625	40762.636719
1902.403320	40427.906250
1901.416992	40590.730469
1900.429688	40118.261719
1899.443359	40620.800781
1898.456055	40680.128906
1897.467773	40367.843750
1896.480469	40631.406250
1895.493164	40471.757813
1894.504883	40818.832031
1893.516602	40732.972656
1892.528320	40765.164063
1891.540039	40396.644531
1890.550781	41018.757813
1889.562500	40873.945313
1888.573242	40638.269531
1887.583984	41122.445313
1886.594727	40555.230469
1885.605469	40543.199219
1884.615234	40734.957031
1883.625000	41316.957031
1882.635742	40865.460938
1881.645508	40998.160156
1880.654297	41530.734375
1879.664063	41126.039063
1878.673828	40966.750000
1877.682617	41437.738281
1876.691406	41648.671875
1875.700195	41494.273438
1874.708984	41712.468750
1873.716797	41626.726563
1872.725586	41781.117188
1871.733398	41661.093750
1870.741211	41815.421875
1869.749023	41913.371094
1868.755859	42141.046875
1867.763672	42331.921875
1866.770508	42229.031250
1865.777344	42189.796875
1864.784180	42551.824219
1863.791016	42507.652344
1862.797852	42123.531250
1861.803711	42272.628906
1860.809570	42573.253906
1859.815430	42705.105469
1858.821289	42487.410156
1857.827148	42724.300781
1856.832031	42318.546875
1855.837891	42975.539063
1854.842773	42953.328125
1853.847656	42347.507813
1852.852539	42857.652344
1851.856445	42632.863281
1850.861328	42481.367188
1849.865234	42630.066406
1848.869141	42868.984375
1847.873047	42834.609375
1846.876953	43000.234375
1845.879883	42561.062500
1844.883789	42553.574219
1843.886719	43238.367188
1842.889648	43040.660156
1841.892578	43113.500000
1840.895508	43040.128906
1839.897461	43086.144531
1838.899414	42769.257813
1837.901367	43338.835938
1836.903320	42934.367188
1835.905273	43430.683594
1834.907227	42926.554688
1833.908203	42940.894531
1832.909180	43110.937500
1831.910156	43332.000000
1830.911133	43278.160156
1829.912109	43207.320313
1828.912109	43143.792969
1827.913086	43357.394531
1826.913086	43665.703125
1825.913086	43665.304688
1824.913086	43288.332031
1823.912109	43538.187500
1822.912109	43421.230469
1821.911133	43617.550781
1820.910156	43357.378906
1819.909180	43849.773438
1818.908203	43793.507813
1817.906250	43387.851563
1816.904297	43807.191406
1815.903320	43629.679688
1814.900391	43648.667969
1813.898438	43342.730469
1812.896484	44229.671875
1811.893555	43584.386719
1810.891602	43591.246094
1809.888672	43520.566406
1808.885742	43522.585938
1807.881836	43575.468750
1806.878906	43642.859375
1805.875000	43686.015625
1804.871094	43942.195313
1803.867188	43726.285156
1802.863281	43994.460938
1801.859375	43761.675781
1800.854492	43833.792969
1799.849609	44309.824219
1798.844727	43985.203125
1797.839844	44241.000000
1796.834961	44211.441406
1795.830078	44645.968750
1794.824219	44239.343750
1793.818359	44422.421875
1792.812500	44158.511719
1791.806641	44689.351563
1790.799805	44362.691406
1789.793945	44605.976563
1788.787109	44875.726563
1787.780273	44879.875000
1786.773438	44707.855469
1785.766602	44796.476563
1784.758789	44882.656250
1783.751953	45168.996094
1782.744141	44989.804688
1781.736328	44962.574219
1780.728516	44841.332031
1779.719727	44997.316406
1778.711914	45030.339844
1777.703125	45489.816406
1776.694336	45732.320313
1775.685547	45278.660156
1774.676758	44993.730469
1773.666992	45378.242188
1772.657227	46167.042969
1771.648438	45730.464844
1770.638672	45346.984375
1769.627930	45545.890625
1768.618164	45802.460938
1767.607422	45534.613281
1766.597656	45603.523438
1765.586914	45749.343750
1764.576172	45926.359375
1763.564453	46045.628906
1762.553711	46013.464844
1761.541992	45798.707031
1760.530273	46225.410156
1759.518555	46889.738281
1758.506836	46149.042969
1757.495117	46313.753906
1756.482422	46339.171875
1755.469727	46698.195313
1754.457031	46473.972656
1753.444336	46504.144531
1752.431641	46541.500000
1751.417969	46518.882813
1750.405273	46755.250000
1749.391602	46703.828125
1748.377930	46896.925781
1747.364258	47252.925781
1746.349609	46592.789063
1745.335938	47154.757813
1744.321289	47479.382813
1743.306641	46970.433594
1742.291992	47215.949219
1741.276367	47722.335938
1740.261719	47639.687500
1739.246094	47700.667969
1738.230469	47615.656250
1737.214844	48671.871094
1736.199219	48232.695313
1735.182617	48563.765625
1734.166992	48557.566406
1733.150391	48788.046875
1732.133789	48337.203125
1731.117188	49437.566406
1730.099609	49691.660156
1729.083008	49945.660156
1728.065430	50273.617188
1727.047852	50045.003906
1726.030273	50298.800781
1725.012695	50726.785156
1723.994141	51257.253906
1722.976563	51162.265625
1721.958008	51725.871094
1720.939453	51637.984375
1719.920898	51817.273438
1718.901367	51920.183594
1717.882813	52397.410156
1716.863281	52695.664063
1715.843750	52710.167969
1714.824219	52550.691406
1713.803711	52591.421875
1712.784180	52470.136719
1711.763672	52670.449219
1710.743164	52680.167969
1709.722656	52944.652344
1708.702148	52711.496094
1707.681641	52471.277344
1706.660156	52347.750000
1705.638672	52771.515625
1704.617188	52893.003906
1703.595703	52500.691406
1702.574219	52698.281250
1701.551758	52460.683594
1700.529297	52223.171875
1699.507813	52770.089844
1698.484375	52092.968750
1697.461914	52430.625000
1696.439453	52354.812500
1695.416016	52516.539063
1694.392578	53231.515625
1693.369141	52478.921875
1692.345703	52763.976563
1691.322266	52344.015625
1690.297852	52289.644531
1689.273438	52372.902344
1688.249023	52237.886719
1687.224609	52185.929688
1686.200195	52805.078125
1685.174805	52361.832031
1684.150391	52983.097656
1683.125000	53229.664063
1682.099609	52921.644531
1681.073242	53182.347656
1680.047852	53492.703125
1679.021484	53630.050781
1677.995117	53788.660156
1676.968750	52952.835938
1675.942383	53312.710938
1674.916016	53809.726563
1673.888672	53816.738281
1672.862305	53535.109375
1671.834961	53757.421875
1670.806641	54272.917969
1669.779297	53610.648438
1668.751953	53858.828125
1667.723633	54222.742188
1666.695313	54156.394531
1665.666992	53737.988281
1664.638672	53950.523438
1663.609375	54540.914063
1662.581055	54382.441406
1661.551758	54320.835938
1660.522461	54221.472656
1659.493164	54188.238281
1658.462891	54518.453125
1657.433594	54461.578125
1656.403320	54676.023438
1655.373047	54687.535156
1654.342773	54821.679688
1653.312500	55234.003906
1652.281250	54632.457031
1651.250977	54585.035156
1650.219727	54514.062500
1649.188477	55263.082031
1648.156250	54850.414063
1647.125000	54996.121094
1646.092773	55502.085938
1645.060547	55395.683594
1644.028320	55289.316406
1642.996094	55425.417969
1641.963867	55460.273438
1640.930664	55928.050781
1639.898438	55831.062500
1638.865234	55868.175781
1637.832031	55907.625000
1636.797852	55810.687500
1635.764648	56849.214844
1634.730469	56380.781250
1633.696289	56648.050781
1632.662109	56764.847656
1631.627930	57367.871094
1630.592773	57214.394531
1629.558594	57892.261719
1628.523438	58119.097656
1627.488281	58289.511719
1626.453125	58434.042969
1625.416992	58503.429688
1624.381836	59506.574219
1623.345703	59929.953125
1622.309570	60407.125000
1621.273438	61847.894531
1620.237305	61970.523438
1619.200195	62388.464844
1618.163086	64336.683594
1617.125977	65318.781250
1616.088867	67293.890625
1615.051758	68256.367188
1614.014648	69401.171875
1612.976563	70320.773438
1611.938477	71790.226563
1610.900391	71732.968750
1609.862305	72043.164063
1608.823242	72072.453125
1607.785156	71182.296875
1606.746094	70364.960938
1605.707031	68633.492188
1604.667969	67842.625000
1603.628906	65798.937500
1602.588867	65081.312500
1601.548828	63735.277344
1600.508789	63142.105469
1599.468750	62565.496094
1598.428711	61750.843750
1597.387695	61742.171875
1596.347656	61184.792969
1595.306641	60655.625000
1594.265625	60243.347656
1593.224609	60482.316406
1592.182617	60095.875000
1591.140625	59243.000000
1590.099609	60058.125000
1589.057617	59576.347656
1588.014648	58856.914063
1586.972656	58948.996094
1585.929688	58912.843750
1584.887695	59216.937500
1583.844727	58712.429688
1582.800781	58667.015625
1581.757813	58411.996094
1580.714844	58827.730469
1579.670898	58735.746094
1578.626953	59046.515625
1577.583008	58675.226563
1576.538086	58932.371094
1575.494141	59489.554688
1574.449219	59560.355469
1573.404297	59914.878906
1572.359375	59750.714844
1571.314453	60039.972656
1570.269531	60036.230469
1569.223633	59995.304688
1568.177734	59889.324219
1567.131836	59423.265625
1566.085938	59493.960938
1565.040039	59069.937500
1563.993164	58541.574219
1562.946289	58236.273438
1561.899414	58179.453125
1560.852539	57567.972656
1559.805664	57843.101563
1558.757813	57575.253906
1557.709961	57525.542969
1556.662109	57577.886719
1555.614258	57929.328125
1554.566406	57765.972656
1553.517578	57394.058594
1552.469727	57038.500000
1551.420898	56914.773438
1550.372070	57638.992188
1549.322266	56797.156250
1548.273438	57562.820313
1547.223633	56668.035156
1546.173828	57155.640625
1545.124023	57071.363281
1544.074219	57100.503906
1543.024414	56558.128906
1541.973633	56522.574219
1540.922852	56655.875000
1539.872070	56613.375000
1538.821289	56425.218750
1537.770508	55982.843750
1536.718750	56439.718750
1535.666992	56295.597656
1534.615234	56153.835938
1533.563477	55580.140625
1532.511719	55581.750000
1531.458984	55664.179688
1530.407227	55693.476563
1529.354492	55681.207031
1528.300781	55145.027344
1527.248047	55538.992188
1526.195313	55314.488281
1525.141602	55369.183594
1524.087891	55027.164063
1523.034180	55077.277344
1521.980469	54544.070313
1520.925781	55094.453125
1519.871094	55017.757813
1518.817383	54839.703125
1517.762695	54712.390625
1516.707031	55172.503906
1515.652344	54361.171875
1514.596680	54351.441406
1513.541016	54629.492188
1512.485352	54143.238281
1511.429688	54964.351563
1510.374023	53985.796875
1509.317383	54339.625000
1508.260742	54555.312500
1507.204102	53977.503906
1506.147461	54342.632813
1505.090820	54468.539063
1504.033203	54203.648438
1502.975586	54665.054688
1501.917969	54563.355469
1500.860352	54633.988281
1499.802734	54762.015625
1498.744141	54589.160156
1497.686523	54898.531250
1496.627930	55226.156250
1495.569336	54764.101563
1494.509766	54963.117188
1493.451172	55047.343750
1492.391602	54925.074219
1491.332031	54853.304688
1490.272461	54682.953125
1489.212891	54819.890625
1488.152344	54782.558594
1487.092773	54726.898438
1486.032227	54824.792969
1484.971680	54599.601563
1483.910156	55123.546875
1482.849609	54843.410156
1481.788086	55312.164063
1480.726563	54725.300781
1479.665039	55006.199219
1478.603516	54941.406250
1477.541992	54824.007813
1476.479492	54841.632813
1475.416992	55149.746094
1474.354492	55460.039063
1473.291992	55107.101563
1472.229492	55703.058594
1471.166016	55192.480469
1470.102539	55950.464844
1469.039063	54786.519531
1467.975586	55354.683594
1466.912109	55842.695313
1465.847656	55700.218750
1464.783203	55875.171875
1463.718750	56118.550781
1462.654297	56430.312500
1461.589844	56276.410156
1460.524414	56191.015625
1459.458984	56285.867188
1458.393555	56348.753906
1457.328125	56897.351563
1456.262695	56301.164063
1455.196289	56081.332031
1454.130859	56739.074219
1453.064453	56794.972656
1451.998047	56675.410156
1450.930664	56633.343750
1449.864258	57060.468750
1448.796875	57350.812500
1447.729492	57370.109375
1446.662109	57840.117188
1445.594727	57702.273438
1444.526367	57905.812500
1443.458008	58127.472656
1442.390625	58148.878906
1441.321289	58365.863281
1440.252930	58521.371094
1439.184570	59117.882813
1438.115234	59550.511719
1437.045898	59321.632813
1435.976563	59640.453125
1434.907227	59929.621094
1433.836914	60034.695313
1432.767578	59960.316406
1431.697266	60794.214844
1430.626953	60445.023438
1429.555664	61457.847656
1428.485352	60849.945313
1427.414063	61984.855469
1426.342773	61740.042969
1425.271484	61724.406250
1424.200195	61931.015625
1423.128906	62194.230469
1422.056641	62643.242188
1420.984375	63078.488281
1419.912109	62686.429688
1418.839844	62731.796875
1417.767578	62410.160156
1416.694336	62854.187500
1415.621094	62211.074219
1414.547852	62399.125000
1413.474609	62421.855469
1412.400391	62080.179688
1411.327148	61937.761719
1410.252930	61406.242188
1409.178711	61168.984375
1408.104492	61363.789063
1407.029297	61262.292969
1405.955078	61181.179688
1404.879883	61224.417969
1403.804688	61229.218750
1402.729492	61597.816406
1401.653320	61930.128906
1400.578125	62101.945313
1399.501953	62233.042969
1398.425781	62011.843750
1397.349609	62314.484375
1396.272461	62343.890625
1395.196289	62673.441406
1394.119141	62700.511719
1393.041992	62910.304688
1391.964844	63774.136719
1390.886719	64565.488281
1389.809570	64350.929688
1388.731445	65392.121094
1387.653320	65247.355469
1386.575195	65251.375000
1385.497070	64906.152344
1384.417969	65218.851563
1383.338867	65137.277344
1382.259766	65393.515625
1381.180664	65246.640625
1380.101563	65277.652344
1379.021484	65340.160156
1377.941406	65148.359375
1376.861328	65424.601563
1375.781250	65217.101563
1374.701172	64820.750000
1373.620117	64845.042969
1372.539063	64327.488281
1371.458008	63848.335938
1370.376953	64030.101563
1369.295898	63751.156250
1368.213867	63854.238281
1367.132813	64139.226563
1366.050781	64096.214844
1364.967773	63707.421875
1363.885742	64059.625000
1362.802734	64286.000000
1361.720703	65156.378906
1360.637695	64639.765625
1359.554688	64655.023438
1358.470703	64454.945313
1357.387695	64456.769531
1356.303711	64653.664063
1355.219727	63935.832031
1354.135742	63996.015625
1353.050781	63260.628906
1351.966797	62944.492188
1350.881836	62104.265625
1349.796875	61687.660156
1348.711914	61577.988281
1347.626953	61685.539063
1346.541016	61593.812500
1345.455078	61396.925781
1344.369141	61265.000000
1343.283203	61088.375000
1342.197266	61558.281250
1341.110352	60795.691406
1340.023438	60918.878906
1338.936523	60775.964844
1337.849609	60845.460938
1336.762695	61399.902344
1335.674805	61270.382813
1334.586914	61547.511719
1333.499023	60625.039063
1332.411133	61174.644531
1331.323242	61465.031250
1330.234375	61319.976563
1329.145508	61224.074219
1328.056641	61965.089844
1326.967773	62069.917969
1325.878906	62437.949219
1324.789063	62750.082031
1323.699219	63024.187500
1322.609375	63333.867188
1321.519531	63228.789063
1320.429688	64057.640625
1319.338867	64547.464844
1318.248047	65467.121094
1317.157227	66506.734375
1316.066406	67401.203125
1314.975586	68248.578125
1313.883789	68574.656250
1312.791992	69038.625000
1311.700195	69299.890625
1310.608398	68771.101563
1309.516602	69021.195313
1308.423828	68252.398438
1307.331055	67537.257813
1306.238281	67024.718750
1305.145508	66358.960938
1304.051758	65604.531250
1302.958984	65457.089844
1301.865234	65118.605469
1300.771484	65029.062500
1299.677734	65108.363281
1298.583008	65249.816406
1297.489258	65870.820313
1296.394531	66185.242188
1295.299805	66821.382813
1294.204102	66503.039063
1293.109375	66899.257813
1292.013672	66780.656250
1290.917969	66582.250000
1289.822266	66013.578125
1288.726563	66167.914063
1287.630859	65938.687500
1286.534180	65807.054688
1285.437500	65507.054688
1284.340820	65238.183594
1283.244141	64767.820313
1282.146484	64525.746094
1281.048828	64046.820313
1279.951172	64088.351563
1278.853516	63412.664063
1277.755859	63682.246094
1276.658203	62818.785156
1275.559570	62641.472656
1274.460938	62627.906250
1273.362305	62716.078125
1272.262695	62602.996094
1271.164063	62087.589844
1270.064453	62105.070313
1268.964844	61446.285156
1267.865234	61402.003906
1266.765625	61594.117188
1265.665039	61116.894531
1264.564453	61043.976563
1263.463867	60918.093750
1262.363281	60507.476563
1261.262695	60617.894531
1260.161133	60531.871094
1259.059570	60955.546875
1257.958008	60342.261719
1256.856445	60375.425781
1255.754883	60360.062500
1254.652344	59597.285156
1253.549805	59738.574219
1252.447266	59943.722656
1251.344727	59901.996094
1250.242188	59710.464844
1249.138672	59342.781250
1248.035156	59631.535156
1246.931641	59422.531250
1245.828125	58819.523438
1244.724609	59515.425781
1243.620117	59555.238281
1242.515625	59256.175781
1241.411133	59364.218750
1240.306641	59676.777344
1239.201172	59725.320313
1238.096680	59903.570313
1236.991211	59976.230469
1235.885742	60011.496094
1234.779297	60035.761719
1233.673828	59945.757813
1232.567383	59521.875000
1231.460938	59673.593750
1230.354492	59849.414063
1229.248047	59831.953125
1228.140625	59702.542969
1227.033203	59450.269531
1225.926758	59628.187500
1224.818359	59766.542969
1223.710938	59431.031250
1222.602539	59799.652344
1221.495117	59413.816406
1220.386719	59339.437500
1219.278320	59210.285156
1218.168945	59179.800781
1217.060547	59241.351563
1215.951172	59057.507813
1214.841797	58724.781250
1213.731445	59082.027344
1212.622070	58412.210938
1211.511719	58791.269531
1210.402344	59073.878906
1209.291992	58761.136719
1208.180664	59023.949219
1207.070313	59301.980469
1205.958984	59131.527344
1204.847656	59772.445313
1203.736328	59477.335938
1202.625000	59757.257813
1201.512695	59481.925781
1200.401367	59634.996094
1199.289063	60526.484375
1198.176758	60262.074219
1197.063477	60161.562500
1195.951172	60497.812500
1194.837891	60927.820313
1193.724609	60901.449219
1192.611328	61377.050781
1191.498047	61309.144531
1190.383789	61025.277344
1189.269531	60948.730469
1188.155273	60542.898438
1187.041016	60071.800781
1185.926758	60311.570313
1184.811523	59790.542969
1183.696289	60045.527344
1182.581055	60420.253906
1181.465820	59531.324219
1180.350586	59797.097656
1179.234375	59895.089844
1178.118164	59394.289063
1177.001953	59788.371094
1175.885742	59268.179688
1174.768555	59298.726563
1173.652344	59211.773438
1172.535156	58966.050781
1171.417969	58863.960938
1170.299805	58898.898438
