#Wave		#Intensity
2001.248047	36860.976563
2000.278320	37327.191406
1999.308594	37531.187500
1998.338867	37191.382813
1997.369141	37297.625000
1996.398438	37659.316406
1995.428711	37592.636719
1994.458008	37205.480469
1993.487305	37409.273438
1992.516602	37592.972656
1991.545898	37588.910156
1990.574219	37136.960938
1989.603516	37248.054688
1988.631836	37544.207031
1987.660156	37535.148438
1986.688477	37528.589844
1985.715820	37567.035156
1984.744141	37555.472656
1983.771484	37586.398438
1982.798828	37689.773438
1981.826172	37510.812500
1980.853516	37481.777344
1979.880859	37877.300781
1978.907227	37268.925781
1977.933594	37581.960938
1976.959961	37907.367188
1975.986328	37653.679688
1975.012695	37821.757813
1974.039063	37253.832031
1973.064453	37743.687500
1972.089844	37826.867188
1971.115234	37688.105469
1970.140625	37858.519531
1969.166016	38215.812500
1968.190430	38022.222656
1967.215820	37873.546875
1966.240234	37996.468750
1965.264648	37925.066406
1964.289063	38137.585938
1963.312500	37588.109375
1962.336914	37865.339844
1961.360352	38408.800781
1960.383789	38277.652344
1959.407227	38109.222656
1958.430664	38269.238281
1957.454102	38618.230469
1956.476563	38514.484375
1955.499023	38343.640625
1954.521484	38210.144531
1953.543945	38409.765625
1952.566406	38591.914063
1951.587891	38602.554688
1950.610352	38543.628906
1949.631836	38554.269531
1948.653320	38520.207031
1947.674805	38175.781250
1946.696289	38640.781250
1945.716797	38432.968750
1944.737305	38299.675781
1943.758789	39019.972656
1942.779297	38308.593750
1941.798828	38864.929688
1940.819336	38771.328125
1939.838867	38323.187500
1938.859375	38279.292969
1937.878906	38458.488281
1936.898438	38280.757813
1935.916992	38573.863281
1934.936523	38814.839844
1933.955078	38704.011719
1932.974609	38469.398438
1931.993164	38371.046875
1931.010742	38589.605469
1930.029297	38738.781250
1929.047852	38739.417969
1928.065430	38420.871094
1927.083008	38800.062500
1926.100586	38934.250000
1925.118164	38934.843750
1924.135742	38866.207031
1923.152344	38659.156250
1922.168945	38580.703125
1921.185547	38966.871094
1920.202148	38517.761719
1919.218750	38958.152344
1918.235352	38773.488281
1917.250977	38843.246094
1916.266602	38512.984375
1915.282227	38908.625000
1914.297852	38877.121094
1913.313477	39092.406250
1912.328125	39265.671875
1911.343750	38977.554688
1910.358398	38714.207031
1909.373047	39691.378906
1908.387695	39006.367188
1907.401367	38849.148438
1906.416016	39140.574219
1905.429688	38921.773438
1904.443359	38850.886719
1903.457031	38908.121094
1902.470703	38992.429688
1901.483398	39640.640625
1900.497070	39173.261719
1899.509766	39360.863281
1898.522461	38856.773438
1897.535156	39322.445313
1896.546875	38892.347656
1895.559570	39010.984375
1894.571289	39036.113281
1893.583008	39265.339844
1892.594727	39447.769531
1891.606445	39475.261719
1890.618164	39510.117188
1889.628906	39368.023438
1888.639648	39442.191406
1887.650391	39339.460938
1886.661133	39455.363281
1885.671875	39541.750000
1884.682617	39387.492188
1883.692383	39432.128906
1882.702148	39535.652344
1881.711914	39379.015625
1880.721680	39370.882813
1879.731445	39362.753906
1878.740234	39354.613281
1877.749023	39346.472656
1876.757813	39338.332031
1875.766602	39330.195313
1874.775391	39322.054688
1873.784180	39313.914063
1872.791992	39510.363281
1871.799805	39731.242188
1870.807617	39741.406250
1869.815430	40476.414063
1868.823242	39754.375000
1867.830078	39943.222656
1866.837891	39941.097656
1865.844727	39983.019531
1864.851563	40005.351563
1863.858398	39746.359375
1862.864258	40199.183594
1861.871094	39795.968750
1860.876953	39950.335938
1859.882813	39669.527344
1858.888672	40302.902344
1857.894531	40383.789063
1856.899414	40134.808594
1855.905273	40174.164063
1854.910156	40059.636719
1853.915039	40267.480469
1852.919922	40275.046875
1851.923828	40294.816406
1850.928711	40580.605469
1849.932617	40085.425781
1848.936523	40246.718750
1847.940430	40144.503906
1846.944336	40752.054688
1845.947266	40554.679688
1844.951172	40630.441406
1843.954102	40847.554688
1842.957031	40750.187500
1841.959961	40623.617188
1840.962891	40629.613281
1839.964844	40635.613281
1838.966797	40641.613281
1837.969727	40647.609375
1836.970703	40653.617188
1835.972656	41500.867188
1834.974609	41328.066406
1833.975586	41393.792969
1832.976563	41255.125000
1831.978516	41680.847656
1830.978516	41508.128906
1829.979492	41330.605469
1828.980469	41449.750000
1827.980469	41743.867188
1826.980469	41904.210938
1825.980469	42037.769531
1824.980469	41770.406250
1823.979492	41930.656250
1822.979492	41860.125000
1821.978516	42066.437500
1820.977539	41777.402344
1819.976563	42168.128906
1818.975586	41998.097656
1817.973633	42245.480469
1816.972656	41891.109375
1815.970703	42203.914063
1814.968750	42097.042969
1813.966797	42324.828125
1812.963867	42356.160156
1811.961914	42077.214844
1810.958984	41754.742188
1809.956055	42113.265625
1808.953125	42476.511719
1807.950195	42367.289063
1806.946289	42764.261719
1805.943359	42763.988281
1804.939453	42640.242188
1803.935547	42506.859375
1802.930664	42605.847656
1801.926758	42445.894531
1800.922852	42673.078125
1799.917969	42842.125000
1798.913086	42728.160156
1797.908203	42865.703125
1796.903320	43315.058594
1795.897461	42940.015625
1794.891602	42959.027344
1793.886719	42811.304688
1792.880859	43033.257813
1791.874023	42970.109375
1790.868164	43121.917969
1789.862305	42872.855469
1788.855469	43106.703125
1787.848633	43478.046875
1786.841797	43455.894531
1785.833984	43807.742188
1784.827148	43715.574219
1783.819336	43341.234375
1782.812500	43379.406250
1781.804688	43646.621094
1780.795898	44166.863281
1779.788086	43920.445313
1778.779297	43915.101563
1777.771484	43673.632813
1776.762695	44063.410156
1775.753906	44000.234375
1774.744141	44216.425781
1773.735352	44557.738281
1772.725586	43813.230469
1771.715820	44462.574219
1770.706055	44168.351563
1769.696289	44191.832031
1768.686523	44592.980469
1767.675781	44693.335938
1766.666016	44899.468750
1765.655273	45213.718750
1764.644531	44972.550781
1763.632813	45108.812500
1762.622070	44918.210938
1761.610352	45393.203125
1760.598633	45202.613281
1759.586914	45271.484375
1758.575195	45191.441406
1757.563477	45250.683594
1756.550781	45946.039063
1755.538086	45717.109375
1754.525391	46116.972656
1753.512695	45924.078125
1752.500000	46232.605469
1751.486328	45771.132813
1750.473633	45777.429688
1749.459961	46205.691406
1748.446289	46295.804688
1747.432617	46136.625000
1746.417969	46214.730469
1745.404297	46467.707031
1744.389648	46337.324219
1743.375000	46690.773438
1742.360352	46376.007813
1741.344727	46861.003906
1740.330078	47005.914063
1739.314453	47138.804688
1738.298828	47446.328125
1737.283203	47031.214844
1736.267578	47446.285156
1735.251953	47818.160156
1734.235352	47714.050781
1733.218750	48159.855469
1732.202148	48328.218750
1731.185547	48221.679688
1730.168945	48437.757813
1729.151367	49497.105469
1728.133789	49490.734375
1727.117188	49553.621094
1726.098633	49669.015625
1725.081055	50039.820313
1724.063477	50331.718750
1723.044922	50458.839844
1722.026367	50931.906250
1721.007813	51163.843750
1719.989258	51782.113281
1718.970703	51348.437500
1717.951172	51844.843750
1716.931641	51969.167969
1715.912109	52477.203125
1714.892578	52606.132813
1713.873047	51977.300781
1712.853516	52573.203125
1711.833008	52180.402344
1710.812500	52404.542969
1709.791992	51985.718750
1708.771484	52045.546875
1707.750000	52345.753906
1706.729492	52260.324219
1705.708008	52158.265625
1704.686523	52256.078125
1703.665039	52215.894531
1702.642578	52006.878906
1701.621094	51179.738281
1700.598633	51104.101563
1699.576172	51349.363281
1698.553711	51264.214844
1697.531250	51369.175781
1696.507813	51236.539063
1695.485352	50878.304688
1694.461914	50532.074219
1693.438477	50582.468750
1692.415039	50967.566406
1691.390625	50557.410156
1690.367188	51015.937500
1689.342773	50162.230469
1688.318359	50397.671875
1687.293945	50616.425781
1686.269531	50403.507813
1685.244141	50880.613281
1684.218750	50594.234375
1683.194336	50499.933594
1682.168945	50701.875000
1681.142578	50690.511719
1680.117188	50705.207031
1679.090820	50101.730469
1678.064453	50540.394531
1677.038086	50301.769531
1676.011719	50288.109375
1674.985352	50870.871094
1673.958008	50544.750000
1672.931641	50391.460938
1671.904297	50332.839844
1670.876953	50534.394531
1669.848633	50927.414063
1668.821289	50733.960938
1667.792969	50876.238281
1666.764648	51016.097656
1665.736328	50973.957031
1664.708008	51118.468750
1663.679688	52092.039063
1662.650391	50613.804688
1661.621094	51438.347656
1660.591797	51726.683594
1659.562500	51365.785156
1658.533203	51443.984375
1657.502930	51423.046875
1656.472656	51840.925781
1655.442383	51567.531250
1654.412109	51685.718750
1653.381836	51245.035156
1652.351563	51742.792969
1651.320313	51783.097656
1650.289063	51903.511719
1649.257813	51941.414063
1648.226563	51432.742188
1647.194336	52226.800781
1646.163086	52410.628906
1645.130859	52460.175781
1644.098633	52481.453125
1643.066406	52460.355469
1642.033203	52648.707031
1641.000977	52653.464844
1639.967773	52778.195313
1638.934570	52192.550781
1637.901367	53046.328125
1636.868164	53504.792969
1635.833984	53673.937500
1634.800781	52947.519531
1633.766602	52994.500000
1632.732422	53802.722656
1631.697266	54145.527344
1630.663086	53837.605469
1629.627930	54548.957031
1628.593750	54273.941406
1627.558594	54254.894531
1626.522461	55162.941406
1625.487305	54721.343750
1624.451172	54964.996094
1623.416016	55475.984375
1622.379883	55717.070313
1621.343750	55885.371094
1620.306641	56555.343750
1619.270508	57112.558594
1618.233398	58257.843750
1617.196289	59271.496094
1616.159180	60430.046875
1615.122070	61295.371094
1614.083984	62371.167969
1613.046875	64062.429688
1612.008789	65144.371094
1610.970703	65385.578125
1609.932617	65687.546875
1608.893555	65037.035156
1607.855469	65039.488281
1606.816406	63558.929688
1605.777344	61877.761719
1604.738281	60854.257813
1603.698242	59714.218750
1602.659180	58859.753906
1601.619141	57874.718750
1600.579102	57219.496094
1599.539063	56798.125000
1598.499023	55898.062500
1597.458008	55397.671875
1596.417969	55093.593750
1595.376953	54749.933594
1594.335938	54427.402344
1593.294922	54188.996094
1592.252930	54202.667969
1591.210938	53635.445313
1590.169922	53560.574219
1589.127930	52830.421875
1588.084961	53250.023438
1587.042969	53238.199219
1586.000000	52900.062500
1584.958008	53459.246094
1583.915039	53333.214844
1582.872070	53146.656250
1581.828125	53139.503906
1580.785156	52808.664063
1579.741211	52904.019531
1578.697266	52966.746094
1577.653320	53434.433594
1576.609375	52850.113281
1575.564453	53443.289063
1574.520508	53822.234375
1573.475586	54047.539063
1572.430664	54293.691406
1571.384766	54490.929688
1570.339844	53844.269531
1569.293945	54071.726563
1568.249023	53883.144531
1567.202148	54356.781250
1566.156250	53675.757813
1565.110352	53608.113281
1564.063477	52883.335938
1563.017578	52709.058594
1561.970703	52588.226563
1560.922852	52527.777344
1559.875977	52495.195313
1558.829102	52028.777344
1557.781250	52351.191406
1556.733398	51880.324219
1555.685547	52024.097656
1554.636719	51731.964844
1553.588867	51827.035156
1552.540039	51632.375000
1551.491211	51277.898438
1550.442383	51602.343750
1549.393555	51426.351563
1548.344727	50893.777344
1547.294922	51336.199219
1546.245117	50815.402344
1545.195313	51102.593750
1544.145508	50322.824219
1543.094727	50107.902344
1542.044922	50519.988281
1540.994141	50392.996094
1539.943359	50101.855469
1538.892578	50116.019531
1537.840820	50248.078125
1536.790039	49954.800781
1535.738281	50163.097656
1534.686523	49650.441406
1533.634766	50092.031250
1532.583008	49196.156250
1531.530273	49990.984375
1530.477539	49023.871094
1529.424805	49368.296875
1528.372070	49315.613281
1527.319336	49200.644531
1526.265625	49034.953125
1525.212891	48818.570313
1524.159180	48839.820313
1523.105469	49209.261719
1522.051758	48543.375000
1520.997070	49313.828125
1519.942383	48680.425781
1518.888672	48957.449219
1517.833984	48826.582031
1516.778320	48608.226563
1515.723633	48908.140625
1514.667969	49217.156250
1513.612305	48674.222656
1512.556641	49054.523438
1511.500977	48942.175781
1510.445313	48868.988281
1509.388672	48832.632813
1508.332031	48612.269531
1507.275391	48826.644531
1506.218750	48548.878906
1505.162109	48852.843750
1504.104492	48621.136719
1503.047852	48943.359375
1501.990234	49040.289063
1500.931641	48622.585938
1499.874023	48301.500000
1498.816406	48630.429688
1497.757813	48743.410156
1496.699219	48594.644531
1495.640625	48439.042969
1494.582031	48882.449219
1493.522461	48745.203125
1492.462891	48814.464844
1491.403320	48019.007813
1490.343750	48856.593750
1489.284180	48386.988281
1488.224609	48332.468750
1487.164063	48539.250000
1486.103516	48095.156250
1485.042969	48941.132813
1483.982422	48843.019531
1482.920898	48586.910156
1481.860352	48324.019531
1480.798828	48370.304688
1479.737305	48569.937500
1478.675781	48794.675781
1477.613281	48776.773438
1476.550781	48658.207031
1475.489258	48521.382813
1474.426758	48979.238281
1473.363281	48972.738281
1472.300781	48877.078125
1471.237305	49240.898438
1470.174805	49033.234375
1469.111328	49565.980469
1468.046875	49253.242188
1466.983398	49660.121094
1465.919922	49320.066406
1464.855469	49279.250000
1463.791016	49535.226563
1462.726563	49857.304688
1461.661133	49636.121094
1460.596680	50108.652344
1459.531250	49556.710938
1458.465820	49739.410156
1457.400391	50225.347656
1456.334961	50024.804688
1455.268555	50344.093750
1454.202148	50544.746094
1453.135742	50218.914063
1452.069336	50221.289063
1451.002930	50228.214844
1449.935547	50442.402344
1448.869141	50367.304688
1447.801758	50654.242188
1446.734375	51205.136719
1445.666016	50797.644531
1444.598633	50824.925781
1443.530273	50312.988281
1442.461914	51386.730469
1441.393555	51236.488281
1440.325195	51420.570313
1439.256836	51372.679688
1438.187500	51706.691406
1437.118164	52386.031250
1436.048828	52535.058594
1434.979492	52684.085938
1433.909180	52833.246094
1432.839844	52982.273438
1431.769531	53131.437500
1430.699219	53441.992188
1429.627930	53922.675781
1428.557617	53527.175781
1427.486328	53617.390625
1426.416016	53859.566406
1425.343750	53348.605469
1424.272461	53572.597656
1423.201172	53646.855469
1422.128906	53526.125000
1421.056641	53385.039063
1419.984375	53094.429688
1418.912109	53012.375000
1417.839844	53267.886719
1416.766602	53070.312500
1415.693359	52698.437500
1414.620117	53017.257813
1413.546875	52948.863281
1412.473633	53217.722656
1411.399414	53020.324219
1410.325195	53058.296875
1409.250977	52917.546875
1408.176758	53421.429688
1407.102539	53487.453125
1406.027344	53553.535156
1404.952148	53619.621094
1403.876953	53685.703125
1402.801758	53751.789063
1401.726563	53817.871094
1400.650391	53729.121094
1399.574219	54259.218750
1398.498047	53574.292969
1397.421875	53973.277344
1396.345703	54288.597656
1395.268555	54211.117188
1394.191406	54566.894531
1393.114258	54816.507813
1392.037109	55072.792969
1390.959961	55207.207031
1389.881836	55449.796875
1388.804688	55703.570313
1387.726563	55592.105469
1386.647461	56131.960938
1385.569336	56520.660156
1384.491211	56652.398438
1383.412109	56626.421875
1382.333008	57143.171875
1381.253906	57434.582031
1380.173828	57611.074219
1379.094727	57283.335938
1378.014648	57840.093750
1376.934570	57177.191406
1375.854492	57769.753906
1374.773438	57219.550781
1373.693359	57139.527344
1372.612305	56625.605469
1371.531250	56507.496094
1370.450195	56571.472656
1369.369141	56601.718750
1368.287109	55683.855469
1367.205078	55592.945313
1366.123047	55079.843750
1365.041016	55202.390625
1363.958984	55082.425781
1362.875977	54839.046875
1361.793945	54977.273438
1360.710938	54505.125000
1359.626953	54712.902344
1358.543945	53908.996094
1357.460938	54403.859375
1356.376953	54062.195313
1355.292969	54128.660156
1354.208984	53681.816406
1353.124023	53412.171875
1352.040039	53485.433594
1350.955078	53818.527344
1349.870117	53141.355469
1348.785156	52932.453125
1347.700195	53393.085938
1346.614258	53190.925781
1345.528320	53053.746094
1344.442383	52905.425781
1343.356445	52745.968750
1342.270508	52875.132813
1341.183594	52885.714844
1340.096680	52925.359375
1339.009766	52940.390625
1337.922852	52774.355469
1336.835938	52588.261719
1335.748047	52737.414063
1334.661133	52491.066406
1333.573242	53174.039063
1332.484375	52847.300781
1331.396484	52748.433594
1330.307617	52683.089844
1329.219727	52774.011719
1328.130859	52998.804688
1327.041992	53301.613281
1325.952148	53068.886719
1324.863281	52871.929688
1323.773438	53078.695313
1322.683594	52801.535156
1321.593750	53420.652344
1320.502930	52793.589844
1319.413086	53294.367188
1318.322266	52776.726563
1317.231445	52862.972656
1316.140625	52808.867188
1315.048828	53233.558594
1313.958008	53134.875000
1312.866211	53343.417969
1311.774414	53235.839844
1310.682617	53239.562500
1309.589844	53577.011719
1308.498047	53302.605469
1307.405273	53212.898438
1306.312500	53245.519531
1305.218750	53509.343750
1304.125977	53197.355469
1303.032227	53309.960938
1301.939453	53435.859375
1300.845703	53541.714844
1299.750977	53647.527344
1298.657227	53660.027344
1297.562500	53696.941406
1296.467773	54018.007813
1295.373047	54141.406250
1294.278320	54406.789063
1293.183594	54976.054688
1292.087891	54671.050781
1290.992188	55623.773438
1289.896484	54810.921875
1288.800781	54665.742188
1287.704102	55010.535156
1286.608398	54739.035156
1285.511719	55043.792969
1284.415039	54688.187500
1283.317383	54862.144531
1282.220703	54282.996094
1281.123047	54370.597656
1280.025391	54086.207031
1278.927734	53733.296875
1277.830078	54057.757813
1276.731445	53638.589844
1275.633789	53254.972656
1274.535156	53050.664063
1273.436523	52811.039063
1272.336914	52982.789063
1271.238281	52508.914063
1270.138672	52713.804688
1269.039063	52085.445313
1267.939453	52442.796875
1266.839844	52042.261719
1265.739258	51862.746094
1264.638672	51844.507813
1263.538086	51994.085938
1262.437500	51763.894531
1261.336914	51732.433594
1260.235352	50968.324219
1259.134766	51153.246094
1258.033203	51143.964844
1256.930664	51097.191406
1255.829102	50832.121094
1254.726563	50917.703125
1253.625000	50811.472656
1252.522461	50293.128906
1251.418945	50398.589844
1250.316406	50521.636719
1249.212891	50389.113281
1248.110352	50364.550781
1247.006836	50718.738281
1245.902344	50775.582031
1244.798828	50090.597656
1243.694336	49824.007813
1242.589844	50217.636719
1241.485352	49794.921875
1240.380859	49790.277344
1239.276367	49836.218750
1238.170898	49816.175781
1237.065430	49631.257813
1235.959961	49420.027344
1234.854492	49705.531250
1233.748047	49738.250000
1232.642578	49186.605469
1231.536133	49542.273438
1230.429688	49570.609375
1229.322266	50033.660156
1228.215820	49574.550781
1227.108398	49451.414063
1226.000977	49547.761719
1224.893555	49356.652344
1223.786133	49417.878906
1222.677734	49751.042969
1221.569336	49152.132813
1220.460938	49349.285156
1219.352539	49441.148438
1218.244141	49107.800781
1217.134766	49171.187500
1216.025391	48875.246094
1214.916016	49019.691406
1213.806641	48373.480469
1212.697266	48874.871094
1211.586914	49047.691406
1210.476563	48609.757813
1209.366211	48498.062500
1208.255859	48773.687500
1207.145508	48576.679688
1206.034180	48740.636719
1204.922852	49110.093750
1203.811523	48836.601563
1202.700195	48794.925781
1201.587891	48838.503906
1200.476563	48868.953125
1199.364258	49104.765625
1198.251953	48709.183594
1197.138672	49030.113281
1196.026367	49005.902344
1194.913086	49226.230469
1193.799805	48863.644531
1192.686523	49550.960938
1191.573242	49218.992188
1190.458984	48871.871094
1189.344727	49109.460938
1188.230469	49041.636719
1187.116211	48895.335938
1186.001953	49509.941406
1184.886719	48905.867188
1183.772461	48404.441406
1182.657227	48563.402344
1181.541016	48397.703125
1180.425781	48724.320313
1179.309570	48090.441406
1178.193359	48347.312500
1177.077148	48349.390625
1175.960938	48366.699219
1174.844727	47870.437500
1173.727539	47909.582031
1172.610352	48009.617188
1171.493164	47842.101563
1170.375977	47802.937500
