#Wave		#Intensity
2001.182617	37030.984375
2000.212891	37030.984375
1999.243164	37325.250000
1998.273438	37258.597656
1997.303711	37259.609375
1996.333008	36997.621094
1995.363281	37351.781250
1994.392578	37122.414063
1993.421875	37418.847656
1992.451172	37602.542969
1991.479492	37771.152344
1990.508789	37399.246094
1989.537109	37415.230469
1988.566406	37686.335938
1987.594727	37397.160156
1986.622070	37390.628906
1985.650391	37529.093750
1984.677734	37547.531250
1983.706055	37605.949219
1982.733398	37801.769531
1981.760742	37937.562500
1980.788086	37606.222656
1979.814453	37372.394531
1978.841797	37440.773438
1977.868164	37618.964844
1976.894531	37767.144531
1975.920898	38127.394531
1974.947266	37886.187500
1973.972656	37754.832031
1972.999023	37890.406250
1972.024414	37709.214844
1971.049805	37979.386719
1970.075195	38154.734375
1969.099609	38043.378906
1968.125000	38193.726563
1967.149414	37942.867188
1966.173828	38108.128906
1965.198242	38153.769531
1964.222656	37910.515625
1963.247070	38068.218750
1962.270508	38011.773438
1961.294922	37965.300781
1960.318359	38180.144531
1959.341797	38245.625000
1958.364258	38403.125000
1957.387695	38187.472656
1956.410156	38538.902344
1955.433594	38320.812500
1954.456055	38341.453125
1953.478516	38541.046875
1952.500000	38201.296875
1951.522461	38162.308594
1950.543945	38302.203125
1949.565430	38578.656250
1948.586914	38472.570313
1947.608398	38652.054688
1946.629883	38255.535156
1945.650391	38427.550781
1944.671875	38589.574219
1943.692383	38406.652344
1942.712891	38620.718750
1941.733398	38264.230469
1940.752930	38490.640625
1939.773438	38726.890625
1938.792969	38229.261719
1937.812500	38698.457031
1936.832031	38468.644531
1935.851563	38687.382813
1934.870117	38700.425781
1933.888672	38928.949219
1932.908203	38882.507813
1931.926758	38964.835938
1930.945313	38836.707031
1929.962891	38597.242188
1928.981445	38632.550781
1927.999023	38949.910156
1927.016602	39022.250000
1926.034180	38688.921875
1925.051758	39184.156250
1924.069336	38885.531250
1923.085938	38957.824219
1922.102539	38765.621094
1921.119141	38954.054688
1920.135742	39048.531250
1919.152344	38886.054688
1918.168945	39183.039063
1917.184570	38781.050781
1916.200195	38949.554688
1915.215820	39293.273438
1914.231445	39135.824219
1913.247070	39143.769531
1912.261719	39243.003906
1911.276367	39376.734375
1910.291992	39345.164063
1909.306641	39256.886719
1908.320313	39269.726563
1907.334961	39410.750000
1906.348633	39628.128906
1905.363281	39295.890625
1904.376953	39675.824219
1903.390625	39590.035156
1902.403320	39085.562500
1901.416992	39489.957031
1900.429688	39480.566406
1899.443359	39611.496094
1898.456055	39319.035156
1897.467773	39627.125000
1896.480469	39829.308594
1895.493164	39369.679688
1894.504883	39621.023438
1893.516602	39810.800781
1892.528320	39521.066406
1891.540039	39821.410156
1890.550781	39718.566406
1889.562500	40001.566406
1888.573242	39883.980469
1887.583984	40073.503906
1886.594727	39968.222656
1885.605469	39705.816406
1884.615234	39912.449219
1883.625000	39910.351563
1882.635742	39905.796875
1881.645508	39763.820313
1880.654297	39904.050781
1879.664063	40456.343750
1878.673828	40051.910156
1877.682617	40008.089844
1876.691406	40037.839844
1875.700195	39682.714844
1874.708984	40131.617188
1873.716797	40109.863281
1872.725586	40296.371094
1871.733398	40517.109375
1870.741211	40198.937500
1869.749023	39993.523438
1868.755859	40708.761719
1867.763672	40691.816406
1866.770508	40408.097656
1865.777344	40493.984375
1864.784180	40844.074219
1863.791016	40440.609375
1862.797852	40753.898438
1861.803711	40780.968750
1860.809570	40253.035156
1859.815430	40187.289063
1858.821289	40268.210938
1857.827148	40622.785156
1856.832031	40859.960938
1855.837891	41004.230469
1854.842773	40865.132813
1853.847656	40586.894531
1852.852539	40950.859375
1851.856445	41500.214844
1850.861328	40912.050781
1849.865234	40956.097656
1848.869141	40865.941406
1847.873047	41124.640625
1846.876953	41041.800781
1845.879883	41244.289063
1844.883789	41080.996094
1843.886719	41678.296875
1842.889648	41768.449219
1841.892578	41578.343750
1840.895508	41329.828125
1839.897461	41500.378906
1838.899414	41605.105469
1837.901367	41607.523438
1836.903320	41463.859375
1835.905273	41838.730469
1834.907227	42043.101563
1833.908203	41770.464844
1832.909180	42096.421875
1831.910156	42137.656250
1830.911133	42195.902344
1829.912109	41928.292969
1828.912109	42151.871094
1827.913086	42020.480469
1826.913086	42404.363281
1825.913086	42214.652344
1824.913086	42326.261719
1823.912109	42408.683594
1822.912109	42784.933594
1821.911133	42231.054688
1820.910156	42029.394531
1819.909180	42201.613281
1818.908203	42546.078125
1817.906250	42266.816406
1816.904297	42819.789063
1815.903320	42678.835938
1814.900391	42598.558594
1813.898438	42787.457031
1812.896484	42731.429688
1811.893555	42934.781250
1810.891602	42803.613281
1809.888672	42779.109375
1808.885742	42408.171875
1807.881836	42868.183594
1806.878906	42921.171875
1805.875000	43121.839844
1804.871094	42993.191406
1803.867188	42811.335938
1802.863281	42782.007813
1801.859375	43142.250000
1800.854492	43178.187500
1799.849609	42974.652344
1798.844727	43061.386719
1797.839844	43203.707031
1796.834961	43116.308594
1795.830078	43314.156250
1794.824219	43342.765625
1793.818359	43228.804688
1792.812500	43163.199219
1791.806641	43235.292969
1790.799805	43582.660156
1789.793945	43917.835938
1788.787109	43521.414063
1787.780273	43467.875000
1786.773438	43481.925781
1785.766602	43990.593750
1784.758789	43768.128906
1783.751953	43794.171875
1782.744141	43908.222656
1781.736328	44022.277344
1780.728516	44136.328125
1779.719727	44250.492188
1778.711914	44364.542969
1777.703125	44478.703125
1776.694336	44592.867188
1775.685547	44281.511719
1774.676758	44343.531250
1773.666992	44292.359375
1772.657227	44628.781250
1771.648438	44363.367188
1770.638672	44396.441406
1769.627930	44410.253906
1768.618164	44683.863281
1767.607422	44623.054688
1766.597656	44694.531250
1765.586914	44438.988281
1764.576172	44570.562500
1763.564453	44894.367188
1762.553711	45386.269531
1761.541992	45335.003906
1760.530273	44925.824219
1759.518555	45182.082031
1758.506836	45901.703125
1757.495117	45735.128906
1756.482422	45549.410156
1755.469727	45834.167969
1754.457031	45540.507813
1753.444336	45959.519531
1752.431641	45920.210938
1751.417969	45991.238281
1750.405273	46366.781250
1749.391602	45996.554688
1748.377930	46520.578125
1747.364258	46474.007813
1746.349609	46722.187500
1745.335938	46419.238281
1744.321289	46664.941406
1743.306641	46572.863281
1742.291992	47156.082031
1741.276367	47042.402344
1740.261719	47598.996094
1739.246094	47281.839844
1738.230469	47716.156250
1737.214844	47523.496094
1736.199219	47649.042969
1735.182617	47939.562500
1734.166992	48378.226563
1733.150391	48204.703125
1732.133789	48576.238281
1731.117188	48875.937500
1730.099609	48900.738281
1729.083008	49109.488281
1728.065430	49150.957031
1727.047852	49954.250000
1726.030273	50026.593750
1725.012695	50645.613281
1723.994141	50357.375000
1722.976563	50412.894531
1721.958008	51005.265625
1720.939453	51187.089844
1719.920898	51251.968750
1718.901367	51567.230469
1717.882813	51958.679688
1716.863281	51928.019531
1715.843750	52104.742188
1714.824219	52455.367188
1713.803711	52248.308594
1712.784180	52062.765625
1711.763672	52358.421875
1710.743164	52542.042969
1709.722656	52182.722656
1708.702148	52078.253906
1707.681641	52830.687500
1706.660156	52257.320313
1705.638672	52519.304688
1704.617188	52476.691406
1703.595703	52379.386719
1702.574219	52322.542969
1701.551758	52805.445313
1700.529297	52068.648438
1699.507813	52351.769531
1698.484375	52347.242188
1697.461914	52513.785156
1696.439453	52026.988281
1695.416016	52580.667969
1694.392578	52459.734375
1693.369141	52407.695313
1692.345703	52581.191406
1691.322266	52946.871094
1690.297852	52716.789063
1689.273438	52747.773438
1688.249023	52755.023438
1687.224609	52667.398438
1686.200195	52987.671875
1685.174805	53056.511719
1684.150391	53293.632813
1683.125000	53120.640625
1682.099609	53490.363281
1681.073242	53774.656250
1680.047852	53267.664063
1679.021484	53840.835938
1677.995117	53660.789063
1676.968750	53471.332031
1675.942383	54055.992188
1674.916016	53911.496094
1673.888672	53866.433594
1672.862305	54822.148438
1671.834961	54448.136719
1670.806641	54809.781250
1669.779297	54568.320313
1668.751953	55005.464844
1667.723633	54787.683594
1666.695313	54312.375000
1665.666992	54742.238281
1664.638672	54992.394531
1663.609375	55214.113281
1662.581055	55145.265625
1661.551758	55605.363281
1660.522461	55321.628906
1659.493164	55439.261719
1658.462891	55589.894531
1657.433594	55716.875000
1656.403320	55537.117188
1655.373047	55956.542969
1654.342773	56031.500000
1653.312500	56309.207031
1652.281250	56178.968750
1651.250977	56699.328125
1650.219727	56102.445313
1649.188477	55847.425781
1648.156250	56876.414063
1647.125000	56465.886719
1646.092773	56915.070313
1645.060547	56824.898438
1644.028320	56843.046875
1642.996094	57367.234375
1641.963867	57088.761719
1640.930664	57038.609375
1639.898438	57099.042969
1638.865234	57622.804688
1637.832031	57652.535156
1636.797852	57891.511719
1635.764648	57895.320313
1634.730469	58127.109375
1633.696289	58262.468750
1632.662109	58198.066406
1631.627930	58819.625000
1630.592773	59260.113281
1629.558594	58906.722656
1628.523438	59638.167969
1627.488281	60411.605469
1626.453125	60152.070313
1625.416992	60781.992188
1624.381836	60637.441406
1623.345703	61907.445313
1622.309570	61915.191406
1621.273438	63067.261719
1620.237305	63752.363281
1619.200195	64584.894531
1618.163086	65454.625000
1617.125977	67282.445313
1616.088867	68741.781250
1615.051758	70437.179688
1614.014648	71534.757813
1612.976563	72088.687500
1611.938477	73557.828125
1610.900391	74436.562500
1609.862305	74009.062500
1608.823242	74136.273438
1607.785156	73556.906250
1606.746094	72126.312500
1605.707031	71058.710938
1604.667969	69598.664063
1603.628906	68457.078125
1602.588867	67862.867188
1601.548828	66705.632813
1600.508789	66308.203125
1599.468750	65665.617188
1598.428711	64782.675781
1597.387695	63977.109375
1596.347656	63923.679688
1595.306641	63991.660156
1594.265625	63200.664063
1593.224609	62876.683594
1592.182617	62744.144531
1591.140625	62742.292969
1590.099609	62605.156250
1589.057617	62619.644531
1588.014648	62230.761719
1586.972656	62590.324219
1585.929688	62080.378906
1584.887695	61682.464844
1583.844727	61960.378906
1582.800781	61669.785156
1581.757813	62276.003906
1580.714844	62656.121094
1579.670898	63296.863281
1578.626953	63485.769531
1577.583008	63511.687500
1576.538086	63200.167969
1575.494141	63512.292969
1574.449219	63421.871094
1573.404297	64431.578125
1572.359375	63717.816406
1571.314453	63634.371094
1570.269531	63697.402344
1569.223633	64111.351563
1568.177734	63637.488281
1567.131836	63444.914063
1566.085938	63250.082031
1565.040039	63245.757813
1563.993164	62823.460938
1562.946289	62545.257813
1561.899414	62559.625000
1560.852539	61931.117188
1559.805664	61571.996094
1558.757813	61744.281250
1557.709961	61241.507813
1556.662109	60959.226563
1555.614258	61175.578125
1554.566406	61969.113281
1553.517578	61292.804688
1552.469727	61309.664063
1551.420898	60955.785156
1550.372070	60826.742188
1549.322266	60987.281250
1548.273438	60853.644531
1547.223633	60206.027344
1546.173828	60486.960938
1545.124023	60557.164063
1544.074219	60326.496094
1543.024414	60577.171875
1541.973633	59971.808594
1540.922852	60259.460938
1539.872070	60251.003906
1538.821289	60309.597656
1537.770508	60007.542969
1536.718750	60364.312500
1535.666992	60025.375000
1534.615234	60201.789063
1533.563477	60313.460938
1532.511719	60187.195313
1531.458984	60169.503906
1530.407227	60366.539063
1529.354492	60362.667969
1528.300781	59989.515625
1527.248047	59697.261719
1526.195313	59658.898438
1525.141602	60139.566406
1524.087891	60216.449219
1523.034180	59382.457031
1521.980469	59489.417969
1520.925781	59492.605469
1519.871094	59447.390625
1518.817383	59040.414063
1517.762695	59520.574219
1516.707031	59406.269531
1515.652344	59029.453125
1514.596680	59251.453125
1513.541016	59466.464844
1512.485352	59308.507813
1511.429688	59201.230469
1510.374023	59031.867188
1509.317383	59543.527344
1508.260742	58932.523438
1507.204102	59388.824219
1506.147461	58927.519531
1505.090820	59312.382813
1504.033203	59168.449219
1502.975586	59231.390625
1501.917969	58731.375000
1500.860352	58704.777344
1499.802734	58813.699219
1498.744141	58757.234375
1497.686523	59171.476563
1496.627930	58722.410156
1495.569336	59363.734375
1494.509766	58680.718750
1493.451172	58899.644531
1492.391602	58611.519531
1491.332031	58550.558594
1490.272461	58994.113281
1489.212891	58655.675781
1488.152344	58601.609375
1487.092773	58856.972656
1486.032227	58649.351563
1484.971680	59090.187500
1483.910156	58603.128906
1482.849609	59181.230469
1481.788086	58911.863281
1480.726563	58931.062500
1479.665039	58806.042969
1478.603516	59127.355469
1477.541992	58915.386719
1476.479492	58946.003906
1475.416992	59120.710938
1474.354492	59062.082031
1473.291992	59133.804688
1472.229492	59681.031250
1471.166016	59924.046875
1470.102539	60107.554688
1469.039063	59710.613281
1467.975586	59642.785156
1466.912109	60054.652344
1465.847656	59842.906250
1464.783203	60035.386719
1463.718750	60298.562500
1462.654297	60290.023438
1461.589844	60660.312500
1460.524414	60834.242188
1459.458984	60795.949219
1458.393555	61537.718750
1457.328125	61036.375000
1456.262695	61143.980469
1455.196289	61351.847656
1454.130859	61420.605469
1453.064453	61491.617188
1451.998047	61961.320313
1450.930664	61449.035156
1449.864258	61927.679688
1448.796875	61609.140625
1447.729492	62126.285156
1446.662109	62005.863281
1445.594727	62561.437500
1444.526367	62800.511719
1443.458008	62457.058594
1442.390625	63580.929688
1441.321289	63069.156250
1440.252930	63537.617188
1439.184570	63824.031250
1438.115234	64337.648438
1437.045898	64903.347656
1435.976563	64773.527344
1434.907227	65182.179688
1433.836914	65086.421875
1432.767578	65578.898438
1431.697266	65558.023438
1430.626953	66390.773438
1429.555664	66099.648438
1428.485352	65783.664063
1427.414063	66404.890625
1426.342773	66712.820313
1425.271484	66938.984375
1424.200195	66799.953125
1423.128906	67645.007813
1422.056641	67172.648438
1420.984375	67323.765625
1419.912109	67594.921875
1418.839844	68110.687500
1417.767578	67296.500000
1416.694336	67440.679688
1415.621094	67698.023438
1414.547852	67106.226563
1413.474609	66956.070313
1412.400391	66652.054688
1411.327148	66194.273438
1410.252930	66340.734375
1409.178711	66435.117188
1408.104492	66631.234375
1407.029297	66282.312500
1405.955078	66170.906250
1404.879883	66649.507813
1403.804688	67234.164063
1402.729492	67915.773438
1401.653320	68228.875000
1400.578125	68478.617188
1399.501953	68260.765625
1398.425781	68341.054688
1397.349609	68084.929688
1396.272461	68754.343750
1395.196289	68446.320313
1394.119141	68713.789063
1393.041992	69166.140625
1391.964844	69525.851563
1390.886719	69657.664063
1389.809570	70395.945313
1388.731445	70633.500000
1387.653320	70537.375000
1386.575195	70493.117188
1385.497070	70777.835938
1384.417969	70821.398438
1383.338867	70770.343750
1382.259766	70795.875000
1381.180664	71136.601563
1380.101563	71371.406250
1379.021484	70789.109375
1377.941406	70587.328125
1376.861328	70435.109375
1375.781250	70366.171875
1374.701172	69912.671875
1373.620117	69724.664063
1372.539063	69473.781250
1371.458008	68598.070313
1370.376953	69161.054688
1369.295898	68517.156250
1368.213867	68518.281250
1367.132813	68375.640625
1366.050781	68372.289063
1364.967773	67834.531250
1363.885742	68004.140625
1362.802734	67751.695313
1361.720703	68291.554688
1360.637695	68088.507813
1359.554688	67923.671875
1358.470703	68256.835938
1357.387695	67941.765625
1356.303711	67640.265625
1355.219727	67222.296875
1354.135742	66903.093750
1353.050781	67204.757813
1351.966797	66285.187500
1350.881836	66792.945313
1349.796875	66005.929688
1348.711914	65534.945313
1347.626953	65399.968750
1346.541016	65374.730469
1345.455078	65409.925781
1344.369141	65084.832031
1343.283203	65182.707031
1342.197266	65510.953125
1341.110352	65879.328125
1340.023438	65073.605469
1338.936523	65142.339844
1337.849609	65743.046875
1336.762695	65795.984375
1335.674805	65875.718750
1334.586914	65323.160156
1333.499023	65525.792969
1332.411133	65940.515625
1331.323242	65707.539063
1330.234375	65615.296875
1329.145508	66257.445313
1328.056641	65870.546875
1326.967773	66206.718750
1325.878906	66063.132813
1324.789063	66550.820313
1323.699219	66855.460938
1322.609375	67612.609375
1321.519531	67163.453125
1320.429688	67561.421875
1319.338867	68240.031250
1318.248047	68570.812500
1317.157227	68651.976563
1316.066406	69383.460938
1314.975586	69749.476563
1313.883789	70273.437500
1312.791992	70607.992188
1311.700195	70973.578125
1310.608398	70513.468750
1309.516602	69982.320313
1308.423828	70301.101563
1307.331055	70019.273438
1306.238281	69310.609375
1305.145508	68906.781250
1304.051758	69338.875000
1302.958984	69006.304688
1301.865234	68789.390625
1300.771484	68434.804688
1299.677734	69062.132813
1298.583008	69940.179688
1297.489258	70411.570313
1296.394531	70700.742188
1295.299805	71378.242188
1294.204102	71209.976563
1293.109375	71760.664063
1292.013672	71836.406250
1290.917969	71612.687500
1289.822266	70945.523438
1288.726563	70819.601563
1287.630859	70279.179688
1286.534180	69672.453125
1285.437500	69885.867188
1284.340820	69921.945313
1283.244141	69149.468750
1282.146484	68791.437500
1281.048828	68544.250000
1279.951172	68208.585938
1278.853516	68481.781250
1277.755859	67657.132813
1276.658203	67439.085938
1275.559570	66900.312500
1274.460938	66669.203125
1273.362305	66769.906250
1272.262695	66446.031250
1271.164063	66487.046875
1270.064453	66108.070313
1268.964844	65983.375000
1267.865234	65818.953125
1266.765625	65784.929688
1265.665039	65629.429688
1264.564453	64842.386719
1263.463867	64583.335938
1262.363281	65028.593750
1261.262695	65098.464844
1260.161133	64784.328125
1259.059570	64549.734375
1257.958008	64851.273438
1256.856445	64497.648438
1255.754883	64311.738281
1254.652344	64282.429688
1253.549805	64045.921875
1252.447266	64067.359375
1251.344727	63881.652344
1250.242188	64275.445313
1249.138672	64217.523438
1248.035156	64289.558594
1246.931641	63762.628906
1245.828125	63887.550781
1244.724609	63633.828125
1243.620117	63633.277344
1242.515625	63894.574219
1241.411133	64120.570313
1240.306641	63864.777344
1239.201172	64328.203125
1238.096680	64318.722656
1236.991211	64166.347656
1235.885742	64407.460938
1234.779297	64277.093750
1233.673828	64199.503906
1232.567383	64288.894531
1231.460938	63646.855469
1230.354492	64401.695313
1229.248047	64152.871094
1228.140625	63757.058594
1227.033203	64408.300781
1225.926758	64071.828125
1224.818359	64830.277344
1223.710938	64408.292969
1222.602539	64519.410156
1221.495117	64073.507813
1220.386719	63719.851563
1219.278320	64144.476563
1218.168945	63902.699219
1217.060547	63619.375000
1215.951172	63252.898438
1214.841797	63280.824219
1213.731445	63479.562500
1212.622070	63432.984375
1211.511719	63279.152344
1210.402344	63666.007813
1209.291992	63501.242188
1208.180664	63424.054688
1207.070313	63646.593750
1205.958984	64059.335938
1204.847656	63949.277344
1203.736328	63922.339844
1202.625000	64326.058594
1201.512695	64259.714844
1200.401367	64320.136719
1199.289063	64590.277344
1198.176758	64491.144531
1197.063477	64451.015625
1195.951172	65777.859375
1194.837891	65449.320313
1193.724609	65505.074219
1192.611328	65772.507813
1191.498047	66146.757813
1190.383789	65973.273438
1189.269531	65566.453125
1188.155273	65183.773438
1187.041016	65341.980469
1185.926758	65066.296875
1184.811523	65082.785156
1183.696289	64360.488281
1182.581055	64523.078125
1181.465820	64720.460938
1180.350586	64510.468750
1179.234375	64119.800781
1178.118164	64317.140625
1177.001953	64240.117188
1175.885742	64171.828125
1174.768555	64229.769531
1173.652344	63902.589844
1172.535156	63162.218750
1171.417969	63126.785156
1170.299805	63602.375000
