#Wave		#Intensity
2001.221680	38510.085938
2000.251953	39299.640625
1999.282227	39227.621094
1998.312500	38797.320313
1997.342773	39081.152344
1996.372070	39154.480469
1995.402344	39453.171875
1994.431641	39215.925781
1993.460938	39013.808594
1992.490234	39404.976563
1991.518555	39328.023438
1990.547852	39641.429688
1989.576172	39106.644531
1988.604492	39675.105469
1987.632813	39725.695313
1986.661133	39573.734375
1985.689453	39866.816406
1984.716797	39437.433594
1983.745117	39433.042969
1982.772461	39773.464844
1981.799805	39734.039063
1980.827148	39579.726563
1979.853516	39967.390625
1978.880859	39863.027344
1977.907227	40325.398438
1976.933594	39611.976563
1975.959961	39600.062500
1974.986328	40114.628906
1974.011719	39878.101563
1973.038086	39918.523438
1972.063477	39442.703125
1971.088867	39687.640625
1970.114258	40039.691406
1969.138672	40169.781250
1968.164063	40225.058594
1967.188477	40384.968750
1966.212891	39971.835938
1965.237305	40206.453125
1964.261719	40535.621094
1963.286133	40227.253906
1962.309570	39948.863281
1961.333984	40464.578125
1960.357422	40726.269531
1959.380859	40313.574219
1958.404297	40137.355469
1957.426758	40267.136719
1956.450195	40282.472656
1955.472656	40506.664063
1954.495117	40037.179688
1953.517578	40567.058594
1952.540039	40813.445313
1951.561523	40694.492188
1950.583008	40610.359375
1949.605469	40479.058594
1948.626953	40360.222656
1947.647461	40596.488281
1946.668945	40194.660156
1945.690430	40232.304688
1944.710938	40746.410156
1943.731445	40352.207031
1942.751953	40756.953125
1941.772461	40769.660156
1940.791992	40459.972656
1939.812500	40661.164063
1938.832031	40931.699219
1937.851563	40812.996094
1936.871094	40753.804688
1935.890625	40768.968750
1934.909180	40969.921875
1933.928711	40613.507813
1932.947266	40750.027344
1931.965820	40844.406250
1930.984375	40470.867188
1930.002930	40867.226563
1929.020508	41132.285156
1928.038086	40917.238281
1927.056641	40665.160156
1926.074219	40771.812500
1925.090820	40747.355469
1924.108398	40604.226563
1923.125000	40836.906250
1922.142578	40641.902344
1921.159180	40859.664063
1920.175781	41329.367188
1919.191406	41080.027344
1918.208008	41408.742188
1917.223633	40900.167969
1916.240234	41063.367188
1915.255859	41031.480469
1914.271484	40928.027344
1913.286133	41179.968750
1912.301758	40755.765625
1911.316406	41592.308594
1910.331055	41264.371094
1909.345703	40813.242188
1908.360352	41274.554688
1907.375000	41030.656250
1906.388672	41001.277344
1905.402344	41196.164063
1904.416016	41430.398438
1903.429688	41388.640625
1902.443359	40940.500000
1901.457031	41157.414063
1900.469727	41317.621094
1899.482422	41455.613281
1898.495117	41428.648438
1897.507813	41300.796875
1896.520508	41928.343750
1895.532227	41355.183594
1894.543945	41443.847656
1893.556641	41330.832031
1892.568359	41441.597656
1891.579102	41426.949219
1890.590820	41970.234375
1889.601563	42012.015625
1888.613281	41564.839844
1887.624023	41444.542969
1886.634766	41766.386719
1885.644531	41746.773438
1884.655273	41557.753906
1883.665039	41403.167969
1882.674805	41945.683594
1881.684570	41768.992188
1880.694336	41300.394531
1879.704102	41629.214844
1878.712891	41646.429688
1877.722656	41594.976563
1876.731445	41965.246094
1875.740234	41531.335938
1874.748047	41519.136719
1873.756836	42065.660156
1872.764648	41997.019531
1871.773438	41502.156250
1870.781250	41595.285156
1869.788086	42028.757813
1868.795898	41960.164063
1867.803711	41979.718750
1866.810547	41744.722656
1865.817383	41962.515625
1864.824219	41683.562500
1863.831055	42243.757813
1862.837891	42155.621094
1861.843750	41864.550781
1860.849609	41840.074219
1859.855469	42380.289063
1858.861328	42460.824219
1857.867188	42255.421875
1856.872070	42101.402344
1855.877930	42286.976563
1854.882813	42208.710938
1853.887695	42262.339844
1852.892578	41874.031250
1851.896484	42083.921875
1850.901367	42293.738281
1849.905273	42357.062500
1848.909180	42398.410156
1847.913086	42337.285156
1846.916992	42242.035156
1845.919922	42495.523438
1844.923828	42795.242188
1843.926758	42600.011719
1842.929688	42897.167969
1841.932617	42295.046875
1840.935547	42326.585938
1839.937500	42779.523438
1838.939453	42796.351563
1837.942383	42518.527344
1836.943359	42401.484375
1835.945313	42829.742188
1834.947266	43004.734375
1833.948242	42641.898438
1832.949219	43551.597656
1831.951172	43203.382813
1830.951172	43047.421875
1829.952148	43248.960938
1828.953125	43173.273438
1827.953125	43727.179688
1826.953125	43272.296875
1825.953125	42873.457031
1824.953125	43402.824219
1823.952148	43064.828125
1822.952148	43042.671875
1821.951172	43676.132813
1820.950195	43284.851563
1819.949219	43672.882813
1818.948242	43165.246094
1817.946289	43516.761719
1816.945313	43630.398438
1815.943359	43501.425781
1814.941406	43464.660156
1813.939453	44026.824219
1812.936523	43812.996094
1811.934570	43519.250000
1810.931641	43506.734375
1809.928711	43627.488281
1808.925781	44506.488281
1807.921875	44094.128906
1806.918945	44115.417969
1805.915039	44156.070313
1804.912109	43973.976563
1803.908203	43818.570313
1802.903320	44132.718750
1801.899414	44562.894531
1800.894531	44663.902344
1799.890625	44721.332031
1798.885742	44399.058594
1797.880859	44333.195313
1796.875000	44373.726563
1795.870117	44692.207031
1794.864258	44406.406250
1793.858398	44787.589844
1792.852539	44878.738281
1791.846680	44967.437500
1790.840820	44853.242188
1789.833984	44741.503906
1788.828125	44958.125000
1787.821289	44964.671875
1786.814453	45207.718750
1785.806641	45250.410156
1784.799805	45073.554688
1783.791992	45227.203125
1782.784180	45580.953125
1781.776367	45616.308594
1780.768555	45907.183594
1779.760742	45330.253906
1778.751953	45794.582031
1777.743164	45740.718750
1776.735352	45848.277344
1775.725586	45806.460938
1774.716797	45591.269531
1773.708008	45978.085938
1772.698242	46083.113281
1771.688477	46127.925781
1770.678711	46389.300781
1769.668945	46397.949219
1768.659180	46608.664063
1767.648438	46610.054688
1766.637695	46455.128906
1765.626953	46470.964844
1764.616211	46756.031250
1763.605469	47089.066406
1762.593750	47152.839844
1761.583008	47471.265625
1760.571289	47160.199219
1759.559570	47283.964844
1758.547852	47549.363281
1757.535156	47653.804688
1756.523438	48209.500000
1755.510742	47977.773438
1754.498047	47662.132813
1753.485352	47809.660156
1752.472656	48415.304688
1751.458984	48003.816406
1750.445313	48263.902344
1749.432617	48569.445313
1748.417969	48548.871094
1747.404297	48645.742188
1746.390625	49173.906250
1745.375977	48899.269531
1744.361328	49077.464844
1743.346680	49576.527344
1742.332031	49392.953125
1741.317383	49590.113281
1740.302734	49880.558594
1739.287109	50024.906250
1738.271484	50765.027344
1737.255859	50246.453125
1736.240234	50902.550781
1735.223633	50764.394531
1734.208008	51166.699219
1733.191406	51700.347656
1732.174805	51822.667969
1731.158203	52133.746094
1730.140625	52313.289063
1729.124023	52755.566406
1728.106445	52875.214844
1727.088867	53161.996094
1726.071289	53515.535156
1725.053711	53787.769531
1724.035156	54425.113281
1723.017578	54570.605469
1721.999023	54599.121094
1720.980469	54868.578125
1719.961914	54894.640625
1718.942383	55118.636719
1717.923828	55488.000000
1716.904297	55361.355469
1715.884766	55725.773438
1714.865234	55413.242188
1713.844727	55639.316406
1712.825195	55772.398438
1711.804688	55633.898438
1710.784180	55128.695313
1709.763672	55873.722656
1708.743164	55894.769531
1707.722656	55727.773438
1706.701172	55537.035156
1705.679688	55172.667969
1704.658203	55403.164063
1703.636719	55134.085938
1702.615234	55022.054688
1701.592773	54574.812500
1700.571289	54798.109375
1699.548828	54745.613281
1698.526367	55249.210938
1697.502930	54742.835938
1696.480469	54866.164063
1695.457031	54383.781250
1694.433594	54414.507813
1693.410156	55299.972656
1692.386719	54578.000000
1691.363281	54561.203125
1690.338867	54798.320313
1689.314453	54679.460938
1688.290039	54430.171875
1687.265625	54681.414063
1686.241211	54840.082031
1685.215820	54707.062500
1684.191406	54566.980469
1683.166016	54844.082031
1682.140625	54739.562500
1681.115234	54978.621094
1680.088867	54904.910156
1679.062500	55120.164063
1678.037109	55231.152344
1677.010742	55152.691406
1675.983398	55779.667969
1674.957031	55559.125000
1673.930664	55859.253906
1672.903320	55560.699219
1671.875977	55666.742188
1670.848633	55980.875000
1669.820313	55947.289063
1668.792969	56341.636719
1667.764648	56066.886719
1666.736328	56212.914063
1665.708008	56273.824219
1664.679688	56518.984375
1663.651367	56430.996094
1662.622070	56756.335938
1661.592773	56536.101563
1660.563477	56759.785156
1659.534180	56839.398438
1658.504883	57291.867188
1657.474609	57149.550781
1656.444336	57318.695313
1655.415039	57398.144531
1654.383789	57784.148438
1653.353516	57274.000000
1652.323242	57676.386719
1651.291992	57845.277344
1650.260742	58087.160156
1649.229492	57914.253906
1648.198242	58346.859375
1647.166016	58649.757813
1646.134766	58797.117188
1645.102539	58475.859375
1644.070313	58957.484375
1643.038086	59497.777344
1642.004883	59781.363281
1640.972656	59187.214844
1639.939453	59454.285156
1638.906250	59805.929688
1637.873047	59931.691406
1636.839844	60407.734375
1635.805664	60436.957031
1634.772461	60468.515625
1633.738281	60817.304688
1632.704102	61252.902344
1631.668945	60889.636719
1630.634766	61372.035156
1629.599609	61948.191406
1628.565430	62176.656250
1627.530273	62433.203125
1626.494141	62940.792969
1625.458984	63394.222656
1624.422852	63758.335938
1623.387695	63883.046875
1622.351563	64859.082031
1621.315430	66144.304688
1620.278320	67234.460938
1619.242188	69154.054688
1618.205078	70449.531250
1617.167969	72299.906250
1616.130859	74585.398438
1615.093750	77076.203125
1614.055664	79292.101563
1613.018555	80776.625000
1611.980469	82660.960938
1610.942383	83287.617188
1609.904297	83907.023438
1608.865234	82825.062500
1607.827148	81680.312500
1606.788086	79829.554688
1605.749023	77217.031250
1604.709961	75819.007813
1603.669922	73289.953125
1602.630859	72054.406250
1601.590820	70529.500000
1600.550781	68743.437500
1599.510742	68616.718750
1598.470703	67226.375000
1597.429688	66812.710938
1596.389648	66116.664063
1595.348633	65731.351563
1594.307617	65362.515625
1593.265625	65084.820313
1592.224609	64811.890625
1591.182617	64205.453125
1590.140625	64459.910156
1589.098633	64247.859375
1588.056641	63714.121094
1587.014648	64029.132813
1585.971680	63952.453125
1584.928711	63847.832031
1583.886719	64113.710938
1582.842773	63501.253906
1581.799805	63965.074219
1580.755859	64025.855469
1579.712891	64505.707031
1578.668945	63518.816406
1577.625000	63786.781250
1576.580078	63968.546875
1575.536133	64236.332031
1574.491211	64727.339844
1573.446289	64743.699219
1572.401367	64629.828125
1571.356445	64769.421875
1570.311523	65236.722656
1569.265625	65067.039063
1568.219727	64569.765625
1567.173828	64514.097656
1566.127930	64558.332031
1565.082031	64864.988281
1564.035156	64586.371094
1562.988281	64045.500000
1561.941406	63876.222656
1560.894531	64027.273438
1559.847656	64134.183594
1558.799805	63902.332031
1557.751953	64023.136719
1556.704102	64477.859375
1555.656250	64596.195313
1554.608398	64786.355469
1553.560547	64566.167969
1552.511719	63968.304688
1551.462891	64406.394531
1550.414063	64714.593750
1549.365234	64626.597656
1548.315430	64909.164063
1547.265625	64575.718750
1546.216797	64434.539063
1545.166992	64629.027344
1544.116211	65112.722656
1543.066406	64950.687500
1542.015625	64744.753906
1540.965820	64395.488281
1539.915039	64423.292969
1538.863281	64217.558594
1537.812500	64515.851563
1536.760742	64381.816406
1535.709961	64441.945313
1534.658203	63947.531250
1533.605469	63986.921875
1532.553711	63268.722656
1531.501953	63564.539063
1530.449219	63029.066406
1529.396484	62542.257813
1528.343750	62397.207031
1527.290039	62824.492188
1526.237305	62254.914063
1525.183594	61950.816406
1524.129883	61872.851563
1523.076172	62189.226563
1522.022461	62332.574219
1520.968750	62468.949219
1519.914063	62224.996094
1518.859375	62043.343750
1517.804688	62082.925781
1516.750000	61945.125000
1515.694336	62134.406250
1514.639648	61939.074219
1513.583984	61601.070313
1512.528320	61847.847656
1511.472656	61986.371094
1510.416016	61761.281250
1509.360352	62316.171875
1508.303711	62585.636719
1507.247070	62050.082031
1506.190430	61999.882813
1505.132813	62214.078125
1504.076172	61750.125000
1503.018555	62200.992188
1501.960938	62088.753906
1500.903320	62307.363281
1499.844727	61960.855469
1498.787109	61919.906250
1497.728516	62067.242188
1496.669922	61773.757813
1495.611328	61448.242188
1494.552734	61480.835938
1493.493164	61208.253906
1492.434570	62011.660156
1491.375000	61539.535156
1490.315430	60774.050781
1489.254883	61139.175781
1488.195313	61309.312500
1487.134766	60716.167969
1486.074219	61250.675781
1485.013672	60506.531250
1483.953125	60310.136719
1482.892578	61119.257813
1481.831055	61103.718750
1480.769531	60953.105469
1479.708008	60749.894531
1478.646484	60734.425781
1477.583984	60588.527344
1476.522461	61339.515625
1475.459961	61371.976563
1474.397461	60841.812500
1473.334961	61313.378906
1472.271484	61652.171875
1471.208984	60838.796875
1470.145508	61202.687500
1469.082031	61648.703125
1468.018555	61429.746094
1466.954102	61430.144531
1465.890625	61866.738281
1464.826172	62319.156250
1463.761719	62433.531250
1462.697266	61933.871094
1461.631836	62182.914063
1460.567383	62297.250000
1459.501953	62899.734375
1458.436523	62820.015625
1457.371094	62635.425781
1456.305664	62827.105469
1455.239258	62865.980469
1454.172852	62943.582031
1453.107422	63009.761719
1452.040039	63577.167969
1450.973633	63016.750000
1449.907227	62600.019531
1448.839844	62946.296875
1447.772461	63233.253906
1446.705078	63155.878906
1445.637695	63160.468750
1444.569336	63324.339844
1443.500977	63656.515625
1442.432617	64063.632813
1441.364258	64213.601563
1440.295898	64390.796875
1439.227539	64281.468750
1438.158203	64972.308594
1437.088867	65035.632813
1436.019531	65678.367188
1434.950195	65818.781250
1433.879883	65793.320313
1432.810547	65979.078125
1431.740234	66353.226563
1430.669922	66724.976563
1429.598633	66694.820313
1428.528320	67000.554688
1427.457031	67201.796875
1426.386719	67539.078125
1425.314453	67130.000000
1424.243164	67430.882813
1423.171875	67402.890625
1422.099609	67592.531250
1421.027344	67476.109375
1419.955078	67169.367188
1418.882813	67311.359375
1417.810547	67158.796875
1416.737305	67026.679688
1415.664063	66588.882813
1414.590820	67097.656250
1413.517578	66972.398438
1412.444336	66340.195313
1411.370117	66683.539063
1410.295898	67044.851563
1409.221680	66170.929688
1408.147461	66249.484375
1407.073242	65950.382813
1405.998047	66413.296875
1404.922852	66071.312500
1403.847656	66484.304688
1402.772461	66174.062500
1401.697266	66675.000000
1400.621094	66945.351563
1399.544922	66861.031250
1398.468750	67205.757813
1397.392578	67399.101563
1396.316406	67605.914063
1395.239258	68264.015625
1394.162109	68154.695313
1393.084961	68911.710938
1392.007813	69447.406250
1390.930664	70497.093750
1389.852539	70770.750000
1388.774414	71129.968750
1387.696289	72124.679688
1386.618164	72039.570313
1385.540039	72089.679688
1384.460938	72588.062500
1383.382813	73131.312500
1382.303711	73248.742188
1381.223633	72954.101563
1380.144531	73839.148438
1379.064453	73675.046875
1377.985352	73963.304688
1376.905273	73524.742188
1375.825195	73410.257813
1374.744141	73367.789063
1373.664063	73122.945313
1372.583008	72495.976563
1371.501953	72851.554688
1370.420898	72110.242188
1369.338867	71915.218750
1368.257813	71837.101563
1367.175781	71759.000000
1366.093750	71948.187500
1365.011719	71304.234375
1363.929688	71565.273438
1362.846680	71384.007813
1361.763672	71490.078125
1360.680664	71454.742188
1359.597656	71551.773438
1358.514648	71229.328125
1357.430664	70653.578125
1356.346680	70858.328125
1355.262695	70403.898438
1354.178711	69837.570313
1353.094727	69567.250000
1352.009766	69301.507813
1350.925781	68547.492188
1349.840820	68651.585938
1348.755859	68151.007813
1347.669922	67661.804688
1346.584961	67515.273438
1345.499023	67977.578125
1344.413086	67399.148438
1343.327148	67433.960938
1342.240234	67054.921875
1341.154297	66633.523438
1340.067383	66715.406250
1338.980469	67096.851563
1337.893555	67420.031250
1336.805664	66963.101563
1335.718750	67491.757813
1334.630859	67776.703125
1333.542969	67302.078125
1332.455078	67696.382813
1331.367188	67659.585938
1330.278320	67281.226563
1329.189453	67818.171875
1328.100586	68162.984375
1327.011719	68146.203125
1325.922852	68211.968750
1324.833008	68344.617188
1323.743164	68633.328125
1322.653320	69372.328125
1321.563477	69778.890625
1320.473633	70287.835938
1319.382813	70428.890625
1318.291992	71249.453125
1317.201172	72071.953125
1316.110352	72889.687500
1315.019531	73513.390625
1313.927734	73462.242188
1312.835938	73969.859375
1311.744141	73992.085938
1310.652344	74448.234375
1309.560547	73856.304688
1308.467773	72935.367188
1307.375000	72777.609375
1306.282227	73049.062500
1305.189453	71888.656250
1304.095703	71724.492188
1303.002930	71353.703125
1301.909180	71056.367188
1300.815430	71096.828125
1299.721680	71012.875000
1298.626953	70373.750000
1297.533203	70329.921875
1296.438477	71029.820313
1295.343750	70628.531250
1294.248047	71059.585938
1293.153320	71548.171875
1292.057617	71206.890625
1290.961914	71888.242188
1289.866211	71926.226563
1288.770508	72270.171875
1287.674805	71944.515625
1286.578125	72124.312500
1285.481445	72202.101563
1284.384766	72013.992188
1283.288086	71861.390625
1282.190430	72348.914063
1281.092773	71968.218750
1279.996094	71352.968750
1278.897461	71554.757813
1277.799805	71074.804688
1276.702148	70931.375000
1275.603516	71327.812500
1274.504883	70558.382813
1273.406250	70224.914063
1272.307617	70311.687500
1271.208008	69801.515625
1270.108398	69826.437500
1269.008789	69522.062500
1267.909180	69586.789063
1266.809570	69068.265625
1265.708984	68921.007813
1264.609375	68208.453125
1263.508789	68604.562500
1262.407227	68649.515625
1261.306641	67974.906250
1260.206055	67649.218750
1259.104492	67850.968750
1258.002930	67459.226563
1256.901367	67541.828125
1255.798828	67130.437500
1254.697266	66941.875000
1253.594727	66801.875000
1252.492188	66796.367188
1251.389648	66953.921875
1250.286133	66038.468750
1249.183594	66420.781250
1248.080078	66393.312500
1246.976563	66346.031250
1245.872070	66356.000000
1244.768555	66172.265625
1243.664063	66430.953125
1242.560547	66636.726563
1241.455078	65762.234375
1240.350586	66715.914063
1239.246094	66675.210938
1238.140625	66188.164063
1237.035156	66576.257813
1235.929688	66333.375000
1234.824219	66261.992188
1233.717773	66485.062500
1232.612305	66110.507813
1231.505859	66386.234375
1230.399414	65796.625000
1229.291992	65615.609375
1228.185547	66038.335938
1227.078125	66487.250000
1225.970703	65713.710938
1224.863281	65567.937500
1223.755859	65937.710938
1222.647461	65605.515625
1221.539063	65714.195313
1220.430664	65899.570313
1219.322266	65499.609375
1218.213867	65627.968750
1217.104492	64960.863281
1215.995117	65417.886719
1214.885742	65062.097656
1213.776367	65352.492188
1212.666992	65570.523438
1211.556641	64995.968750
1210.446289	65371.570313
1209.335938	65887.093750
1208.225586	65496.582031
1207.115234	65370.914063
1206.003906	65877.398438
1204.892578	66353.078125
1203.781250	65934.335938
1202.669922	66291.781250
1201.557617	66255.679688
1200.446289	66387.851563
1199.333984	66380.140625
1198.221680	66890.148438
1197.108398	66995.914063
1195.996094	66972.804688
1194.882813	67342.687500
1193.769531	66998.632813
1192.656250	67505.867188
1191.542969	67447.750000
1190.428711	67387.476563
1189.314453	67403.570313
1188.200195	67657.367188
1187.085938	67381.210938
1185.971680	67242.492188
1184.856445	66846.625000
1183.741211	66457.437500
1182.625977	66715.515625
1181.510742	66444.125000
1180.395508	66730.421875
1179.279297	66766.179688
1178.163086	66534.109375
1177.046875	66404.437500
1175.930664	66847.226563
1174.813477	66510.812500
1173.697266	67081.781250
1172.580078	66958.617188
1171.462891	66046.000000
1170.344727	66249.242188
