#Wave		#Intensity
2001.221680	39633.007813
2000.251953	39530.238281
1999.282227	40392.945313
1998.312500	39787.046875
1997.342773	40266.113281
1996.372070	39552.738281
1995.402344	40277.097656
1994.431641	39982.117188
1993.460938	39752.328125
1992.490234	40203.437500
1991.518555	40051.265625
1990.547852	40176.886719
1989.576172	40304.960938
1988.604492	39997.769531
1987.632813	39853.238281
1986.661133	40356.355469
1985.689453	40134.312500
1984.716797	40117.300781
1983.745117	39905.371094
1982.772461	40073.304688
1981.799805	39863.945313
1980.827148	40418.980469
1979.853516	40179.664063
1978.880859	39977.886719
1977.907227	40120.687500
1976.933594	40196.046875
1975.959961	40341.250000
1974.986328	40122.113281
1974.011719	40207.406250
1973.038086	39930.992188
1972.063477	40103.570313
1971.088867	40181.335938
1970.114258	40196.750000
1969.138672	40369.183594
1968.164063	39886.132813
1967.188477	40158.226563
1966.212891	40415.277344
1965.237305	39920.011719
1964.261719	39883.148438
1963.286133	39904.238281
1962.309570	39925.351563
1961.333984	39946.441406
1960.357422	39967.554688
1959.380859	39988.667969
1958.404297	40009.777344
1957.426758	40030.910156
1956.450195	40052.023438
1955.472656	40073.156250
1954.495117	40094.289063
1953.517578	40115.421875
1952.540039	40136.554688
1951.561523	40157.710938
1950.583008	40178.863281
1949.605469	40200.000000
1948.626953	40221.152344
1947.647461	40526.964844
1946.668945	40321.269531
1945.690430	40587.242188
1944.710938	40763.781250
1943.731445	40746.722656
1942.751953	40573.375000
1941.772461	40211.578125
1940.791992	40402.933594
1939.812500	40234.691406
1938.832031	40034.281250
1937.851563	40228.039063
1936.871094	40310.210938
1935.890625	40335.359375
1934.909180	40201.953125
1933.928711	40492.140625
1932.947266	40408.277344
1931.965820	40628.992188
1930.984375	40356.988281
1930.002930	40305.367188
1929.020508	40357.699219
1928.038086	40461.972656
1927.056641	40217.390625
1926.074219	39923.429688
1925.090820	40425.867188
1924.108398	39924.273438
1923.125000	40399.339844
1922.142578	40614.710938
1921.159180	40338.230469
1920.175781	40390.457031
1919.191406	40484.664063
1918.208008	40341.722656
1917.223633	40522.332031
1916.240234	40273.257813
1915.255859	40636.496094
1914.271484	40580.007813
1913.286133	40859.156250
1912.301758	40351.121094
1911.316406	40413.117188
1910.331055	40605.816406
1909.345703	40860.097656
1908.360352	40665.546875
1907.375000	40618.972656
1906.388672	40629.101563
1905.402344	40651.546875
1904.416016	40678.910156
1903.429688	40698.871094
1902.443359	40292.722656
1901.457031	41002.269531
1900.469727	40556.808594
1899.482422	40608.777344
1898.495117	40414.593750
1897.507813	40537.925781
1896.520508	40712.886719
1895.532227	40378.558594
1894.543945	40351.796875
1893.556641	40836.542969
1892.568359	41102.292969
1891.579102	40428.886719
1890.590820	41051.000000
1889.601563	40783.308594
1888.613281	40356.003906
1887.624023	40562.636719
1886.634766	40666.042969
1885.644531	40565.585938
1884.655273	41385.886719
1883.665039	40602.894531
1882.674805	40941.832031
1881.684570	40890.472656
1880.694336	40898.011719
1879.704102	40912.906250
1878.712891	40927.796875
1877.722656	40530.699219
1876.731445	40621.652344
1875.740234	40898.878906
1874.748047	40722.578125
1873.756836	40815.894531
1872.764648	40747.472656
1871.773438	41169.003906
1870.781250	40150.238281
1869.788086	40760.281250
1868.795898	40758.015625
1867.803711	40816.945313
1866.810547	40782.851563
1865.817383	40787.917969
1864.824219	41042.539063
1863.831055	40939.925781
1862.837891	40759.078125
1861.843750	40974.437500
1860.849609	40891.445313
1859.855469	41067.593750
1858.861328	41138.582031
1857.867188	40989.617188
1856.872070	40962.863281
1855.877930	41075.359375
1854.882813	41051.039063
1853.887695	41051.144531
1852.892578	41087.871094
1851.896484	41122.144531
1850.901367	41468.804688
1849.905273	41032.031250
1848.909180	41244.394531
1847.913086	41571.328125
1846.916992	40539.671875
1845.919922	41203.125000
1844.923828	41371.414063
1843.926758	41722.464844
1842.929688	41312.988281
1841.932617	41254.546875
1840.935547	41461.683594
1839.937500	41415.414063
1838.939453	41632.187500
1837.942383	41210.902344
1836.943359	41544.496094
1835.945313	41868.234375
1834.947266	42099.375000
1833.948242	41997.062500
1832.949219	42245.125000
1831.951172	42057.683594
1830.951172	42089.191406
1829.952148	42288.468750
1828.953125	41972.257813
1827.953125	42149.605469
1826.953125	41891.859375
1825.953125	42100.746094
1824.953125	42222.093750
1823.952148	41889.160156
1822.952148	42083.359375
1821.951172	41823.414063
1820.950195	42027.261719
1819.949219	42422.800781
1818.948242	42262.429688
1817.946289	42119.101563
1816.945313	42223.277344
1815.943359	42375.929688
1814.941406	42334.511719
1813.939453	42259.156250
1812.936523	42215.343750
1811.934570	42523.015625
1810.931641	42273.167969
1809.928711	42767.296875
1808.925781	42767.023438
1807.921875	42509.996094
1806.918945	42512.191406
1805.915039	42633.027344
1804.912109	42591.617188
1803.908203	42470.343750
1802.903320	42779.886719
1801.899414	42820.738281
1800.894531	42658.355469
1799.890625	43129.757813
1798.885742	42911.753906
1797.880859	42928.363281
1796.875000	42973.976563
1795.870117	43135.593750
1794.864258	42700.234375
1793.858398	42728.945313
1792.852539	42455.667969
1791.846680	42916.765625
1790.840820	42831.914063
1789.833984	43046.496094
1788.828125	43058.210938
1787.821289	42833.382813
1786.814453	42794.449219
1785.806641	43269.468750
1784.799805	43083.312500
1783.791992	43924.726563
1782.784180	43461.191406
1781.776367	43125.605469
1780.768555	43330.132813
1779.760742	43819.003906
1778.751953	43789.578125
1777.743164	44005.925781
1776.735352	43716.300781
1775.725586	43913.312500
1774.716797	43590.089844
1773.708008	43681.109375
1772.698242	43991.160156
1771.688477	43814.910156
1770.678711	43686.847656
1769.668945	43864.398438
1768.659180	43844.621094
1767.648438	43649.273438
1766.637695	44112.894531
1765.626953	44162.804688
1764.616211	44260.773438
1763.605469	44683.179688
1762.593750	44704.121094
1761.583008	44357.449219
1760.571289	44548.996094
1759.559570	44517.105469
1758.547852	44660.523438
1757.535156	44695.847656
1756.523438	44685.546875
1755.510742	44524.042969
1754.498047	44619.359375
1753.485352	44604.273438
1752.472656	45200.890625
1751.458984	44873.914063
1750.445313	45165.726563
1749.432617	45076.222656
1748.417969	44869.292969
1747.404297	45053.093750
1746.390625	45507.609375
1745.375977	45339.039063
1744.361328	45251.972656
1743.346680	45636.750000
1742.332031	46265.632813
1741.317383	45733.132813
1740.302734	45871.058594
1739.287109	46111.847656
1738.271484	46134.796875
1737.255859	46801.308594
1736.240234	47278.613281
1735.223633	47432.878906
1734.208008	47582.304688
1733.191406	47626.480469
1732.174805	47912.066406
1731.158203	47977.671875
1730.140625	48155.562500
1729.124023	48529.292969
1728.106445	48790.621094
1727.088867	49106.781250
1726.071289	49429.996094
1725.053711	49094.171875
1724.035156	49531.843750
1723.017578	50019.472656
1721.999023	50151.398438
1720.980469	49903.949219
1719.961914	50231.437500
1718.942383	50625.582031
1717.923828	49860.750000
1716.904297	50819.828125
1715.884766	51142.144531
1714.865234	50799.441406
1713.844727	50628.417969
1712.825195	51007.769531
1711.804688	50341.328125
1710.784180	50837.281250
1709.763672	50630.648438
1708.743164	50105.082031
1707.722656	50522.261719
1706.701172	50037.351563
1705.679688	50097.488281
1704.658203	50328.882813
1703.636719	49694.410156
1702.615234	49704.628906
1701.592773	49738.617188
1700.571289	49962.773438
1699.548828	49768.523438
1698.526367	49807.226563
1697.502930	49539.414063
1696.480469	49696.921875
1695.457031	49709.488281
1694.433594	49375.335938
1693.410156	49209.875000
1692.386719	49419.546875
1691.363281	49451.132813
1690.338867	49482.703125
1689.314453	49262.765625
1688.290039	49742.699219
1687.265625	49629.519531
1686.241211	49476.062500
1685.215820	49841.894531
1684.191406	49422.953125
1683.166016	49594.312500
1682.140625	49711.105469
1681.115234	50240.105469
1680.088867	49866.390625
1679.062500	49999.648438
1678.037109	49924.472656
1677.010742	49811.437500
1675.983398	50302.066406
1674.957031	50011.496094
1673.930664	50213.222656
1672.903320	50282.382813
1671.875977	50382.269531
1670.848633	50595.640625
1669.820313	50532.273438
1668.792969	50400.363281
1667.764648	50649.066406
1666.736328	51089.113281
1665.708008	51068.226563
1664.679688	51146.574219
1663.651367	51309.925781
1662.622070	50592.300781
1661.592773	51478.242188
1660.563477	51398.273438
1659.534180	51500.082031
1658.504883	51210.093750
1657.474609	51524.261719
1656.444336	51890.214844
1655.415039	51267.718750
1654.383789	51791.593750
1653.353516	51390.976563
1652.323242	52166.894531
1651.291992	52348.546875
1650.260742	52030.523438
1649.229492	52167.363281
1648.198242	52216.984375
1647.166016	52339.609375
1646.134766	52469.250000
1645.102539	52716.570313
1644.070313	52464.722656
1643.038086	52944.972656
1642.004883	53248.550781
1640.972656	53130.847656
1639.939453	53297.835938
1638.906250	53902.250000
1637.873047	53718.640625
1636.839844	54193.441406
1635.805664	53941.671875
1634.772461	54482.066406
1633.738281	54719.125000
1632.704102	54817.468750
1631.668945	54723.152344
1630.634766	54704.019531
1629.599609	55229.703125
1628.565430	55344.312500
1627.530273	55562.171875
1626.494141	55887.910156
1625.458984	56218.226563
1624.422852	56787.738281
1623.387695	57117.773438
1622.351563	57124.023438
1621.315430	58206.609375
1620.278320	58669.847656
1619.242188	60178.398438
1618.205078	61484.847656
1617.167969	62814.265625
1616.130859	63749.605469
1615.093750	65659.070313
1614.055664	67427.328125
1613.018555	68839.031250
1611.980469	70051.226563
1610.942383	70462.429688
1609.904297	70192.445313
1608.865234	70109.742188
1607.827148	69535.765625
1606.788086	68227.507813
1605.749023	66091.812500
1604.709961	64976.363281
1603.669922	63173.980469
1602.630859	62391.363281
1601.590820	61279.503906
1600.550781	61004.546875
1599.510742	59648.019531
1598.470703	59504.253906
1597.429688	58405.363281
1596.389648	58595.761719
1595.348633	58062.382813
1594.307617	57526.855469
1593.265625	57525.937500
1592.224609	57200.687500
1591.182617	57729.386719
1590.140625	57686.441406
1589.098633	57044.171875
1588.056641	57365.093750
1587.014648	56793.042969
1585.971680	57293.359375
1584.928711	56872.996094
1583.886719	57088.859375
1582.842773	57451.410156
1581.799805	57329.363281
1580.755859	57298.179688
1579.712891	57767.589844
1578.668945	57654.859375
1577.625000	57779.566406
1576.580078	57999.640625
1575.536133	57791.527344
1574.491211	57885.898438
1573.446289	58457.023438
1572.401367	58593.089844
1571.356445	58503.585938
1570.311523	59162.621094
1569.265625	58364.175781
1568.219727	58146.945313
1567.173828	58457.187500
1566.127930	57794.015625
1565.082031	57790.667969
1564.035156	57387.917969
1562.988281	57157.113281
1561.941406	57144.589844
1560.894531	56407.964844
1559.847656	56592.808594
1558.799805	56615.183594
1557.751953	56264.093750
1556.704102	56437.261719
1555.656250	56740.214844
1554.608398	56885.410156
1553.560547	56133.511719
1552.511719	56607.847656
1551.462891	56377.609375
1550.414063	56705.777344
1549.365234	56475.597656
1548.315430	56048.652344
1547.265625	56337.332031
1546.216797	55998.531250
1545.166992	56747.722656
1544.116211	55916.035156
1543.066406	56484.492188
1542.015625	56557.679688
1540.965820	56443.488281
1539.915039	56703.968750
1538.863281	56282.269531
1537.812500	56135.816406
1536.760742	55587.246094
1535.709961	55746.003906
1534.658203	55232.351563
1533.605469	55088.488281
1532.553711	55258.792969
1531.501953	54951.019531
1530.449219	54500.203125
1529.396484	54465.066406
1528.343750	54600.730469
1527.290039	54198.671875
1526.237305	53870.585938
1525.183594	53249.652344
1524.129883	53560.710938
1523.076172	53136.058594
1522.022461	52817.609375
1520.968750	53015.621094
1519.914063	52741.093750
1518.859375	52747.789063
1517.804688	52980.257813
1516.750000	52763.464844
1515.694336	52422.378906
1514.639648	52505.101563
1513.583984	52799.601563
1512.528320	52681.964844
1511.472656	52543.656250
1510.416016	52497.433594
1509.360352	52442.023438
1508.303711	52368.230469
1507.247070	51783.910156
1506.190430	52039.066406
1505.132813	52351.601563
1504.076172	52493.929688
1503.018555	51645.714844
1501.960938	52270.632813
1500.903320	51647.890625
1499.844727	51629.453125
1498.787109	51397.449219
1497.728516	50938.210938
1496.669922	51266.546875
1495.611328	51257.363281
1494.552734	50979.683594
1493.493164	50789.292969
1492.434570	50738.898438
1491.375000	50245.859375
1490.315430	50718.425781
1489.254883	50580.937500
1488.195313	50879.050781
1487.134766	50707.203125
1486.074219	49957.945313
1485.013672	50180.394531
1483.953125	50386.730469
1482.892578	50112.019531
1481.831055	50185.472656
1480.769531	49908.605469
1479.708008	50156.031250
1478.646484	50060.070313
1477.583984	50142.625000
1476.522461	49902.558594
1475.459961	49845.574219
1474.397461	50136.234375
1473.334961	50257.578125
1472.271484	49919.351563
1471.208984	49752.675781
1470.145508	49771.175781
1469.082031	49737.113281
1468.018555	50217.085938
1466.954102	49988.796875
1465.890625	50331.527344
1464.826172	50094.160156
1463.761719	50260.957031
1462.697266	49802.281250
1461.631836	50398.101563
1460.567383	50722.183594
1459.501953	50507.765625
1458.436523	50573.968750
1457.371094	50973.093750
1456.305664	50674.375000
1455.239258	50945.675781
1454.172852	51169.011719
1453.107422	50854.460938
1452.040039	50779.253906
1450.973633	51273.578125
1449.907227	50952.339844
1448.839844	50544.679688
1447.772461	50959.085938
1446.705078	51712.519531
1445.637695	51411.906250
1444.569336	51061.335938
1443.500977	51416.187500
1442.432617	51140.808594
1441.364258	51506.886719
1440.295898	51474.890625
1439.227539	52327.304688
1438.158203	51863.281250
1437.088867	52310.773438
1436.019531	52435.441406
1434.950195	52430.558594
1433.879883	52484.738281
1432.810547	52731.937500
1431.740234	52459.062500
1430.669922	52324.765625
1429.598633	52787.488281
1428.528320	52637.292969
1427.457031	52503.035156
1426.386719	52840.691406
1425.314453	52608.906250
1424.243164	52415.753906
1423.171875	53267.937500
1422.099609	52249.550781
1421.027344	52113.222656
1419.955078	52201.296875
1418.882813	52028.773438
1417.810547	51851.777344
1416.737305	51668.046875
1415.664063	51762.921875
1414.590820	52036.625000
1413.517578	51877.859375
1412.444336	51814.203125
1411.370117	51721.152344
1410.295898	51926.785156
1409.221680	52127.816406
1408.147461	51826.675781
1407.073242	51869.355469
1405.998047	52181.066406
1404.922852	52212.363281
1403.847656	52336.308594
1402.772461	52164.191406
1401.697266	52593.093750
1400.621094	52518.117188
1399.544922	52709.664063
1398.468750	52828.878906
1397.392578	52932.250000
1396.316406	53062.664063
1395.239258	53434.507813
1394.162109	53745.292969
1393.084961	53970.238281
1392.007813	54116.152344
1390.930664	54273.289063
1389.852539	54872.300781
1388.774414	55155.484375
1387.696289	55283.039063
1386.618164	56172.250000
1385.540039	55792.613281
1384.460938	56305.195313
1383.382813	56650.921875
1382.303711	56859.148438
1381.223633	57191.132813
1380.144531	57507.238281
1379.064453	57229.039063
1377.985352	57952.324219
1376.905273	57869.882813
1375.825195	57987.671875
1374.744141	57471.171875
1373.664063	56810.937500
1372.583008	57356.019531
1371.501953	57341.183594
1370.420898	56834.148438
1369.338867	56405.945313
1368.257813	55917.234375
1367.175781	55949.828125
1366.093750	55429.925781
1365.011719	55107.812500
1363.929688	55039.500000
1362.846680	54766.949219
1361.763672	54525.914063
1360.680664	54587.878906
1359.597656	53700.847656
1358.514648	53877.332031
1357.430664	53524.488281
1356.346680	53916.183594
1355.262695	53498.445313
1354.178711	53504.480469
1353.094727	53698.753906
1352.009766	53272.312500
1350.925781	53117.082031
1349.840820	53060.460938
1348.755859	53431.574219
1347.669922	52694.261719
1346.584961	53112.316406
1345.499023	52782.667969
1344.413086	52688.101563
1343.327148	53090.261719
1342.240234	52559.464844
1341.154297	52641.667969
1340.067383	52880.375000
1338.980469	52647.250000
1337.893555	53002.097656
1336.805664	52793.617188
1335.718750	53143.835938
1334.630859	53091.789063
1333.542969	52876.691406
1332.455078	53034.636719
1331.367188	52792.832031
1330.278320	52859.199219
1329.189453	52965.714844
1328.100586	52799.921875
1327.011719	52814.925781
1325.922852	53215.863281
1324.833008	53518.515625
1323.743164	53656.027344
1322.653320	53628.488281
1321.563477	53730.257813
1320.473633	54061.562500
1319.382813	54051.789063
1318.291992	53551.839844
1317.201172	53684.726563
1316.110352	53467.882813
1315.019531	53689.804688
1313.927734	54185.503906
1312.835938	53596.925781
1311.744141	53751.929688
1310.652344	53980.308594
1309.560547	54097.363281
1308.467773	54316.695313
1307.375000	54015.515625
1306.282227	54170.292969
1305.189453	54409.496094
1304.095703	54693.066406
1303.002930	54445.367188
1301.909180	54117.761719
1300.815430	54347.902344
1299.721680	54980.003906
1298.626953	54548.093750
1297.533203	54198.496094
1296.438477	54823.613281
1295.343750	54815.906250
1294.248047	54890.312500
1293.153320	55031.253906
1292.057617	56019.578125
1290.961914	55217.601563
1289.866211	55427.148438
1288.770508	55394.937500
1287.674805	55404.855469
1286.578125	55554.402344
1285.481445	55362.628906
1284.384766	55425.714844
1283.288086	55347.003906
1282.190430	55148.718750
1281.092773	55692.328125
1279.996094	54964.902344
1278.897461	54647.250000
1277.799805	55022.445313
1276.702148	55112.050781
1275.603516	55026.839844
1274.504883	54505.898438
1273.406250	54531.402344
1272.307617	54523.730469
1271.208008	54011.996094
1270.108398	53750.218750
1269.008789	53616.714844
1267.909180	54428.964844
1266.809570	54162.832031
1265.708984	53870.285156
1264.609375	53736.847656
1263.508789	53243.550781
1262.407227	53145.593750
1261.306641	53336.808594
1260.206055	53265.343750
1259.104492	53083.585938
1258.002930	52994.539063
1256.901367	53187.839844
1255.798828	53268.605469
1254.697266	52895.152344
1253.594727	52581.347656
1252.492188	52765.757813
1251.389648	52674.652344
1250.286133	52158.359375
1249.183594	52292.074219
1248.080078	52055.738281
1246.976563	51777.648438
1245.872070	52195.359375
1244.768555	52082.429688
1243.664063	51846.292969
1242.560547	51678.453125
1241.455078	51649.269531
1240.350586	51877.449219
1239.246094	51221.464844
1238.140625	51295.718750
1237.035156	51207.261719
1235.929688	51030.914063
1234.824219	51415.015625
1233.717773	51045.339844
1232.612305	51218.402344
1231.505859	50745.656250
1230.399414	50861.613281
1229.291992	50874.328125
1228.185547	50555.562500
1227.078125	50412.492188
1225.970703	50603.023438
1224.863281	50942.675781
1223.755859	50290.691406
1222.647461	50981.187500
1221.539063	50594.757813
1220.430664	50256.699219
1219.322266	49835.468750
1218.213867	50512.386719
1217.104492	49869.941406
1215.995117	49939.746094
1214.885742	50357.796875
1213.776367	50162.488281
1212.666992	49737.339844
1211.556641	50041.355469
1210.446289	49857.148438
1209.335938	49996.898438
1208.225586	49970.300781
1207.115234	50179.976563
1206.003906	50070.234375
1204.892578	50391.339844
1203.781250	50314.394531
1202.669922	50160.960938
1201.557617	50562.738281
1200.446289	50254.160156
1199.333984	50360.812500
1198.221680	50393.152344
1197.108398	50943.101563
1195.996094	51134.726563
1194.882813	51057.742188
1193.769531	51279.832031
1192.656250	50823.093750
1191.542969	51165.152344
1190.428711	51230.015625
1189.314453	51144.347656
1188.200195	51691.160156
1187.085938	51160.613281
1185.971680	51484.851563
1184.856445	51305.460938
1183.741211	51585.964844
1182.625977	51872.898438
1181.510742	51495.285156
1180.395508	51194.042969
1179.279297	51443.863281
1178.163086	51441.023438
1177.046875	51566.621094
1175.930664	51759.644531
1174.813477	52072.277344
1173.697266	51566.726563
1172.580078	51707.429688
1171.462891	51145.574219
1170.344727	51755.996094
