#Wave		#Intensity
2001.248047	37933.769531
2000.278320	37610.429688
1999.308594	37546.222656
1998.338867	37617.343750
1997.369141	37615.785156
1996.398438	37847.171875
1995.428711	37620.183594
1994.458008	38212.046875
1993.487305	37789.800781
1992.516602	37905.851563
1991.545898	37974.308594
1990.574219	37592.351563
1989.603516	37743.394531
1988.631836	38034.457031
1987.660156	38195.371094
1986.688477	37971.164063
1985.715820	38032.027344
1984.744141	37865.414063
1983.771484	37778.828125
1982.798828	37959.628906
1981.826172	38002.960938
1980.853516	38360.996094
1979.880859	37774.910156
1978.907227	37843.214844
1977.933594	37684.316406
1976.959961	38236.843750
1975.986328	38282.570313
1975.012695	38003.906250
1974.039063	37608.085938
1973.064453	38067.945313
1972.089844	38123.636719
1971.115234	38348.863281
1970.140625	38648.792969
1969.166016	38096.167969
1968.190430	38555.535156
1967.215820	38219.890625
1966.240234	38651.667969
1965.264648	38505.421875
1964.289063	38404.054688
1963.312500	38359.992188
1962.336914	38871.097656
1961.360352	38605.437500
1960.383789	38598.683594
1959.407227	38395.367188
1958.430664	38973.273438
1957.454102	38595.843750
1956.476563	38917.363281
1955.499023	38460.503906
1954.521484	38597.964844
1953.543945	38621.039063
1952.566406	38815.578125
1951.587891	38470.863281
1950.610352	38871.554688
1949.631836	38849.847656
1948.653320	39016.890625
1947.674805	38741.898438
1946.696289	38898.964844
1945.716797	39167.671875
1944.737305	38825.789063
1943.758789	38995.160156
1942.779297	39047.871094
1941.798828	38835.167969
1940.819336	39158.199219
1939.838867	38630.648438
1938.859375	39211.421875
1937.878906	39328.488281
1936.898438	39001.914063
1935.916992	38838.984375
1934.936523	39322.691406
1933.955078	39191.960938
1932.974609	39368.355469
1931.993164	39222.800781
1931.010742	39545.183594
1930.029297	39684.292969
1929.047852	39694.664063
1928.065430	39029.546875
1927.083008	39354.207031
1926.100586	39211.273438
1925.118164	39516.000000
1924.135742	39234.621094
1923.152344	39207.968750
1922.168945	39485.343750
1921.185547	39767.558594
1920.202148	39535.746094
1919.218750	39434.941406
1918.235352	39665.144531
1917.250977	39589.042969
1916.266602	39690.746094
1915.282227	39819.562500
1914.297852	39819.988281
1913.313477	39622.984375
1912.328125	39206.453125
1911.343750	39564.687500
1910.358398	39424.558594
1909.373047	39405.312500
1908.387695	39743.593750
1907.401367	39559.128906
1906.416016	39350.078125
1905.429688	39138.636719
1904.443359	39336.273438
1903.457031	39597.894531
1902.470703	39369.273438
1901.483398	39473.183594
1900.497070	39606.601563
1899.509766	39547.957031
1898.522461	39730.539063
1897.535156	39758.019531
1896.546875	39642.785156
1895.559570	39485.765625
1894.571289	39569.843750
1893.583008	39469.449219
1892.594727	39882.964844
1891.606445	39649.800781
1890.618164	39625.636719
1889.628906	39611.308594
1888.639648	39695.261719
1887.650391	39459.832031
1886.661133	39720.625000
1885.671875	39721.019531
1884.682617	39674.757813
1883.692383	39778.261719
1882.702148	39442.382813
1881.711914	39955.703125
1880.721680	39565.929688
1879.731445	39735.605469
1878.740234	39630.519531
1877.749023	39819.742188
1876.757813	39753.902344
1875.766602	40085.210938
1874.775391	39754.640625
1873.784180	39720.703125
1872.791992	39921.984375
1871.799805	40287.320313
1870.807617	40133.285156
1869.815430	39930.328125
1868.823242	39680.921875
1867.830078	39999.527344
1866.837891	40178.507813
1865.844727	39894.925781
1864.851563	40418.839844
1863.858398	40140.203125
1862.864258	40671.222656
1861.871094	40099.191406
1860.876953	39771.855469
1859.882813	40180.429688
1858.888672	40596.191406
1857.894531	40540.183594
1856.899414	40530.609375
1855.905273	40547.910156
1854.910156	40106.039063
1853.915039	40443.300781
1852.919922	40333.644531
1851.923828	40634.125000
1850.928711	40534.234375
1849.932617	40717.441406
1848.936523	41139.683594
1847.940430	40878.750000
1846.944336	40522.792969
1845.947266	40540.050781
1844.951172	40932.761719
1843.954102	40988.937500
1842.957031	40815.996094
1841.959961	41249.871094
1840.962891	41320.574219
1839.964844	41016.121094
1838.966797	40950.449219
1837.969727	41335.289063
1836.970703	41715.121094
1835.972656	41493.566406
1834.974609	41678.531250
1833.975586	41537.359375
1832.976563	41279.457031
1831.978516	41858.421875
1830.978516	41860.777344
1829.979492	41812.070313
1828.980469	41469.199219
1827.980469	41573.714844
1826.980469	41998.996094
1825.980469	41867.671875
1824.980469	41913.750000
1823.979492	41947.660156
1822.979492	42047.132813
1821.978516	42282.546875
1820.977539	41988.621094
1819.976563	41947.238281
1818.975586	41840.347656
1817.973633	42279.453125
1816.972656	42272.003906
1815.970703	42017.136719
1814.968750	41764.785156
1813.966797	42511.539063
1812.963867	42024.019531
1811.961914	42082.062500
1810.958984	42704.757813
1809.956055	42554.269531
1808.953125	42471.664063
1807.950195	42762.113281
1806.946289	42313.808594
1805.943359	42640.496094
1804.939453	42364.253906
1803.935547	42852.992188
1802.930664	42615.527344
1801.926758	42801.585938
1800.922852	42956.128906
1799.917969	43045.304688
1798.913086	43013.531250
1797.908203	43484.703125
1796.903320	42824.296875
1795.897461	43239.738281
1794.891602	43321.527344
1793.886719	43188.242188
1792.880859	43238.601563
1791.874023	43129.527344
1790.868164	43918.863281
1789.862305	43367.835938
1788.855469	43331.214844
1787.848633	43806.312500
1786.841797	43564.492188
1785.833984	43913.906250
1784.827148	44284.906250
1783.819336	43741.628906
1782.812500	43741.140625
1781.804688	43550.171875
1780.795898	44415.167969
1779.788086	44096.398438
1778.779297	44245.257813
1777.771484	44244.671875
1776.762695	43767.101563
1775.753906	44520.492188
1774.744141	44498.179688
1773.735352	44483.097656
1772.725586	44595.609375
1771.715820	44710.484375
1770.706055	44724.246094
1769.696289	44940.109375
1768.686523	44681.988281
1767.675781	44981.960938
1766.666016	44711.894531
1765.655273	44908.367188
1764.644531	45292.269531
1763.632813	44858.851563
1762.622070	45175.339844
1761.610352	44821.375000
1760.598633	45421.218750
1759.586914	44961.652344
1758.575195	45582.867188
1757.563477	45445.160156
1756.550781	45715.589844
1755.538086	46137.125000
1754.525391	46104.972656
1753.512695	45566.589844
1752.500000	45716.855469
1751.486328	46361.140625
1750.473633	45813.398438
1749.459961	45905.996094
1748.446289	46219.093750
1747.432617	46129.433594
1746.417969	46305.789063
1745.404297	46405.414063
1744.389648	46322.949219
1743.375000	46594.972656
1742.360352	47171.011719
1741.344727	46425.265625
1740.330078	47226.136719
1739.314453	47129.230469
1738.298828	47113.714844
1737.283203	47488.175781
1736.267578	47266.882813
1735.251953	47622.046875
1734.235352	47740.351563
1733.218750	48389.367188
1732.202148	48438.175781
1731.185547	48463.062500
1730.168945	48378.019531
1729.151367	48584.476563
1728.133789	49055.996094
1727.117188	49673.035156
1726.098633	49981.820313
1725.081055	50357.343750
1724.063477	50754.214844
1723.044922	50461.226563
1722.026367	50533.421875
1721.007813	50560.257813
1719.989258	51381.386719
1718.970703	51417.597656
1717.951172	51666.011719
1716.931641	51976.320313
1715.912109	52013.320313
1714.892578	52050.316406
1713.873047	52087.316406
1712.853516	52124.312500
1711.833008	52161.347656
1710.812500	52945.140625
1709.791992	52876.234375
1708.771484	52297.894531
1707.750000	53276.417969
1706.729492	52933.804688
1705.708008	52853.042969
1704.686523	52834.160156
1703.665039	52950.859375
1702.642578	52827.328125
1701.621094	53352.945313
1700.598633	53281.675781
1699.576172	52685.152344
1698.553711	53084.558594
1697.531250	53158.304688
1696.507813	53011.097656
1695.485352	53023.074219
1694.461914	53013.675781
1693.438477	53001.898438
1692.415039	53450.664063
1691.390625	53163.488281
1690.367188	53498.152344
1689.342773	53291.734375
1688.318359	53353.449219
1687.293945	53045.140625
1686.269531	53943.968750
1685.244141	53654.625000
1684.218750	54564.871094
1683.194336	54104.871094
1682.168945	53796.691406
1681.142578	54433.957031
1680.117188	54874.378906
1679.090820	55025.695313
1678.064453	54532.855469
1677.038086	54404.800781
1676.011719	54603.453125
1674.985352	55081.312500
1673.958008	54905.894531
1672.931641	55319.644531
1671.904297	55413.906250
1670.876953	55314.195313
1669.848633	55297.281250
1668.821289	55609.000000
1667.792969	55778.773438
1666.764648	55733.421875
1665.736328	55397.433594
1664.708008	55848.292969
1663.679688	56138.367188
1662.650391	56433.054688
1661.621094	56567.070313
1660.591797	56781.308594
1659.562500	56801.906250
1658.533203	57082.101563
1657.502930	56498.574219
1656.472656	57524.222656
1655.442383	57164.902344
1654.412109	56829.292969
1653.381836	57168.171875
1652.351563	57226.378906
1651.320313	57503.777344
1650.289063	57302.667969
1649.257813	57320.757813
1648.226563	57711.062500
1647.194336	57467.617188
1646.163086	57900.144531
1645.130859	57882.789063
1644.098633	57778.332031
1643.066406	58125.828125
1642.033203	57903.695313
1641.000977	57947.515625
1639.967773	58443.000000
1638.934570	58564.324219
1637.901367	58553.910156
1636.868164	58402.421875
1635.833984	58518.980469
1634.800781	59002.156250
1633.766602	59409.957031
1632.732422	59112.746094
1631.697266	59633.136719
1630.663086	59533.277344
1629.627930	60001.742188
1628.593750	60467.687500
1627.558594	60675.246094
1626.522461	60929.667969
1625.487305	60956.371094
1624.451172	61283.378906
1623.416016	61966.832031
1622.379883	62035.546875
1621.343750	62880.300781
1620.306641	63725.855469
1619.270508	64570.609375
1618.233398	65416.160156
1617.196289	66261.710938
1616.159180	67107.265625
1615.122070	68699.914063
1614.083984	69933.648438
1613.046875	71279.343750
1612.008789	72022.867188
1610.970703	72871.460938
1609.932617	73579.320313
1608.893555	73388.375000
1607.855469	73017.351563
1606.816406	72101.445313
1605.777344	71160.132813
1604.738281	70242.531250
1603.698242	69135.890625
1602.659180	68363.898438
1601.619141	67533.750000
1600.579102	66706.226563
1599.539063	66152.343750
1598.499023	65563.609375
1597.458008	65514.562500
1596.417969	64634.277344
1595.376953	63546.527344
1594.335938	63866.648438
1593.294922	63939.281250
1592.252930	63360.890625
1591.210938	63377.589844
1590.169922	63611.203125
1589.127930	63040.167969
1588.084961	63353.027344
1587.042969	62828.859375
1586.000000	62894.574219
1584.958008	63165.335938
1583.915039	63226.300781
1582.872070	63156.789063
1581.828125	63287.601563
1580.785156	63436.996094
1579.741211	63407.054688
1578.697266	63723.980469
1577.653320	64157.160156
1576.609375	64450.562500
1575.564453	64604.257813
1574.520508	64871.878906
1573.475586	64983.574219
1572.430664	65248.703125
1571.384766	65125.460938
1570.339844	65234.714844
1569.293945	65274.207031
1568.249023	65085.949219
1567.202148	64951.199219
1566.156250	64210.207031
1565.110352	63211.679688
1564.063477	63093.578125
1563.017578	62446.175781
1561.970703	62597.515625
1560.922852	61699.773438
1559.875977	61881.355469
1558.829102	61652.222656
1557.781250	61643.535156
1556.733398	60980.832031
1555.685547	61436.015625
1554.636719	61128.292969
1553.588867	60834.585938
1552.540039	61150.492188
1551.491211	61155.789063
1550.442383	60614.335938
1549.393555	60371.878906
1548.344727	60872.902344
1547.294922	60998.640625
1546.245117	60603.441406
1545.195313	60944.437500
1544.145508	60945.117188
1543.094727	61843.554688
1542.044922	60874.757813
1540.994141	60877.753906
1539.943359	61516.707031
1538.892578	61394.726563
1537.840820	61319.023438
1536.790039	61585.421875
1535.738281	61599.832031
1534.686523	61387.804688
1533.634766	61617.078125
1532.583008	61721.542969
1531.530273	61521.148438
1530.477539	61316.203125
1529.424805	61293.695313
1528.372070	61340.433594
1527.319336	60953.324219
1526.265625	61583.820313
1525.212891	61588.953125
1524.159180	61206.609375
1523.105469	61274.062500
1522.051758	61408.351563
1520.997070	61655.539063
1519.942383	61508.531250
1518.888672	61718.738281
1517.833984	61104.070313
1516.778320	60842.058594
1515.723633	60923.292969
1514.667969	60877.847656
1513.612305	60698.886719
1512.556641	60685.722656
1511.500977	60642.636719
1510.445313	60199.191406
1509.388672	59698.386719
1508.332031	59867.113281
1507.275391	59513.726563
1506.218750	59774.398438
1505.162109	59152.171875
1504.104492	59042.742188
1503.047852	58848.316406
1501.990234	58778.039063
1500.931641	59491.164063
1499.874023	59237.035156
1498.816406	59288.429688
1497.757813	58779.562500
1496.699219	58417.796875
1495.640625	59141.812500
1494.582031	58160.496094
1493.522461	58921.007813
1492.462891	58717.750000
1491.403320	58434.289063
1490.343750	58889.339844
1489.284180	58106.117188
1488.224609	58540.421875
1487.164063	58474.921875
1486.103516	58022.171875
1485.042969	58162.988281
1483.982422	58260.226563
1482.920898	58300.167969
1481.860352	58227.890625
1480.798828	58212.871094
1479.737305	58250.503906
1478.675781	58107.316406
1477.613281	57577.460938
1476.550781	58603.535156
1475.489258	58174.421875
1474.426758	58504.757813
1473.363281	58215.296875
1472.300781	58410.613281
1471.237305	58834.437500
1470.174805	58634.195313
1469.111328	59073.820313
1468.046875	58599.453125
1466.983398	58687.160156
1465.919922	58697.183594
1464.855469	59095.371094
1463.791016	59162.386719
1462.726563	59204.265625
1461.661133	59200.488281
1460.596680	59673.585938
1459.531250	60114.574219
1458.465820	60254.320313
1457.400391	59908.273438
1456.334961	59585.148438
1455.268555	60260.632813
1454.202148	60377.449219
1453.135742	60020.226563
1452.069336	60421.847656
1451.002930	60142.187500
1449.935547	60662.074219
1448.869141	60466.726563
1447.801758	60428.542969
1446.734375	60435.902344
1445.666016	60675.406250
1444.598633	60418.746094
1443.530273	61131.394531
1442.461914	61163.632813
1441.393555	61766.718750
1440.325195	62017.121094
1439.256836	62176.492188
1438.187500	62526.750000
1437.118164	62731.421875
1436.048828	62733.781250
1434.979492	63276.847656
1433.909180	63394.953125
1432.839844	63129.195313
1431.769531	63992.058594
1430.699219	63721.746094
1429.627930	64636.390625
1428.557617	64586.187500
1427.486328	64570.039063
1426.416016	64317.957031
1425.343750	65215.949219
1424.272461	65245.042969
1423.201172	65269.585938
1422.128906	65275.984375
1421.056641	65116.917969
1419.984375	65470.062500
1418.912109	65388.046875
1417.839844	64948.128906
1416.766602	65455.121094
1415.693359	64802.476563
1414.620117	65626.289063
1413.546875	64785.953125
1412.473633	64613.601563
1411.399414	64746.800781
1410.325195	64307.535156
1409.250977	64594.558594
1408.176758	64562.582031
1407.102539	64688.898438
1406.027344	65097.781250
1404.952148	65400.269531
1403.876953	65718.468750
1402.801758	66364.203125
1401.726563	66137.625000
1400.650391	66324.500000
1399.574219	66337.398438
1398.498047	66262.226563
1397.421875	66119.351563
1396.345703	65337.730469
1395.268555	65619.351563
1394.191406	65688.765625
1393.114258	65101.652344
1392.037109	65218.496094
1390.959961	65840.460938
1389.881836	65700.070313
1388.804688	65710.781250
1387.726563	66287.234375
1386.647461	66324.867188
1385.569336	66330.945313
1384.491211	66967.781250
1383.412109	67178.703125
1382.333008	67632.750000
1381.253906	67841.210938
1380.173828	68081.109375
1379.094727	68055.335938
1378.014648	68157.835938
1376.934570	67477.320313
1375.854492	68158.007813
1374.773438	67536.210938
1373.693359	67090.031250
1372.612305	66916.062500
1371.531250	66517.359375
1370.450195	66076.093750
1369.369141	66019.234375
1368.287109	65715.257813
1367.205078	65292.339844
1366.123047	65042.503906
1365.041016	64896.042969
1363.958984	64713.714844
1362.875977	64448.394531
1361.793945	64544.492188
1360.710938	64622.601563
1359.626953	64341.726563
1358.543945	63865.812500
1357.460938	63966.417969
1356.376953	63986.265625
1355.292969	63414.265625
1354.208984	63566.441406
1353.124023	63987.484375
1352.040039	63890.792969
1350.955078	63583.550781
1349.870117	63119.636719
1348.785156	63258.281250
1347.700195	63401.351563
1346.614258	63492.878906
1345.528320	62962.156250
1344.442383	63279.738281
1343.356445	63373.468750
1342.270508	62306.175781
1341.183594	62646.066406
1340.096680	62746.558594
1339.009766	62670.386719
1337.922852	62909.425781
1336.835938	63374.105469
1335.748047	63277.746094
1334.661133	63025.027344
1333.573242	63100.753906
1332.484375	63299.285156
1331.396484	63683.078125
1330.307617	63780.960938
1329.219727	63867.648438
1328.130859	63628.472656
1327.041992	63674.988281
1325.952148	63431.464844
1324.863281	63600.667969
1323.773438	64126.628906
1322.683594	63742.675781
1321.593750	63641.980469
1320.502930	63490.050781
1319.413086	63529.828125
1318.322266	63647.570313
1317.231445	63825.414063
1316.140625	63867.328125
1315.048828	63768.929688
1313.958008	63730.675781
1312.866211	64266.765625
1311.774414	63389.355469
1310.682617	64274.671875
1309.589844	63915.964844
1308.498047	64180.234375
1307.405273	64437.734375
1306.312500	64984.214844
1305.218750	64887.972656
1304.125977	65209.660156
1303.032227	65291.203125
1301.939453	65823.789063
1300.845703	66500.585938
1299.750977	67146.039063
1298.657227	67602.484375
1297.562500	68354.078125
1296.467773	69351.820313
1295.373047	69361.460938
1294.278320	70360.875000
1293.183594	70181.726563
1292.087891	69845.125000
1290.992188	69832.476563
1289.896484	69307.562500
1288.800781	69095.460938
1287.704102	68404.601563
1286.608398	68257.007813
1285.511719	67683.992188
1284.415039	67365.976563
1283.317383	67125.601563
1282.220703	66364.835938
1281.123047	66642.898438
1280.025391	66318.796875
1278.927734	65994.703125
1277.830078	65670.601563
1276.731445	65346.214844
1275.633789	65022.113281
1274.535156	64697.726563
1273.436523	64373.339844
1272.336914	64534.144531
1271.238281	64714.789063
1270.138672	63723.847656
1269.039063	64094.625000
1267.939453	63539.441406
1266.839844	63231.886719
1265.739258	63540.699219
1264.638672	62652.441406
1263.538086	62532.886719
1262.437500	62777.628906
1261.336914	62419.714844
1260.235352	62441.496094
1259.134766	62308.816406
1258.033203	62176.183594
1256.930664	62054.625000
1255.829102	61624.378906
1254.726563	60724.664063
1253.625000	61183.183594
1252.522461	61015.601563
1251.418945	60984.695313
1250.316406	61147.683594
1249.212891	60665.187500
1248.110352	60651.972656
1247.006836	60207.171875
1245.902344	60132.398438
1244.798828	59725.265625
1243.694336	59813.460938
1242.589844	59974.234375
1241.485352	59364.945313
1240.380859	59252.984375
1239.276367	59442.351563
1238.170898	59367.792969
1237.065430	58864.570313
1235.959961	59165.996094
1234.854492	59284.910156
1233.748047	58749.011719
1232.642578	58852.574219
1231.536133	58659.582031
1230.429688	58339.289063
1229.322266	58671.207031
1228.215820	59060.078125
1227.108398	58748.656250
1226.000977	59049.589844
1224.893555	59102.484375
1223.786133	58986.453125
1222.677734	59142.417969
1221.569336	58975.980469
1220.460938	58719.707031
1219.352539	58421.878906
1218.244141	58424.410156
1217.134766	58582.515625
1216.025391	58528.050781
1214.916016	58239.222656
1213.806641	58252.726563
1212.697266	58382.269531
1211.586914	57953.511719
1210.476563	57555.546875
1209.366211	58293.527344
1208.255859	58131.953125
1207.145508	58053.562500
1206.034180	58008.007813
1204.922852	58257.691406
1203.811523	58080.921875
1202.700195	58483.519531
1201.587891	58529.707031
1200.476563	58462.242188
1199.364258	58145.726563
1198.251953	58316.453125
1197.138672	58017.546875
1196.026367	58544.171875
1194.913086	58212.574219
1193.799805	58946.339844
1192.686523	58774.109375
1191.573242	58948.886719
1190.458984	58366.554688
1189.344727	58918.703125
1188.230469	58565.574219
1187.116211	58162.425781
1186.001953	57905.484375
1184.886719	58128.167969
1183.772461	58017.335938
1182.657227	57621.101563
1181.541016	57604.074219
1180.425781	57719.914063
1179.309570	57493.804688
1178.193359	57489.867188
1177.077148	57353.132813
1175.960938	56813.789063
1174.844727	57184.257813
1173.727539	57145.554688
1172.610352	56724.007813
1171.493164	57179.105469
1170.375977	56762.046875
