#Wave		#Intensity
2001.221680	38888.570313
2000.251953	38936.195313
1999.282227	38901.832031
1998.312500	39491.382813
1997.342773	38402.242188
1996.372070	39242.148438
1995.402344	39130.113281
1994.431641	38922.968750
1993.460938	39033.835938
1992.490234	38804.250000
1991.518555	38709.886719
1990.547852	38542.988281
1989.576172	39296.773438
1988.604492	38954.742188
1987.632813	39250.539063
1986.661133	38976.140625
1985.689453	39119.328125
1984.716797	38972.523438
1983.745117	38793.277344
1982.772461	39101.328125
1981.799805	39469.230469
1980.827148	39245.027344
1979.853516	39482.906250
1978.880859	39141.425781
1977.907227	39134.585938
1976.933594	39392.324219
1975.959961	39460.308594
1974.986328	39331.148438
1974.011719	38972.519531
1973.038086	39576.804688
1972.063477	39372.875000
1971.088867	39615.332031
1970.114258	39226.980469
1969.138672	39643.855469
1968.164063	39435.062500
1967.188477	39226.343750
1966.212891	39478.574219
1965.237305	39865.214844
1964.261719	39477.218750
1963.286133	39370.718750
1962.309570	39642.656250
1961.333984	39683.015625
1960.357422	40064.296875
1959.380859	39674.109375
1958.404297	39448.246094
1957.426758	39162.769531
1956.450195	40088.496094
1955.472656	39527.003906
1954.495117	39614.558594
1953.517578	40015.261719
1952.540039	39555.964844
1951.561523	39750.304688
1950.583008	39504.859375
1949.605469	39870.519531
1948.626953	39990.195313
1947.647461	40017.957031
1946.668945	39854.554688
1945.690430	39770.632813
1944.710938	40160.738281
1943.731445	40362.128906
1942.751953	39774.558594
1941.772461	39782.476563
1940.791992	39956.546875
1939.812500	39676.808594
1938.832031	40073.945313
1937.851563	39952.914063
1936.871094	40163.996094
1935.890625	39740.699219
1934.909180	40179.656250
1933.928711	39806.042969
1932.947266	40103.671875
1931.965820	40000.085938
1930.984375	40181.222656
1930.002930	40275.664063
1929.020508	39954.320313
1928.038086	40333.308594
1927.056641	40407.878906
1926.074219	40232.605469
1925.090820	40403.613281
1924.108398	39852.570313
1923.125000	40641.609375
1922.142578	40068.468750
1921.159180	40192.425781
1920.175781	40291.625000
1919.191406	40526.660156
1918.208008	40475.097656
1917.223633	40334.648438
1916.240234	40391.773438
1915.255859	40283.480469
1914.271484	40478.812500
1913.286133	40345.855469
1912.301758	40356.054688
1911.316406	40437.789063
1910.331055	40472.628906
1909.345703	40140.011719
1908.360352	40537.332031
1907.375000	40443.941406
1906.388672	40668.535156
1905.402344	40136.500000
1904.416016	40789.785156
1903.429688	41024.050781
1902.443359	40797.644531
1901.457031	40765.859375
1900.469727	41049.242188
1899.482422	41138.050781
1898.495117	40798.554688
1897.507813	40744.640625
1896.520508	40789.160156
1895.532227	40983.722656
1894.543945	40767.464844
1893.556641	41072.621094
1892.568359	41163.761719
1891.579102	40982.000000
1890.590820	41107.531250
1889.601563	40849.656250
1888.613281	40859.683594
1887.624023	40879.535156
1886.634766	40673.410156
1885.644531	40641.710938
1884.655273	41020.054688
1883.665039	41246.058594
1882.674805	40971.285156
1881.684570	41611.937500
1880.694336	41216.972656
1879.704102	41018.390625
1878.712891	41396.257813
1877.722656	41214.875000
1876.731445	41732.324219
1875.740234	41237.167969
1874.748047	41028.945313
1873.756836	41026.640625
1872.764648	41313.441406
1871.773438	41489.910156
1870.781250	41404.242188
1869.788086	41671.234375
1868.795898	41255.035156
1867.803711	41340.804688
1866.810547	41688.429688
1865.817383	41938.046875
1864.824219	41478.042969
1863.831055	41429.167969
1862.837891	41822.996094
1861.843750	41602.898438
1860.849609	41786.289063
1859.855469	41950.054688
1858.861328	42001.339844
1857.867188	41761.808594
1856.872070	41654.292969
1855.877930	42059.796875
1854.882813	41605.453125
1853.887695	41627.437500
1852.892578	42196.308594
1851.896484	41708.000000
1850.901367	42098.488281
1849.905273	42064.238281
1848.909180	41829.941406
1847.913086	41954.308594
1846.916992	42259.109375
1845.919922	42661.339844
1844.923828	42124.773438
1843.926758	42465.945313
1842.929688	42385.355469
1841.932617	42436.378906
1840.935547	42112.187500
1839.937500	42445.804688
1838.939453	42767.125000
1837.942383	42603.753906
1836.943359	42557.300781
1835.945313	42800.531250
1834.947266	42797.867188
1833.948242	42600.531250
1832.949219	42556.539063
1831.951172	42364.175781
1830.951172	42755.574219
1829.952148	43069.023438
1828.953125	43020.109375
1827.953125	43141.363281
1826.953125	42791.085938
1825.953125	43354.582031
1824.953125	42649.683594
1823.952148	42637.312500
1822.952148	43045.097656
1821.951172	42833.546875
1820.950195	42794.441406
1819.949219	42731.074219
1818.948242	43429.777344
1817.946289	42990.210938
1816.945313	43106.367188
1815.943359	43038.128906
1814.941406	42790.449219
1813.939453	43156.328125
1812.936523	43476.007813
1811.934570	43010.222656
1810.931641	43283.769531
1809.928711	43494.218750
1808.925781	43430.832031
1807.921875	43655.707031
1806.918945	43500.281250
1805.915039	43327.960938
1804.912109	43504.312500
1803.908203	43542.632813
1802.903320	44018.972656
1801.899414	43457.109375
1800.894531	44008.289063
1799.890625	43923.125000
1798.885742	43738.839844
1797.880859	43600.554688
1796.875000	43537.261719
1795.870117	44206.371094
1794.864258	44162.324219
1793.858398	44004.726563
1792.852539	44168.484375
1791.846680	44180.015625
1790.840820	44297.800781
1789.833984	44446.929688
1788.828125	44576.691406
1787.821289	44392.628906
1786.814453	44560.960938
1785.806641	44712.343750
1784.799805	44774.414063
1783.791992	44609.734375
1782.784180	44727.261719
1781.776367	44772.410156
1780.768555	44672.898438
1779.760742	45161.531250
1778.751953	44895.707031
1777.743164	44931.148438
1776.735352	44730.496094
1775.725586	44696.101563
1774.716797	45379.351563
1773.708008	45554.328125
1772.698242	45129.816406
1771.688477	45514.167969
1770.678711	45210.136719
1769.668945	45084.257813
1768.659180	45220.628906
1767.648438	45575.824219
1766.637695	45481.203125
1765.626953	45687.152344
1764.616211	45777.640625
1763.605469	45351.347656
1762.593750	45713.406250
1761.583008	46027.281250
1760.571289	45824.570313
1759.559570	46020.625000
1758.547852	45697.914063
1757.535156	46354.894531
1756.523438	46008.230469
1755.510742	46252.109375
1754.498047	46678.273438
1753.485352	46413.300781
1752.472656	46551.425781
1751.458984	46488.031250
1750.445313	46489.406250
1749.432617	46536.328125
1748.417969	47014.714844
1747.404297	47066.320313
1746.390625	47266.472656
1745.375977	47337.175781
1744.361328	47345.574219
1743.346680	47248.585938
1742.332031	47738.300781
1741.317383	47574.234375
1740.302734	47845.886719
1739.287109	48045.640625
1738.271484	48455.894531
1737.255859	48995.195313
1736.240234	49208.988281
1735.223633	48858.281250
1734.208008	49275.265625
1733.191406	49498.453125
1732.174805	49848.242188
1731.158203	49958.917969
1730.140625	50449.480469
1729.124023	50841.917969
1728.106445	50966.683594
1727.088867	51244.250000
1726.071289	51538.429688
1725.053711	51834.890625
1724.035156	52040.539063
1723.017578	52296.234375
1721.999023	52275.042969
1720.980469	52766.781250
1719.961914	53217.796875
1718.942383	53201.218750
1717.923828	52941.429688
1716.904297	53525.671875
1715.884766	53370.792969
1714.865234	53287.460938
1713.844727	53723.593750
1712.825195	53528.257813
1711.804688	53540.214844
1710.784180	53125.878906
1709.763672	53652.203125
1708.743164	53861.714844
1707.722656	53245.218750
1706.701172	53012.082031
1705.679688	53254.902344
1704.658203	53119.378906
1703.636719	52698.480469
1702.615234	52843.718750
1701.592773	52713.089844
1700.571289	53414.546875
1699.548828	53003.394531
1698.526367	53245.898438
1697.502930	52651.964844
1696.480469	52476.339844
1695.457031	52858.933594
1694.433594	52122.894531
1693.410156	52852.062500
1692.386719	53065.835938
1691.363281	52624.453125
1690.338867	52838.187500
1689.314453	52667.476563
1688.290039	52942.800781
1687.265625	53025.910156
1686.241211	53080.531250
1685.215820	52558.992188
1684.191406	52765.386719
1683.166016	52926.671875
1682.140625	52834.339844
1681.115234	53111.648438
1680.088867	52969.570313
1679.062500	53142.535156
1678.037109	53639.859375
1677.010742	53272.835938
1675.983398	53393.574219
1674.957031	53407.765625
1673.930664	53601.789063
1672.903320	53911.667969
1671.875977	53935.214844
1670.848633	54150.320313
1669.820313	53930.253906
1668.792969	54147.644531
1667.764648	54336.589844
1666.736328	54230.042969
1665.708008	54752.078125
1664.679688	54666.753906
1663.651367	54657.046875
1662.622070	55150.378906
1661.592773	55423.937500
1660.563477	55213.421875
1659.534180	55562.398438
1658.504883	55479.371094
1657.474609	55424.679688
1656.444336	55955.085938
1655.415039	56256.503906
1654.383789	56112.082031
1653.353516	56335.546875
1652.323242	56063.851563
1651.291992	56522.949219
1650.260742	56826.343750
1649.229492	57261.574219
1648.198242	57588.281250
1647.166016	57486.183594
1646.134766	57320.535156
1645.102539	57896.636719
1644.070313	58999.859375
1643.038086	58280.894531
1642.004883	58616.468750
1640.972656	59351.917969
1639.939453	59821.269531
1638.906250	59443.710938
1637.873047	60298.546875
1636.839844	60605.238281
1635.805664	61421.945313
1634.772461	61636.660156
1633.738281	61472.945313
1632.704102	61657.027344
1631.668945	62374.289063
1630.634766	63011.441406
1629.599609	63793.957031
1628.565430	63317.726563
1627.530273	64440.285156
1626.494141	64198.808594
1625.458984	64161.574219
1624.422852	65459.339844
1623.387695	65140.394531
1622.351563	66015.351563
1621.315430	66697.710938
1620.278320	68036.296875
1619.242188	69496.296875
1618.205078	70006.570313
1617.167969	71885.148438
1616.130859	72912.585938
1615.093750	75082.773438
1614.055664	76863.406250
1613.018555	77467.914063
1611.980469	79493.304688
1610.942383	79980.078125
1609.904297	79876.898438
1608.865234	80017.117188
1607.827148	78774.601563
1606.788086	77658.843750
1605.749023	76297.921875
1604.709961	75038.023438
1603.669922	73738.820313
1602.630859	72729.929688
1601.590820	71370.835938
1600.550781	71703.945313
1599.510742	70684.257813
1598.470703	69788.734375
1597.429688	69603.484375
1596.389648	69378.593750
1595.348633	69501.632813
1594.307617	69293.179688
1593.265625	69651.890625
1592.224609	68990.820313
1591.182617	69039.179688
1590.140625	69561.000000
1589.098633	69725.835938
1588.056641	69533.867188
1587.014648	69686.984375
1585.971680	69784.109375
1584.928711	70321.632813
1583.886719	70201.914063
1582.842773	71060.648438
1581.799805	70852.328125
1580.755859	71000.375000
1579.712891	71283.406250
1578.668945	71722.296875
1577.625000	71502.359375
1576.580078	72462.312500
1575.536133	72265.585938
1574.491211	72399.242188
1573.446289	72283.992188
1572.401367	72673.382813
1571.356445	72576.718750
1570.311523	72531.218750
1569.265625	72729.773438
1568.219727	72935.226563
1567.173828	72975.648438
1566.127930	72363.312500
1565.082031	72926.375000
1564.035156	72351.414063
1562.988281	72185.265625
1561.941406	72260.585938
1560.894531	71727.812500
1559.847656	72086.273438
1558.799805	71282.281250
1557.751953	71900.484375
1556.704102	71393.656250
1555.656250	71084.101563
1554.608398	71154.867188
1553.560547	71318.320313
1552.511719	71143.359375
1551.462891	71230.289063
1550.414063	70890.906250
1549.365234	71146.929688
1548.315430	71560.343750
1547.265625	71299.804688
1546.216797	71194.460938
1545.166992	71665.492188
1544.116211	71580.945313
1543.066406	71635.257813
1542.015625	71691.859375
1540.965820	71366.789063
1539.915039	71391.039063
1538.863281	71493.882813
1537.812500	71587.445313
1536.760742	70971.390625
1535.709961	71194.414063
1534.658203	70678.000000
1533.605469	70808.585938
1532.553711	70142.289063
1531.501953	70478.445313
1530.449219	70024.851563
1529.396484	69645.289063
1528.343750	70015.968750
1527.290039	69230.398438
1526.237305	69379.515625
1525.183594	69034.929688
1524.129883	68593.601563
1523.076172	68507.539063
1522.022461	68193.257813
1520.968750	67388.093750
1519.914063	67551.195313
1518.859375	66914.640625
1517.804688	66709.140625
1516.750000	66697.203125
1515.694336	66413.500000
1514.639648	65872.007813
1513.583984	65305.375000
1512.528320	65664.281250
1511.472656	65376.359375
1510.416016	65226.593750
1509.360352	65300.039063
1508.303711	64906.519531
1507.247070	64648.824219
1506.190430	64680.933594
1505.132813	64772.804688
1504.076172	63982.003906
1503.018555	63756.820313
1501.960938	63651.195313
1500.903320	63690.335938
1499.844727	62895.691406
1498.787109	62794.863281
1497.728516	62241.742188
1496.669922	62657.585938
1495.611328	62180.425781
1494.552734	61467.066406
1493.493164	61270.203125
1492.434570	60662.785156
1491.375000	60617.511719
1490.315430	60402.554688
1489.254883	60121.183594
1488.195313	60275.457031
1487.134766	60445.718750
1486.074219	59055.375000
1485.013672	58893.574219
1483.953125	59206.007813
1482.892578	58883.914063
1481.831055	58610.019531
1480.769531	58505.640625
1479.708008	58513.464844
1478.646484	58354.207031
1477.583984	57931.859375
1476.522461	58061.027344
1475.459961	58002.578125
1474.397461	57392.976563
1473.334961	57849.152344
1472.271484	57427.257813
1471.208984	57412.386719
1470.145508	57406.656250
1469.082031	57796.230469
1468.018555	57470.589844
1466.954102	57215.875000
1465.890625	57504.777344
1464.826172	57562.960938
1463.761719	57292.378906
1462.697266	57496.652344
1461.631836	57413.304688
1460.567383	57195.367188
1459.501953	57171.414063
1458.436523	57177.117188
1457.371094	57479.277344
1456.305664	57523.683594
1455.239258	57258.035156
1454.172852	56976.523438
1453.107422	57180.503906
1452.040039	57370.738281
1450.973633	57073.406250
1449.907227	57343.304688
1448.839844	57362.609375
1447.772461	57359.136719
1446.705078	57528.667969
1445.637695	57784.625000
1444.569336	57617.230469
1443.500977	57666.035156
1442.432617	57687.523438
1441.364258	57768.132813
1440.295898	57816.875000
1439.227539	57795.117188
1438.158203	58275.726563
1437.088867	57872.078125
1436.019531	57713.976563
1434.950195	58441.968750
1433.879883	58485.980469
1432.810547	58598.105469
1431.740234	58885.027344
1430.669922	58463.527344
1429.598633	58893.367188
1428.528320	59052.988281
1427.457031	58772.355469
1426.386719	59546.730469
1425.314453	58361.089844
1424.243164	58727.054688
1423.171875	58698.351563
1422.099609	58161.855469
1421.027344	58026.734375
1419.955078	58075.218750
1418.882813	58241.500000
1417.810547	57576.335938
1416.737305	57978.199219
1415.664063	57834.160156
1414.590820	57801.117188
1413.517578	57602.828125
1412.444336	57526.824219
1411.370117	56855.703125
1410.295898	57291.187500
1409.221680	57846.402344
1408.147461	57571.371094
1407.073242	57893.421875
1405.998047	57794.824219
1404.922852	57825.113281
1403.847656	57349.128906
1402.772461	57804.292969
1401.697266	57595.074219
1400.621094	57912.238281
1399.544922	57682.742188
1398.468750	58202.992188
1397.392578	58416.015625
1396.316406	58459.671875
1395.239258	58792.175781
1394.162109	58361.898438
1393.084961	58479.976563
1392.007813	58492.000000
1390.930664	58966.328125
1389.852539	59147.363281
1388.774414	59247.171875
1387.696289	59714.339844
1386.618164	59841.046875
1385.540039	60233.578125
1384.460938	60004.210938
1383.382813	60820.007813
1382.303711	60962.175781
1381.223633	61554.601563
1380.144531	61511.992188
1379.064453	61455.890625
1377.985352	62200.917969
1376.905273	61894.968750
1375.825195	61942.296875
1374.744141	61931.128906
1373.664063	61452.234375
1372.583008	61295.015625
1371.501953	60931.046875
1370.420898	60358.191406
1369.338867	60376.519531
1368.257813	59417.539063
1367.175781	59653.910156
1366.093750	59672.347656
1365.011719	58855.464844
1363.929688	58930.160156
1362.846680	59081.144531
1361.763672	58332.132813
1360.680664	58056.835938
1359.597656	57898.296875
1358.514648	58152.527344
1357.430664	57798.914063
1356.346680	58434.238281
1355.262695	57594.226563
1354.178711	57431.414063
1353.094727	57320.203125
1352.009766	57157.500000
1350.925781	57252.468750
1349.840820	57161.503906
1348.755859	56801.839844
1347.669922	56746.804688
1346.584961	56286.609375
1345.499023	57073.230469
1344.413086	56682.507813
1343.327148	56616.335938
1342.240234	56686.644531
1341.154297	56613.781250
1340.067383	56402.304688
1338.980469	56168.542969
1337.893555	56574.167969
1336.805664	56470.082031
1335.718750	55939.234375
1334.630859	56445.210938
1333.542969	56276.417969
1332.455078	56409.183594
1331.367188	56084.148438
1330.278320	56373.171875
1329.189453	56068.347656
1328.100586	56638.457031
1327.011719	56318.070313
1325.922852	56394.894531
1324.833008	56893.253906
1323.743164	56198.332031
1322.653320	56139.121094
1321.563477	56314.000000
1320.473633	56595.804688
1319.382813	56541.000000
1318.291992	56762.496094
1317.201172	56674.265625
1316.110352	56880.062500
1315.019531	56698.304688
1313.927734	56425.328125
1312.835938	56646.632813
1311.744141	56854.500000
1310.652344	56712.925781
1309.560547	56865.082031
1308.467773	56959.343750
1307.375000	57133.636719
1306.282227	56816.433594
1305.189453	57112.960938
1304.095703	57629.441406
1303.002930	57241.199219
1301.909180	57097.515625
1300.815430	57398.210938
1299.721680	57583.292969
1298.626953	57555.101563
1297.533203	57775.609375
1296.438477	58417.839844
1295.343750	57745.812500
1294.248047	58441.074219
1293.153320	58401.648438
1292.057617	58362.234375
1290.961914	58932.785156
1289.866211	59376.726563
1288.770508	59419.187500
1287.674805	59530.351563
1286.578125	59051.906250
1285.481445	59158.656250
1284.384766	59429.324219
1283.288086	59383.113281
1282.190430	59744.445313
1281.092773	59286.312500
1279.996094	59184.792969
1278.897461	58709.214844
1277.799805	59236.382813
1276.702148	58803.003906
1275.603516	58579.957031
1274.504883	58633.488281
1273.406250	58790.945313
1272.307617	57860.429688
1271.208008	58040.070313
1270.108398	58100.281250
1269.008789	58178.148438
1267.909180	58503.460938
1266.809570	58031.132813
1265.708984	57404.355469
1264.609375	57184.148438
1263.508789	57231.187500
1262.407227	57192.109375
1261.306641	56607.867188
1260.206055	56961.722656
1259.104492	57169.824219
1258.002930	56740.312500
1256.901367	56533.722656
1255.798828	56399.976563
1254.697266	56504.394531
1253.594727	56403.761719
1252.492188	55844.734375
1251.389648	56257.691406
1250.286133	55903.785156
1249.183594	55690.980469
1248.080078	55859.269531
1246.976563	55877.757813
1245.872070	55215.941406
1244.768555	55254.347656
1243.664063	55345.554688
1242.560547	55177.078125
1241.455078	55153.859375
1240.350586	55165.843750
1239.246094	54617.023438
1238.140625	54472.980469
1237.035156	55017.082031
1235.929688	54800.480469
1234.824219	54616.917969
1233.717773	54327.953125
1232.612305	54478.453125
1231.505859	54345.558594
1230.399414	54730.968750
1229.291992	54982.300781
1228.185547	54463.027344
1227.078125	55067.675781
1225.970703	54724.121094
1224.863281	54123.988281
1223.755859	54519.972656
1222.647461	54360.925781
1221.539063	54482.613281
1220.430664	54716.070313
1219.322266	54598.714844
1218.213867	54698.371094
1217.104492	54526.281250
1215.995117	54487.886719
1214.885742	54497.695313
1213.776367	54371.714844
1212.666992	54613.636719
1211.556641	54157.101563
1210.446289	54160.386719
1209.335938	54139.597656
1208.225586	54289.476563
1207.115234	54809.011719
1206.003906	54674.371094
1204.892578	54651.304688
1203.781250	54503.617188
1202.669922	54690.445313
1201.557617	54656.453125
1200.446289	54768.882813
1199.333984	54184.300781
1198.221680	54471.527344
1197.108398	54915.898438
1195.996094	55111.167969
1194.882813	54987.609375
1193.769531	54772.414063
1192.656250	55146.558594
1191.542969	55529.292969
1190.428711	55268.292969
1189.314453	55410.917969
1188.200195	55769.398438
1187.085938	55935.863281
1185.971680	55873.359375
1184.856445	55969.988281
1183.741211	56491.542969
1182.625977	56237.218750
1181.510742	56386.007813
1180.395508	56419.300781
1179.279297	56650.750000
1178.163086	56128.765625
1177.046875	56930.527344
1175.930664	56985.449219
1174.813477	56241.718750
1173.697266	56875.484375
1172.580078	56649.761719
1171.462891	56563.320313
1170.344727	56489.949219
