#Wave		#Intensity
2001.182617	36955.789063
2000.212891	36807.906250
1999.243164	37152.332031
1998.273438	36850.179688
1997.303711	37186.957031
1996.333008	36962.554688
1995.363281	37043.750000
1994.392578	37162.476563
1993.421875	37453.894531
1992.451172	37157.007813
1991.479492	37218.089844
1990.508789	37063.964844
1989.537109	36967.429688
1988.566406	37338.660156
1987.594727	37589.722656
1986.622070	37663.167969
1985.650391	37299.097656
1984.677734	37335.074219
1983.706055	37233.589844
1982.733398	36909.757813
1981.760742	37220.578125
1980.788086	37229.062500
1979.814453	37567.187500
1978.841797	37320.921875
1977.868164	37628.953125
1976.894531	37552.488281
1975.920898	37560.898438
1974.947266	37743.964844
1973.972656	37333.226563
1972.999023	37848.000000
1972.024414	37599.484375
1971.049805	37592.910156
1970.075195	37738.410156
1969.099609	37946.167969
1968.125000	37386.292969
1967.149414	38084.890625
1966.173828	37971.109375
1965.198242	37750.265625
1964.222656	37865.687500
1963.247070	38297.292969
1962.270508	37971.941406
1961.294922	38512.886719
1960.318359	38302.085938
1959.341797	38054.035156
1958.364258	38012.550781
1957.387695	38095.441406
1956.410156	38098.726563
1955.433594	38368.054688
1954.456055	38177.378906
1953.478516	38108.558594
1952.500000	38402.589844
1951.522461	38415.750000
1950.543945	38744.398438
1949.565430	38360.078125
1948.586914	38487.468750
1947.608398	38448.453125
1946.629883	38816.585938
1945.650391	39013.320313
1944.671875	39033.789063
1943.692383	38687.031250
1942.712891	39012.683594
1941.733398	39062.898438
1940.752930	38751.031250
1939.773438	39200.468750
1938.792969	38913.476563
1937.812500	39137.171875
1936.832031	39668.082031
1935.851563	38940.113281
1934.870117	39233.046875
1933.888672	39548.167969
1932.908203	39348.078125
1931.926758	39338.710938
1930.945313	39376.378906
1929.962891	39802.632813
1928.981445	39694.195313
1927.999023	39521.464844
1927.016602	39677.812500
1926.034180	39826.687500
1925.051758	39792.503906
1924.069336	39627.289063
1923.085938	39944.191406
1922.102539	39620.816406
1921.119141	40014.214844
1920.135742	39584.695313
1919.152344	39933.488281
1918.168945	40010.468750
1917.184570	40339.304688
1916.200195	40038.414063
1915.215820	40219.011719
1914.231445	40357.585938
1913.247070	40155.554688
1912.261719	40057.222656
1911.276367	39968.792969
1910.291992	40568.535156
1909.306641	40398.664063
1908.320313	40564.171875
1907.334961	40283.421875
1906.348633	40286.214844
1905.363281	40468.902344
1904.376953	40506.152344
1903.390625	40560.632813
1902.403320	40531.351563
1901.416992	40731.097656
1900.429688	40879.066406
1899.443359	40694.652344
1898.456055	40222.328125
1897.467773	40741.894531
1896.480469	40774.109375
1895.493164	40791.554688
1894.504883	41136.113281
1893.516602	41237.093750
1892.528320	40893.015625
1891.540039	41072.667969
1890.550781	40878.664063
1889.562500	40957.496094
1888.573242	40699.695313
1887.583984	41073.312500
1886.594727	40795.929688
1885.605469	40911.550781
1884.615234	40992.757813
1883.625000	41135.300781
1882.635742	41253.253906
1881.645508	40985.890625
1880.654297	41042.484375
1879.664063	41378.707031
1878.673828	41342.007813
1877.682617	40775.636719
1876.691406	41496.660156
1875.700195	41138.824219
1874.708984	41141.402344
1873.716797	41322.863281
1872.725586	41352.355469
1871.733398	41232.406250
1870.741211	41470.082031
1869.749023	41453.000000
1868.755859	41475.093750
1867.763672	41582.859375
1866.770508	41671.003906
1865.777344	41683.253906
1864.784180	41524.238281
1863.791016	41394.628906
1862.797852	41803.132813
1861.803711	41685.746094
1860.809570	42040.265625
1859.815430	41433.976563
1858.821289	41702.867188
1857.827148	41876.363281
1856.832031	41815.250000
1855.837891	42020.417969
1854.842773	41685.757813
1853.847656	41876.218750
1852.852539	41732.132813
1851.856445	41932.281250
1850.861328	41324.515625
1849.865234	42112.746094
1848.869141	42232.207031
1847.873047	42244.292969
1846.876953	41532.019531
1845.879883	42470.835938
1844.883789	42222.000000
1843.886719	42246.257813
1842.889648	42582.468750
1841.892578	42587.160156
1840.895508	42735.589844
1839.897461	42735.375000
1838.899414	43000.628906
1837.901367	42272.289063
1836.903320	42593.519531
1835.905273	42766.152344
1834.907227	42987.398438
1833.908203	42987.128906
1832.909180	43013.621094
1831.910156	43242.000000
1830.911133	43489.750000
1829.912109	42954.433594
1828.912109	43428.242188
1827.913086	43021.953125
1826.913086	43067.843750
1825.913086	43551.097656
1824.913086	42773.285156
1823.912109	43817.527344
1822.912109	43328.941406
1821.911133	43413.582031
1820.910156	43495.761719
1819.909180	43063.316406
1818.908203	43332.398438
1817.906250	43948.367188
1816.904297	43710.148438
1815.903320	43678.191406
1814.900391	43561.359375
1813.898438	43279.683594
1812.896484	44130.273438
1811.893555	44263.085938
1810.891602	43385.250000
1809.888672	43784.679688
1808.885742	43837.527344
1807.881836	43725.644531
1806.878906	43785.746094
1805.875000	43860.351563
1804.871094	44574.054688
1803.867188	43760.171875
1802.863281	43491.085938
1801.859375	44381.105469
1800.854492	44029.750000
1799.849609	44481.558594
1798.844727	44930.785156
1797.839844	44473.121094
1796.834961	44590.988281
1795.830078	44631.464844
1794.824219	44307.011719
1793.818359	44567.398438
1792.812500	44767.292969
1791.806641	44906.734375
1790.799805	44679.050781
1789.793945	45035.761719
1788.787109	44938.492188
1787.780273	45022.281250
1786.773438	45074.667969
1785.766602	45377.968750
1784.758789	45420.621094
1783.751953	45270.296875
1782.744141	45402.175781
1781.736328	45743.777344
1780.728516	45969.539063
1779.719727	45455.265625
1778.711914	45717.144531
1777.703125	46070.484375
1776.694336	45660.050781
1775.685547	45847.082031
1774.676758	45891.964844
1773.666992	46054.808594
1772.657227	45916.683594
1771.648438	45990.406250
1770.638672	45821.054688
1769.627930	45735.968750
1768.618164	46851.300781
1767.607422	46434.148438
1766.597656	46389.871094
1765.586914	46446.593750
1764.576172	46618.679688
1763.564453	46901.261719
1762.553711	46515.699219
1761.541992	46163.906250
1760.530273	46665.011719
1759.518555	46899.343750
1758.506836	46955.894531
1757.495117	47022.023438
1756.482422	47203.351563
1755.469727	47019.804688
1754.457031	47179.468750
1753.444336	47461.433594
1752.431641	47465.039063
1751.417969	47228.800781
1750.405273	47539.378906
1749.391602	48065.621094
1748.377930	47680.777344
1747.364258	47993.500000
1746.349609	48016.164063
1745.335938	48261.632813
1744.321289	47809.945313
1743.306641	48302.042969
1742.291992	47838.535156
1741.276367	48502.824219
1740.261719	48403.285156
1739.246094	47987.863281
1738.230469	48493.839844
1737.214844	49002.027344
1736.199219	48904.851563
1735.182617	49152.101563
1734.166992	49537.945313
1733.150391	49715.660156
1732.133789	49771.398438
1731.117188	50204.722656
1730.099609	50418.062500
1729.083008	50578.761719
1728.065430	50557.863281
1727.047852	51124.476563
1726.030273	51602.535156
1725.012695	51593.398438
1723.994141	51550.847656
1722.976563	52004.707031
1721.958008	51904.828125
1720.939453	52406.171875
1719.920898	52964.582031
1718.901367	52874.117188
1717.882813	52845.679688
1716.863281	53100.941406
1715.843750	53484.828125
1714.824219	53377.644531
1713.803711	53959.105469
1712.784180	54132.984375
1711.763672	54032.882813
1710.743164	53494.625000
1709.722656	54239.937500
1708.702148	54163.667969
1707.681641	53894.632813
1706.660156	54106.398438
1705.638672	53958.808594
1704.617188	53894.531250
1703.595703	54465.335938
1702.574219	53892.078125
1701.551758	54771.769531
1700.529297	53856.332031
1699.507813	54455.253906
1698.484375	54267.367188
1697.461914	53979.757813
1696.439453	54233.875000
1695.416016	54117.378906
1694.392578	54423.621094
1693.369141	54601.539063
1692.345703	54344.972656
1691.322266	54681.859375
1690.297852	54812.171875
1689.273438	54356.398438
1688.249023	54619.558594
1687.224609	54854.164063
1686.200195	54759.066406
1685.174805	54844.187500
1684.150391	55085.730469
1683.125000	54694.375000
1682.099609	54860.027344
1681.073242	54956.910156
1680.047852	55503.828125
1679.021484	55475.035156
1677.995117	56031.136719
1676.968750	55990.414063
1675.942383	56257.433594
1674.916016	56017.875000
1673.888672	56381.808594
1672.862305	56061.871094
1671.834961	56077.937500
1670.806641	56410.914063
1669.779297	56779.238281
1668.751953	56371.972656
1667.723633	57012.000000
1666.695313	56900.253906
1665.666992	56961.039063
1664.638672	57222.613281
1663.609375	57073.085938
1662.581055	57778.539063
1661.551758	57525.066406
1660.522461	57420.417969
1659.493164	57691.105469
1658.462891	57713.898438
1657.433594	57772.074219
1656.403320	57702.832031
1655.373047	57671.351563
1654.342773	57833.261719
1653.312500	57877.218750
1652.281250	58244.132813
1651.250977	58231.425781
1650.219727	58282.347656
1649.188477	58780.937500
1648.156250	58195.671875
1647.125000	58496.238281
1646.092773	58200.886719
1645.060547	59130.011719
1644.028320	58829.941406
1642.996094	58925.398438
1641.963867	59051.414063
1640.930664	59175.027344
1639.898438	59917.296875
1638.865234	59370.375000
1637.832031	59832.496094
1636.797852	59422.148438
1635.764648	60032.191406
1634.730469	60167.234375
1633.696289	60612.425781
1632.662109	60989.316406
1631.627930	60971.421875
1630.592773	61209.539063
1629.558594	61689.437500
1628.523438	61406.109375
1627.488281	62857.644531
1626.453125	62588.289063
1625.416992	62987.808594
1624.381836	63753.191406
1623.345703	64269.644531
1622.309570	64839.855469
1621.273438	65534.144531
1620.237305	66804.937500
1619.200195	67538.468750
1618.163086	67953.000000
1617.125977	69850.671875
1616.088867	70965.148438
1615.051758	72774.937500
1614.014648	73701.132813
1612.976563	75776.718750
1611.938477	76224.437500
1610.900391	77027.796875
1609.862305	77779.375000
1608.823242	77194.578125
1607.785156	76310.523438
1606.746094	75775.312500
1605.707031	74374.976563
1604.667969	73466.164063
1603.628906	72298.179688
1602.588867	71069.828125
1601.548828	70498.617188
1600.508789	69976.679688
1599.468750	69148.882813
1598.428711	68725.460938
1597.387695	68379.257813
1596.347656	67547.507813
1595.306641	67372.054688
1594.265625	66335.375000
1593.224609	67032.992188
1592.182617	66624.382813
1591.140625	66358.226563
1590.099609	66131.812500
1589.057617	65653.617188
1588.014648	65844.757813
1586.972656	65907.617188
1585.929688	65818.953125
1584.887695	66210.367188
1583.844727	65939.937500
1582.800781	65895.562500
1581.757813	65424.972656
1580.714844	66258.625000
1579.670898	66156.000000
1578.626953	66314.140625
1577.583008	67254.242188
1576.538086	67195.703125
1575.494141	67616.468750
1574.449219	67932.398438
1573.404297	68792.453125
1572.359375	68905.750000
1571.314453	69516.539063
1570.269531	69234.484375
1569.223633	69944.937500
1568.177734	69444.476563
1567.131836	69808.453125
1566.085938	69291.929688
1565.040039	69284.203125
1563.993164	69255.578125
1562.946289	69375.554688
1561.899414	68467.171875
1560.852539	68350.507813
1559.805664	67475.109375
1558.757813	67423.625000
1557.709961	66908.234375
1556.662109	66478.835938
1555.614258	65840.906250
1554.566406	65511.531250
1553.517578	65606.453125
1552.469727	64929.613281
1551.420898	64510.203125
1550.372070	64419.914063
1549.322266	64165.199219
1548.273438	63956.886719
1547.223633	63350.390625
1546.173828	63825.226563
1545.124023	63681.890625
1544.074219	63242.382813
1543.024414	62927.976563
1541.973633	62965.312500
1540.922852	63011.882813
1539.872070	63335.937500
1538.821289	62714.214844
1537.770508	62608.222656
1536.718750	62828.160156
1535.666992	62488.781250
1534.615234	62228.078125
1533.563477	62168.441406
1532.511719	62284.355469
1531.458984	61882.957031
1530.407227	62114.320313
1529.354492	62285.574219
1528.300781	61780.523438
1527.248047	61919.468750
1526.195313	61903.777344
1525.141602	61454.421875
1524.087891	61955.437500
1523.034180	61291.773438
1521.980469	61243.917969
1520.925781	61186.859375
1519.871094	61035.324219
1518.817383	60784.757813
1517.762695	60773.882813
1516.707031	60774.523438
1515.652344	60841.949219
1514.596680	60375.140625
1513.541016	60845.500000
1512.485352	60477.828125
1511.429688	60377.246094
1510.374023	59975.269531
1509.317383	60560.382813
1508.260742	60078.007813
1507.204102	60453.609375
1506.147461	60189.859375
1505.090820	59668.718750
1504.033203	60372.871094
1502.975586	60493.050781
1501.917969	59969.832031
1500.860352	59667.335938
1499.802734	60040.226563
1498.744141	60213.191406
1497.686523	59612.320313
1496.627930	60290.332031
1495.569336	60089.027344
1494.509766	59876.316406
1493.451172	59753.164063
1492.391602	59841.101563
1491.332031	59789.093750
1490.272461	60156.750000
1489.212891	59774.542969
1488.152344	59727.152344
1487.092773	60044.195313
1486.032227	59531.589844
1484.971680	59992.886719
1483.910156	59572.097656
1482.849609	60117.960938
1481.788086	59889.644531
1480.726563	59718.644531
1479.665039	59710.222656
1478.603516	60370.093750
1477.541992	59723.136719
1476.479492	60183.718750
1475.416992	59646.820313
1474.354492	59752.757813
1473.291992	60812.171875
1472.229492	59838.777344
1471.166016	60516.062500
1470.102539	60512.066406
1469.039063	60245.292969
1467.975586	60828.468750
1466.912109	60193.984375
1465.847656	60808.925781
1464.783203	60702.113281
1463.718750	60956.039063
1462.654297	61155.089844
1461.589844	61312.992188
1460.524414	61368.156250
1459.458984	60843.855469
1458.393555	60821.527344
1457.328125	61519.832031
1456.262695	61843.953125
1455.196289	61244.707031
1454.130859	61324.878906
1453.064453	61585.046875
1451.998047	61624.117188
1450.930664	61624.441406
1449.864258	62264.765625
1448.796875	61226.574219
1447.729492	61422.765625
1446.662109	61566.523438
1445.594727	62049.347656
1444.526367	62195.214844
1443.458008	62259.121094
1442.390625	62777.949219
1441.321289	62741.652344
1440.252930	63221.546875
1439.184570	63630.785156
1438.115234	63594.347656
1437.045898	63721.550781
1435.976563	64225.906250
1434.907227	64334.773438
1433.836914	64332.296875
1432.767578	64352.531250
1431.697266	65106.167969
1430.626953	65005.925781
1429.555664	65532.191406
1428.485352	66453.140625
1427.414063	65681.070313
1426.342773	65955.109375
1425.271484	65637.046875
1424.200195	66496.070313
1423.128906	66753.929688
1422.056641	66660.312500
1420.984375	66829.648438
1419.912109	66933.203125
1418.839844	66690.062500
1417.767578	67069.968750
1416.694336	66788.375000
1415.621094	67485.156250
1414.547852	67321.320313
1413.474609	66084.539063
1412.400391	66278.609375
1411.327148	66042.656250
1410.252930	66329.421875
1409.178711	66316.585938
1408.104492	66303.757813
1407.029297	66290.914063
1405.955078	66278.078125
1404.879883	66265.234375
1403.804688	66617.171875
1402.729492	66110.320313
1401.653320	66889.148438
1400.578125	67084.921875
1399.501953	67059.289063
1398.425781	67277.531250
1397.349609	67123.187500
1396.272461	66837.976563
1395.196289	67245.703125
1394.119141	66737.187500
1393.041992	67683.960938
1391.964844	67504.859375
1390.886719	68182.781250
1389.809570	68348.625000
1388.731445	68764.640625
1387.653320	68946.085938
1386.575195	69077.890625
1385.497070	69137.546875
1384.417969	69330.085938
1383.338867	69470.750000
1382.259766	69537.054688
1381.180664	69051.703125
1380.101563	69266.617188
1379.021484	69650.257813
1377.941406	69761.468750
1376.861328	69607.148438
1375.781250	69360.656250
1374.701172	69258.187500
1373.620117	69074.796875
1372.539063	68509.273438
1371.458008	68944.242188
1370.376953	68077.773438
1369.295898	67825.062500
1368.213867	67997.054688
1367.132813	67843.281250
1366.050781	67750.195313
1364.967773	67257.453125
1363.885742	67954.750000
1362.802734	68225.312500
1361.720703	68053.664063
1360.637695	67866.367188
1359.554688	67685.867188
1358.470703	68447.492188
1357.387695	67737.695313
1356.303711	67949.687500
1355.219727	67547.351563
1354.135742	67174.296875
1353.050781	66675.882813
1351.966797	66354.648438
1350.881836	66400.914063
1349.796875	66265.742188
1348.711914	65653.632813
1347.626953	64999.195313
1346.541016	65240.417969
1345.455078	65112.253906
1344.369141	64825.253906
1343.283203	64876.191406
1342.197266	65112.777344
1341.110352	64615.687500
1340.023438	65250.261719
1338.936523	64802.507813
1337.849609	64714.800781
1336.762695	65340.062500
1335.674805	65312.617188
1334.586914	64746.757813
1333.499023	65210.839844
1332.411133	65138.757813
1331.323242	64943.890625
1330.234375	65298.285156
1329.145508	65636.921875
1328.056641	65729.953125
1326.967773	65945.335938
1325.878906	66160.710938
1324.789063	66376.289063
1323.699219	66591.859375
1322.609375	66807.437500
1321.519531	67023.007813
1320.429688	67456.664063
1319.338867	68313.570313
1318.248047	68501.742188
1317.157227	69019.539063
1316.066406	69303.281250
1314.975586	70234.929688
1313.883789	70705.367188
1312.791992	70661.414063
1311.700195	70677.570313
1310.608398	70711.515625
1309.516602	70140.289063
1308.423828	69478.062500
1307.331055	69663.429688
1306.238281	69217.218750
1305.145508	69433.687500
1304.051758	69338.875000
1302.958984	68648.492188
1301.865234	69098.250000
1300.771484	69554.507813
1299.677734	69797.359375
1298.583008	70382.125000
1297.489258	70995.539063
1296.394531	71422.250000
1295.299805	71848.804688
1294.204102	72499.335938
1293.109375	71634.187500
1292.013672	72288.960938
1290.917969	71523.968750
1289.822266	71122.937500
1288.726563	70436.023438
1287.630859	70629.429688
1286.534180	69962.804688
1285.437500	69571.195313
1284.340820	69068.945313
1283.244141	68721.937500
1282.146484	69050.570313
1281.048828	68181.085938
1279.951172	67464.687500
1278.853516	67589.703125
1277.755859	67794.351563
1276.658203	66748.695313
1275.559570	66513.148438
1274.460938	66658.140625
1273.362305	66362.976563
1272.262695	65891.023438
1271.164063	65790.648438
1270.064453	65723.460938
1268.964844	65391.101563
1267.865234	65169.335938
1266.765625	65212.750000
1265.665039	65066.191406
1264.564453	64270.417969
1263.463867	64863.750000
1262.363281	64423.714844
1261.262695	64239.871094
1260.161133	63934.718750
1259.059570	63803.980469
1257.958008	64138.746094
1256.856445	63785.246094
1255.754883	63489.207031
1254.652344	63382.882813
1253.549805	63578.593750
1252.447266	62714.121094
1251.344727	63454.160156
1250.242188	62693.566406
1249.138672	63074.281250
1248.035156	62886.644531
1246.931641	62580.167969
1245.828125	62826.390625
1244.724609	62885.425781
1243.620117	62856.406250
1242.515625	62299.300781
1241.411133	62188.992188
1240.306641	62817.777344
1239.201172	62977.906250
1238.096680	62777.378906
1236.991211	62739.597656
1235.885742	62833.707031
1234.779297	62719.007813
1233.673828	62098.996094
1232.567383	62764.328125
1231.460938	62559.644531
1230.354492	62651.492188
1229.248047	62398.597656
1228.140625	62404.820313
1227.033203	62125.718750
1225.926758	62305.343750
1224.818359	62590.210938
1223.710938	63070.203125
1222.602539	62479.738281
1221.495117	62770.988281
1220.386719	62853.851563
1219.278320	62546.507813
1218.168945	61989.429688
1217.060547	62144.695313
1215.951172	62203.503906
1214.841797	62069.531250
1213.731445	61740.695313
1212.622070	62060.101563
1211.511719	61672.269531
1210.402344	61702.644531
1209.291992	61533.855469
1208.180664	62008.406250
1207.070313	61671.171875
1205.958984	62488.914063
1204.847656	62184.511719
1203.736328	62240.980469
1202.625000	61927.984375
1201.512695	62141.839844
1200.401367	62185.164063
1199.289063	62324.601563
1198.176758	62380.980469
1197.063477	62188.351563
1195.951172	62709.843750
1194.837891	63084.867188
1193.724609	63263.292969
1192.611328	63635.886719
1191.498047	62965.324219
1190.383789	63167.664063
1189.269531	63219.421875
1188.155273	62715.039063
1187.041016	62784.296875
1185.926758	62428.414063
1184.811523	62637.195313
1183.696289	62519.003906
1182.581055	62540.300781
1181.465820	62267.492188
1180.350586	62576.332031
1179.234375	62292.722656
1178.118164	62577.488281
1177.001953	62047.988281
1175.885742	61847.328125
1174.768555	61531.406250
1173.652344	61507.140625
1172.535156	61189.214844
1171.417969	61556.500000
1170.299805	61353.925781
