#Wave		#Intensity
2001.221680	38753.218750
2000.251953	38906.117188
1999.282227	38861.734375
1998.312500	38709.625000
1997.342773	38783.031250
1996.372070	38956.605469
1995.402344	38914.742188
1994.431641	38750.203125
1993.460938	39271.664063
1992.490234	38664.082031
1991.518555	38985.167969
1990.547852	39286.125000
1989.576172	38751.402344
1988.604492	39252.390625
1987.632813	38810.390625
1986.661133	38886.125000
1985.689453	38796.835938
1984.716797	39035.011719
1983.745117	39340.578125
1982.772461	39313.714844
1981.799805	39311.839844
1980.827148	39182.582031
1979.853516	38793.644531
1978.880859	38552.156250
1977.907227	39009.761719
1976.933594	38920.574219
1975.959961	38858.871094
1974.986328	39301.207031
1974.011719	39129.683594
1973.038086	39574.312500
1972.063477	38968.871094
1971.088867	39398.406250
1970.114258	38905.386719
1969.138672	39347.242188
1968.164063	39048.785156
1967.188477	39378.335938
1966.212891	39084.957031
1965.237305	39444.269531
1964.261719	39225.691406
1963.286133	39271.121094
1962.309570	39555.523438
1961.333984	39735.285156
1960.357422	39494.402344
1959.380859	39701.480469
1958.404297	39468.148438
1957.426758	39486.117188
1956.450195	39389.683594
1955.472656	39845.269531
1954.495117	39900.449219
1953.517578	39406.296875
1952.540039	39789.566406
1951.561523	39573.890625
1950.583008	39571.933594
1949.605469	39440.816406
1948.626953	39610.234375
1947.647461	39062.015625
1946.668945	39536.789063
1945.690430	39517.460938
1944.710938	39106.031250
1943.731445	39975.058594
1942.751953	40211.179688
1941.772461	39765.117188
1940.791992	39683.753906
1939.812500	39547.875000
1938.832031	40076.425781
1937.851563	39955.390625
1936.871094	39673.316406
1935.890625	39733.265625
1934.909180	40011.199219
1933.928711	39565.785156
1932.947266	39739.632813
1931.965820	39888.664063
1930.984375	39834.640625
1930.002930	39956.371094
1929.020508	39753.867188
1928.038086	39739.480469
1927.056641	39618.718750
1926.074219	39574.675781
1925.090820	40215.664063
1924.108398	39785.812500
1923.125000	40228.765625
1922.142578	40070.941406
1921.159180	39928.000000
1920.175781	40064.308594
1919.191406	40027.644531
1918.208008	39778.570313
1917.223633	39929.648438
1916.240234	39784.378906
1915.255859	40031.675781
1914.271484	39837.074219
1913.286133	40081.804688
1912.301758	39754.019531
1911.316406	39808.722656
1910.331055	40137.183594
1909.345703	40490.191406
1908.360352	40162.558594
1907.375000	40160.445313
1906.388672	40569.945313
1905.402344	40010.820313
1904.416016	40001.339844
1903.429688	40164.300781
1902.443359	40073.511719
1901.457031	40344.753906
1900.469727	39857.554688
1899.482422	40461.070313
1898.495117	39604.824219
1897.507813	40048.214844
1896.520508	40196.195313
1895.532227	40194.058594
1894.543945	40423.125000
1893.556641	40125.851563
1892.568359	40290.917969
1891.579102	40433.800781
1890.590820	40443.910156
1889.601563	40269.707031
1888.613281	40746.664063
1887.624023	39990.261719
1886.634766	40943.585938
1885.644531	40253.714844
1884.655273	40759.796875
1883.665039	40244.488281
1882.674805	40571.218750
1881.684570	40173.914063
1880.694336	39936.226563
1879.704102	40802.519531
1878.712891	40299.910156
1877.722656	40457.132813
1876.731445	40391.183594
1875.740234	40357.121094
1874.748047	40416.207031
1873.756836	40178.757813
1872.764648	40580.867188
1871.773438	40642.328125
1870.781250	40515.171875
1869.788086	40439.488281
1868.795898	40141.023438
1867.803711	40153.554688
1866.810547	40655.578125
1865.817383	40883.355469
1864.824219	40929.996094
1863.831055	40081.300781
1862.837891	40695.484375
1861.843750	40458.468750
1860.849609	40282.656250
1859.855469	40850.031250
1858.861328	40420.023438
1857.867188	40327.390625
1856.872070	40400.925781
1855.877930	40540.390625
1854.882813	40516.164063
1853.887695	40655.554688
1852.892578	40560.511719
1851.896484	40375.179688
1850.901367	40387.601563
1849.905273	40719.687500
1848.909180	40319.718750
1847.913086	40941.980469
1846.916992	40881.121094
1845.919922	40734.933594
1844.923828	40956.945313
1843.926758	40813.230469
1842.929688	40866.980469
1841.932617	40876.843750
1840.935547	40932.996094
1839.937500	41296.050781
1838.939453	40930.769531
1837.942383	40850.511719
1836.943359	40733.765625
1835.945313	41086.855469
1834.947266	41067.453125
1833.948242	41091.859375
1832.949219	41082.191406
1831.951172	41057.929688
1830.951172	41425.238281
1829.952148	41155.328125
1828.953125	41184.550781
1827.953125	41369.328125
1826.953125	40815.214844
1825.953125	41308.589844
1824.953125	41162.835938
1823.952148	41000.125000
1822.952148	41415.484375
1821.951172	41039.101563
1820.950195	41842.750000
1819.949219	41264.953125
1818.948242	41442.128906
1817.946289	41446.960938
1816.945313	41825.402344
1815.943359	41582.746094
1814.941406	41718.507813
1813.939453	41713.578125
1812.936523	40988.617188
1811.934570	40688.097656
1810.931641	41507.343750
1809.928711	41846.527344
1808.925781	41734.976563
1807.921875	41415.152344
1806.918945	42030.253906
1805.915039	41570.046875
1804.912109	41928.281250
1803.908203	41676.417969
1802.903320	42114.363281
1801.899414	41693.175781
1800.894531	41922.910156
1799.890625	42123.535156
1798.885742	42065.320313
1797.880859	42140.109375
1796.875000	42130.261719
1795.870117	42243.683594
1794.864258	42064.648438
1793.858398	42062.062500
1792.852539	42574.042969
1791.846680	42148.667969
1790.840820	42607.320313
1789.833984	42266.597656
1788.828125	42493.308594
1787.821289	42319.265625
1786.814453	42502.445313
1785.806641	42591.457031
1784.799805	42489.859375
1783.791992	42750.089844
1782.784180	42930.644531
1781.776367	43103.902344
1780.768555	42985.402344
1779.760742	42717.503906
1778.751953	43158.195313
1777.743164	43061.425781
1776.735352	42817.742188
1775.725586	43296.714844
1774.716797	43072.335938
1773.708008	43214.007813
1772.698242	43151.011719
1771.688477	42755.882813
1770.678711	43282.562500
1769.668945	43371.160156
1768.659180	43572.789063
1767.648438	43351.031250
1766.637695	43492.464844
1765.626953	43580.957031
1764.616211	43212.671875
1763.605469	43685.734375
1762.593750	43973.589844
1761.583008	43619.839844
1760.571289	43458.390625
1759.559570	44111.203125
1758.547852	44101.007813
1757.535156	44013.980469
1756.523438	44186.242188
1755.510742	44152.031250
1754.498047	44302.605469
1753.485352	44395.539063
1752.472656	45052.164063
1751.458984	44535.742188
1750.445313	44539.855469
1749.432617	44970.734375
1748.417969	44888.468750
1747.404297	44818.218750
1746.390625	45028.355469
1745.375977	45221.644531
1744.361328	45180.109375
1743.346680	45215.226563
1742.332031	45324.566406
1741.317383	45175.292969
1740.302734	45279.808594
1739.287109	45460.871094
1738.271484	45735.187500
1737.255859	46050.078125
1736.240234	46070.636719
1735.223633	46447.531250
1734.208008	46692.781250
1733.191406	47002.492188
1732.174805	47333.601563
1731.158203	47497.300781
1730.140625	47773.242188
1729.124023	47580.828125
1728.106445	48016.695313
1727.088867	48053.574219
1726.071289	48357.871094
1725.053711	48996.289063
1724.035156	49235.859375
1723.017578	48947.917969
1721.999023	49397.386719
1720.980469	49305.140625
1719.961914	49728.144531
1718.942383	49497.546875
1717.923828	49548.390625
1716.904297	49720.800781
1715.884766	49914.597656
1714.865234	50313.277344
1713.844727	50001.757813
1712.825195	49973.843750
1711.804688	50034.066406
1710.784180	49875.167969
1709.763672	49983.003906
1708.743164	49845.593750
1707.722656	49555.898438
1706.701172	49704.183594
1705.679688	49414.609375
1704.658203	49667.535156
1703.636719	49803.824219
1702.615234	49526.269531
1701.592773	48984.894531
1700.571289	48940.550781
1699.548828	49133.906250
1698.526367	49191.738281
1697.502930	48867.007813
1696.480469	49003.253906
1695.457031	49246.332031
1694.433594	48952.632813
1693.410156	48939.207031
1692.386719	49229.636719
1691.363281	49023.910156
1690.338867	48640.273438
1689.314453	48774.003906
1688.290039	48587.437500
1687.265625	49119.585938
1686.241211	49355.125000
1685.215820	49298.949219
1684.191406	49231.070313
1683.166016	49163.128906
1682.140625	49095.187500
1681.115234	49027.246094
1680.088867	48959.238281
1679.062500	48891.230469
1678.037109	49540.855469
1677.010742	49240.851563
1675.983398	49575.351563
1674.957031	49694.355469
1673.930664	49794.386719
1672.903320	49548.957031
1671.875977	49710.476563
1670.848633	49782.062500
1669.820313	50217.777344
1668.792969	50171.031250
1667.764648	50334.679688
1666.736328	50169.761719
1665.708008	50073.421875
1664.679688	50244.082031
1663.651367	50731.207031
1662.622070	50370.300781
1661.592773	50361.355469
1660.563477	50857.636719
1659.534180	50799.031250
1658.504883	50870.250000
1657.474609	51281.222656
1656.444336	50920.593750
1655.415039	51326.687500
1654.383789	50926.082031
1653.353516	51386.261719
1652.323242	51735.472656
1651.291992	52013.843750
1650.260742	51516.769531
1649.229492	51684.332031
1648.198242	51776.445313
1647.166016	51637.695313
1646.134766	51953.503906
1645.102539	52184.437500
1644.070313	52285.804688
1643.038086	52483.640625
1642.004883	52486.074219
1640.972656	52646.152344
1639.939453	52730.890625
1638.906250	53020.226563
1637.873047	53401.167969
1636.839844	53535.097656
1635.805664	53504.417969
1634.772461	53668.832031
1633.738281	54253.828125
1632.704102	53955.183594
1631.668945	54114.722656
1630.634766	54767.437500
1629.599609	54807.007813
1628.565430	54757.343750
1627.530273	55402.542969
1626.494141	55561.671875
1625.458984	55734.824219
1624.422852	56478.039063
1623.387695	56826.894531
1622.351563	57126.371094
1621.315430	57660.234375
1620.278320	58653.433594
1619.242188	59383.738281
1618.205078	60842.671875
1617.167969	62317.488281
1616.130859	64021.378906
1615.093750	65354.550781
1614.055664	66462.406250
1613.018555	68457.343750
1611.980469	70034.835938
1610.942383	69867.867188
1609.904297	70529.453125
1608.865234	69985.726563
1607.827148	69421.125000
1606.788086	67991.257813
1605.749023	66674.148438
1604.709961	65177.457031
1603.669922	63375.035156
1602.630859	62713.933594
1601.590820	61258.468750
1600.550781	60455.441406
1599.510742	60232.074219
1598.470703	59312.718750
1597.429688	59362.867188
1596.389648	59163.156250
1595.348633	59663.878906
1594.307617	58577.210938
1593.265625	58319.398438
1592.224609	58043.007813
1591.182617	57468.105469
1590.140625	58334.863281
1589.098633	58086.597656
1588.056641	57731.160156
1587.014648	57207.996094
1585.971680	58029.890625
1584.928711	58052.171875
1583.886719	57676.011719
1582.842773	57761.238281
1581.799805	57811.496094
1580.755859	57570.640625
1579.712891	57662.816406
1578.668945	57820.140625
1577.625000	57807.496094
1576.580078	57599.386719
1575.536133	58033.500000
1574.491211	57723.062500
1573.446289	58175.597656
1572.401367	58481.472656
1571.356445	58508.238281
1570.311523	58372.269531
1569.265625	58392.066406
1568.219727	58558.250000
1567.173828	58457.187500
1566.127930	58228.398438
1565.082031	58150.652344
1564.035156	58163.492188
1562.988281	58148.464844
1561.941406	57648.300781
1560.894531	57273.636719
1559.847656	56915.347656
1558.799805	56960.863281
1557.751953	57495.796875
1556.704102	57128.375000
1555.656250	57517.000000
1554.608398	57817.386719
1553.560547	57331.882813
1552.511719	57458.378906
1551.462891	57559.335938
1550.414063	58105.058594
1549.365234	58249.871094
1548.315430	57799.449219
1547.265625	58027.613281
1546.216797	58061.230469
1545.166992	58212.882813
1544.116211	58160.824219
1543.066406	58629.386719
1542.015625	58873.378906
1540.965820	58254.546875
1539.915039	58188.632813
1538.863281	58411.757813
1537.812500	57326.359375
1536.760742	57926.300781
1535.709961	57909.011719
1534.658203	58021.117188
1533.605469	57504.835938
1532.553711	57596.175781
1531.501953	56756.855469
1530.449219	56465.027344
1529.396484	56741.175781
1528.343750	55971.691406
1527.290039	56185.515625
1526.237305	56288.519531
1525.183594	56024.707031
1524.129883	55617.988281
1523.076172	56115.347656
1522.022461	55637.285156
1520.968750	55470.582031
1519.914063	55732.613281
1518.859375	55531.382813
1517.804688	54973.121094
1516.750000	54905.699219
1515.694336	54985.691406
1514.639648	54752.492188
1513.583984	54487.144531
1512.528320	54304.753906
1511.472656	54159.250000
1510.416016	54434.878906
1509.360352	54038.636719
1508.303711	54314.183594
1507.247070	54042.285156
1506.190430	54384.410156
1505.132813	54317.199219
1504.076172	54116.695313
1503.018555	54617.187500
1501.960938	54072.039063
1500.903320	53972.757813
1499.844727	54275.468750
1498.787109	53693.925781
1497.728516	53436.332031
1496.669922	53644.847656
1495.611328	53419.484375
1494.552734	54004.273438
1493.493164	53843.164063
1492.434570	54150.089844
1491.375000	53335.335938
1490.315430	54045.839844
1489.254883	53978.832031
1488.195313	54338.230469
1487.134766	54202.433594
1486.074219	54412.707031
1485.013672	54008.878906
1483.953125	54148.093750
1482.892578	53847.519531
1481.831055	54719.476563
1480.769531	54471.558594
1479.708008	54642.628906
1478.646484	54440.582031
1477.583984	54163.093750
1476.522461	54702.464844
1475.459961	54619.457031
1474.397461	54058.488281
1473.334961	54243.156250
1472.271484	54816.410156
1471.208984	54271.699219
1470.145508	54506.500000
1469.082031	54373.332031
1468.018555	54151.113281
1466.954102	54794.667969
1465.890625	54764.281250
1464.826172	54932.554688
1463.761719	54993.468750
1462.697266	54474.597656
1461.631836	55124.351563
1460.567383	55552.542969
1459.501953	55606.449219
1458.436523	55197.312500
1457.371094	55374.402344
1456.305664	55122.777344
1455.239258	55377.320313
1454.172852	55565.671875
1453.107422	55414.410156
1452.040039	55418.128906
1450.973633	55419.566406
1449.907227	55598.656250
1448.839844	55363.230469
1447.772461	55248.554688
1446.705078	55404.808594
1445.637695	56013.917969
1444.569336	55824.089844
1443.500977	55955.121094
1442.432617	55519.691406
1441.364258	55969.132813
1440.295898	55836.285156
1439.227539	56406.000000
1438.158203	56061.714844
1437.088867	56617.546875
1436.019531	56550.562500
1434.950195	56574.476563
1433.879883	56950.460938
1432.810547	56928.871094
1431.740234	57202.468750
1430.669922	56935.648438
1429.598633	56764.253906
1428.528320	57103.542969
1427.457031	56782.417969
1426.386719	57137.457031
1425.314453	56737.050781
1424.243164	56289.164063
1423.171875	56628.218750
1422.099609	56296.125000
1421.027344	56338.128906
1419.955078	55806.777344
1418.882813	55996.128906
1417.810547	56047.218750
1416.737305	55656.625000
1415.664063	55746.253906
1414.590820	55817.734375
1413.517578	55755.625000
1412.444336	55553.210938
1411.370117	55160.781250
1410.295898	56026.445313
1409.221680	55545.847656
1408.147461	55603.699219
1407.073242	55973.589844
1405.998047	55936.382813
1404.922852	56358.066406
1403.847656	55509.437500
1402.772461	56116.332031
1401.697266	56135.597656
1400.621094	56514.011719
1399.544922	55641.113281
1398.468750	56154.957031
1397.392578	56178.710938
1396.316406	56130.222656
1395.239258	56395.445313
1394.162109	56958.414063
1393.084961	56424.765625
1392.007813	57095.789063
1390.930664	57299.746094
1389.852539	57598.328125
1388.774414	57718.707031
1387.696289	58021.609375
1386.618164	58590.320313
1385.540039	59140.800781
1384.460938	59053.550781
1383.382813	59752.394531
1382.303711	59975.828125
1381.223633	60019.058594
1380.144531	59564.769531
1379.064453	60044.687500
1377.985352	60542.437500
1376.905273	60349.281250
1375.825195	60351.898438
1374.744141	60170.085938
1373.664063	60161.488281
1372.583008	59552.593750
1371.501953	59483.414063
1370.420898	59531.121094
1369.338867	58608.074219
1368.257813	58489.664063
1367.175781	58613.890625
1366.093750	58639.253906
1365.011719	58478.230469
1363.929688	57926.628906
1362.846680	57765.785156
1361.763672	57654.375000
1360.680664	57673.144531
1359.597656	57386.796875
1358.514648	57253.074219
1357.430664	57065.578125
1356.346680	57162.906250
1355.262695	56701.988281
1354.178711	56209.851563
1353.094727	56430.531250
1352.009766	56306.074219
1350.925781	55944.199219
1349.840820	55689.964844
1348.755859	55648.558594
1347.669922	55882.562500
1346.584961	55901.574219
1345.499023	56081.722656
1344.413086	55496.492188
1343.327148	55502.132813
1342.240234	55852.257813
1341.154297	55497.742188
1340.067383	55968.492188
1338.980469	55502.289063
1337.893555	55861.097656
1336.805664	55379.433594
1335.718750	55537.019531
1334.630859	55917.957031
1333.542969	55925.726563
1332.455078	55397.492188
1331.367188	55738.046875
1330.278320	55194.406250
1329.189453	55836.207031
1328.100586	55194.542969
1327.011719	55876.273438
1325.922852	55799.246094
1324.833008	56094.738281
1323.743164	55792.457031
1322.653320	55929.527344
1321.563477	55914.957031
1320.473633	56306.046875
1319.382813	56451.863281
1318.291992	56029.460938
1317.201172	56620.800781
1316.110352	56592.742188
1315.019531	56758.429688
1313.927734	57164.515625
1312.835938	57690.656250
1311.744141	57339.695313
1310.652344	57204.710938
1309.560547	56918.480469
1308.467773	57450.949219
1307.375000	57075.808594
1306.282227	57410.148438
1305.189453	57132.972656
1304.095703	57504.960938
1303.002930	57541.226563
1301.909180	57230.839844
1300.815430	56898.343750
1299.721680	57267.875000
1298.626953	57432.957031
1297.533203	57462.527344
1296.438477	57858.390625
1295.343750	57810.183594
1294.248047	58572.007813
1293.153320	58419.398438
1292.057617	57639.027344
1290.961914	58455.910156
1289.866211	58660.433594
1288.770508	58696.375000
1287.674805	58705.695313
1286.578125	59087.367188
1285.481445	59189.679688
1284.384766	59147.941406
1283.288086	58534.691406
1282.190430	58577.242188
1281.092773	58473.625000
1279.996094	58321.332031
1278.897461	57925.597656
1277.799805	58140.847656
1276.702148	58448.957031
1275.603516	58088.804688
1274.504883	57843.804688
1273.406250	57842.167969
1272.307617	57265.617188
1271.208008	57246.843750
1270.108398	57228.070313
1269.008789	57209.300781
1267.909180	57190.527344
1266.809570	57171.753906
1265.708984	56441.320313
1264.609375	56662.968750
1263.508789	56756.468750
1262.407227	55849.894531
1261.306641	56457.777344
1260.206055	56021.628906
1259.104492	56024.703125
1258.002930	56016.750000
1256.901367	55947.035156
1255.798828	55423.078125
1254.697266	55717.285156
1253.594727	55261.886719
1252.492188	55068.929688
1251.389648	54851.800781
1250.286133	55357.394531
1249.183594	54730.566406
1248.080078	54885.812500
1246.976563	54433.250000
1245.872070	55061.832031
1244.768555	54690.839844
1243.664063	54841.570313
1242.560547	54961.437500
1241.455078	54676.460938
1240.350586	54864.500000
1239.246094	54977.691406
1238.140625	54503.761719
1237.035156	55030.273438
1235.929688	54723.550781
1234.824219	54452.097656
1233.717773	54723.449219
1232.612305	54920.011719
1231.505859	54418.039063
1230.399414	54337.882813
1229.291992	53930.609375
1228.185547	54127.160156
1227.078125	54308.273438
1225.970703	54052.632813
1224.863281	54047.199219
1223.755859	54103.183594
1222.647461	54192.046875
1221.539063	54247.984375
1220.430664	53874.183594
1219.322266	54041.945313
1218.213867	53727.488281
1217.104492	54219.507813
1215.995117	54277.566406
1214.885742	53579.906250
1213.776367	53977.511719
1212.666992	53726.835938
1211.556641	53984.152344
1210.446289	53698.546875
1209.335938	53531.210938
1208.225586	53495.222656
1207.115234	54461.175781
1206.003906	53731.671875
1204.892578	53636.609375
1203.781250	53583.125000
1202.669922	53606.167969
1201.557617	53967.972656
1200.446289	53977.824219
1199.333984	53963.632813
1198.221680	53912.308594
1197.108398	54404.832031
1195.996094	54763.968750
1194.882813	54668.855469
1193.769531	54706.925781
1192.656250	55054.894531
1191.542969	54922.675781
1190.428711	55370.832031
1189.314453	55295.312500
1188.200195	55056.253906
1187.085938	55161.792969
1185.971680	55273.835938
1184.856445	55132.988281
1183.741211	55367.031250
1182.625977	55261.078125
1181.510742	55664.925781
1180.395508	55201.742188
1179.279297	55076.269531
1178.163086	55092.367188
1177.046875	55217.296875
1175.930664	55318.242188
1174.813477	55406.089844
1173.697266	55026.121094
1172.580078	54663.695313
1171.462891	55040.871094
1170.344727	54917.765625
