#Wave		#Intensity
2001.182617	34872.890625
2000.212891	34880.410156
1999.243164	34936.972656
1998.273438	34815.617188
1997.303711	34854.632813
1996.333008	34936.210938
1995.363281	34679.683594
1994.392578	34651.089844
1993.421875	34549.910156
1992.451172	34616.464844
1991.479492	35268.593750
1990.508789	34819.558594
1989.537109	35011.109375
1988.566406	34324.656250
1987.594727	35016.386719
1986.622070	35042.773438
1985.650391	34576.664063
1984.677734	35050.531250
1983.706055	34994.425781
1982.733398	34688.476563
1981.760742	34854.789063
1980.788086	34856.195313
1979.814453	34847.605469
1978.841797	34866.484375
1977.868164	34902.832031
1976.894531	35478.304688
1975.920898	35127.714844
1974.947266	34956.894531
1973.972656	34591.546875
1972.999023	35268.929688
1972.024414	35225.359375
1971.049805	35221.691406
1970.075195	35355.140625
1969.099609	34917.753906
1968.125000	35205.714844
1967.149414	35393.910156
1966.173828	35268.140625
1965.198242	34788.726563
1964.222656	34999.300781
1963.247070	35503.613281
1962.270508	35382.886719
1961.294922	35436.437500
1960.318359	35009.664063
1959.341797	35239.917969
1958.364258	35271.070313
1957.387695	35090.789063
1956.410156	35437.785156
1955.433594	35605.632813
1954.456055	35079.832031
1953.478516	35821.847656
1952.500000	35465.175781
1951.522461	35255.226563
1950.543945	35177.011719
1949.565430	34944.832031
1948.586914	35358.406250
1947.608398	35131.234375
1946.629883	35504.910156
1945.650391	35600.460938
1944.671875	35385.773438
1943.692383	35444.089844
1942.712891	35519.750000
1941.733398	35498.648438
1940.752930	36023.132813
1939.773438	35528.371094
1938.792969	35499.839844
1937.812500	35488.664063
1936.832031	35772.394531
1935.851563	35919.750000
1934.870117	35898.597656
1933.888672	35632.238281
1932.908203	35395.687500
1931.926758	35741.082031
1930.945313	35361.007813
1929.962891	35500.847656
1928.981445	36068.757813
1927.999023	35513.152344
1927.016602	35581.144531
1926.034180	35960.761719
1925.051758	35521.691406
1924.069336	35530.304688
1923.085938	35702.066406
1922.102539	35994.882813
1921.119141	35630.246094
1920.135742	35838.960938
1919.152344	35746.214844
1918.168945	35781.937500
1917.184570	35884.324219
1916.200195	36250.863281
1915.215820	36051.957031
1914.231445	35749.449219
1913.247070	35989.960938
1912.261719	36200.773438
1911.276367	35474.089844
1910.291992	35620.792969
1909.306641	35883.343750
1908.320313	36103.886719
1907.334961	35883.085938
1906.348633	35780.667969
1905.363281	36237.679688
1904.376953	35930.730469
1903.390625	36372.777344
1902.403320	35762.957031
1901.416992	35734.519531
1900.429688	36434.886719
1899.443359	35724.445313
1898.456055	36126.750000
1897.467773	36083.496094
1896.480469	36182.964844
1895.493164	35901.093750
1894.504883	36605.605469
1893.516602	36188.507813
1892.528320	36280.503906
1891.540039	36111.890625
1890.550781	35899.093750
1889.562500	36199.968750
1888.573242	36761.171875
1887.583984	36221.652344
1886.594727	36085.117188
1885.605469	36125.441406
1884.615234	36325.335938
1883.625000	36365.601563
1882.635742	36624.289063
1881.645508	36509.882813
1880.654297	36361.167969
1879.664063	36411.203125
1878.673828	36571.585938
1877.682617	36163.000000
1876.691406	36357.695313
1875.700195	36454.265625
1874.708984	36609.621094
1873.716797	36478.214844
1872.725586	36430.156250
1871.733398	36602.578125
1870.741211	36385.515625
1869.749023	36420.750000
1868.755859	36590.632813
1867.763672	36780.035156
1866.770508	36590.007813
1865.777344	36554.214844
1864.784180	36826.703125
1863.791016	36746.847656
1862.797852	36600.976563
1861.803711	37242.558594
1860.809570	36861.941406
1859.815430	36461.898438
1858.821289	36914.968750
1857.827148	37069.757813
1856.832031	36948.410156
1855.837891	37166.648438
1854.842773	36891.453125
1853.847656	37119.390625
1852.852539	37315.503906
1851.856445	37111.214844
1850.861328	36877.710938
1849.865234	37112.804688
1848.869141	37352.691406
1847.873047	37004.613281
1846.876953	37149.316406
1845.879883	37654.859375
1844.883789	37311.785156
1843.886719	37536.792969
1842.889648	37167.046875
1841.892578	37350.574219
1840.895508	37107.675781
1839.897461	37468.968750
1838.899414	37455.066406
1837.901367	37168.445313
1836.903320	37303.109375
1835.905273	37469.371094
1834.907227	37740.222656
1833.908203	37937.980469
1832.909180	37714.773438
1831.910156	37725.160156
1830.911133	38285.183594
1829.912109	37699.718750
1828.912109	38067.480469
1827.913086	37647.550781
1826.913086	38173.160156
1825.913086	38059.523438
1824.913086	37775.859375
1823.912109	38084.984375
1822.912109	37930.128906
1821.911133	37930.734375
1820.910156	38144.976563
1819.909180	37888.242188
1818.908203	37634.023438
1817.906250	37731.730469
1816.904297	38229.699219
1815.903320	38028.914063
1814.900391	38148.324219
1813.898438	38265.265625
1812.896484	38069.421875
1811.893555	38576.582031
1810.891602	38385.597656
1809.888672	38192.257813
1808.885742	38035.324219
1807.881836	38440.394531
1806.878906	38496.582031
1805.875000	38438.949219
1804.871094	38296.597656
1803.867188	38558.523438
1802.863281	38406.519531
1801.859375	38629.613281
1800.854492	38576.835938
1799.849609	38983.644531
1798.844727	38413.292969
1797.839844	38491.144531
1796.834961	38506.113281
1795.830078	38919.894531
1794.824219	39246.527344
1793.818359	38538.898438
1792.812500	38747.105469
1791.806641	38631.578125
1790.799805	38834.863281
1789.793945	39088.781250
1788.787109	39074.640625
1787.780273	39099.125000
1786.773438	38877.445313
1785.766602	38839.218750
1784.758789	38933.683594
1783.751953	39194.542969
1782.744141	39124.921875
1781.736328	39281.972656
1780.728516	39448.609375
1779.719727	38896.925781
1778.711914	39555.175781
1777.703125	39663.843750
1776.694336	39733.929688
1775.685547	39519.773438
1774.676758	39664.511719
1773.666992	39503.410156
1772.657227	39833.457031
1771.648438	39422.070313
1770.638672	39766.445313
1769.627930	39540.476563
1768.618164	39870.273438
1767.607422	40089.316406
1766.597656	40147.164063
1765.586914	39603.910156
1764.576172	39938.265625
1763.564453	39909.578125
1762.553711	40421.582031
1761.541992	40551.390625
1760.530273	40789.246094
1759.518555	40133.562500
1758.506836	40361.800781
1757.495117	40438.699219
1756.482422	40477.164063
1755.469727	40386.003906
1754.457031	41081.964844
1753.444336	41036.312500
1752.431641	40671.636719
1751.417969	40911.480469
1750.405273	41045.726563
1749.391602	40693.226563
1748.377930	41119.906250
1747.364258	41148.585938
1746.349609	41522.312500
1745.335938	41435.910156
1744.321289	41311.207031
1743.306641	41426.042969
1742.291992	41830.582031
1741.276367	41734.597656
1740.261719	41518.964844
1739.246094	42100.367188
1738.230469	41858.417969
1737.214844	42231.410156
1736.199219	42690.382813
1735.182617	42352.789063
1734.166992	42617.890625
1733.150391	42641.429688
1732.133789	42846.621094
1731.117188	42748.222656
1730.099609	43278.289063
1729.083008	43327.968750
1728.065430	43802.804688
1727.047852	43603.992188
1726.030273	44372.304688
1725.012695	44302.378906
1723.994141	44681.218750
1722.976563	44768.769531
1721.958008	45278.628906
1720.939453	45113.156250
1719.920898	45257.824219
1718.901367	45416.746094
1717.882813	45845.050781
1716.863281	45519.863281
1715.843750	45905.089844
1714.824219	46218.679688
1713.803711	46065.148438
1712.784180	46307.128906
1711.763672	46134.578125
1710.743164	46307.394531
1709.722656	46527.769531
1708.702148	46583.800781
1707.681641	46763.582031
1706.660156	46215.089844
1705.638672	46675.632813
1704.617188	46588.855469
1703.595703	46509.242188
1702.574219	46498.621094
1701.551758	47008.710938
1700.529297	47047.921875
1699.507813	46687.812500
1698.484375	47012.234375
1697.461914	46797.187500
1696.439453	46824.527344
1695.416016	47174.867188
1694.392578	46912.410156
1693.369141	47248.363281
1692.345703	47308.828125
1691.322266	47041.730469
1690.297852	47783.265625
1689.273438	47217.230469
1688.249023	47835.109375
1687.224609	47409.195313
1686.200195	47773.085938
1685.174805	47124.464844
1684.150391	47969.484375
1683.125000	47747.667969
1682.099609	48506.964844
1681.073242	48112.171875
1680.047852	48245.765625
1679.021484	48575.882813
1677.995117	48415.714844
1676.968750	48797.769531
1675.942383	49196.257813
1674.916016	49353.195313
1673.888672	48591.953125
1672.862305	49236.308594
1671.834961	49222.835938
1670.806641	48977.593750
1669.779297	48964.171875
1668.751953	49019.312500
1667.723633	49346.265625
1666.695313	49387.132813
1665.666992	49850.949219
1664.638672	49482.996094
1663.609375	49743.488281
1662.581055	49803.140625
1661.551758	49645.535156
1660.522461	50075.835938
1659.493164	49920.593750
1658.462891	50362.488281
1657.433594	50228.480469
1656.403320	50089.804688
1655.373047	50517.273438
1654.342773	50366.796875
1653.312500	50329.554688
1652.281250	49495.488281
1651.250977	50111.316406
1650.219727	49902.093750
1649.188477	49949.777344
1648.156250	50237.730469
1647.125000	50040.371094
1646.092773	50363.527344
1645.060547	50745.429688
1644.028320	50347.976563
1642.996094	50713.265625
1641.963867	50504.218750
1640.930664	50591.707031
1639.898438	50608.589844
1638.865234	50496.101563
1637.832031	50550.617188
1636.797852	51261.097656
1635.764648	51465.902344
1634.730469	51217.007813
1633.696289	51193.800781
1632.662109	51309.218750
1631.627930	51365.867188
1630.592773	51831.167969
1629.558594	51441.523438
1628.523438	52059.253906
1627.488281	52139.195313
1626.453125	52362.273438
1625.416992	52176.957031
1624.381836	52953.648438
1623.345703	52998.179688
1622.309570	53643.101563
1621.273438	54036.886719
1620.237305	54955.699219
1619.200195	55426.460938
1618.163086	55779.867188
1617.125977	56651.007813
1616.088867	57922.464844
1615.051758	59376.175781
1614.014648	60112.710938
1612.976563	61401.597656
1611.938477	62036.832031
1610.900391	62894.210938
1609.862305	62693.441406
1608.823242	62403.824219
1607.785156	61819.527344
1606.746094	60917.316406
1605.707031	60153.410156
1604.667969	58714.007813
1603.628906	58048.949219
1602.588867	56855.863281
1601.548828	56118.921875
1600.508789	56069.199219
1599.468750	55078.007813
1598.428711	54657.097656
1597.387695	54152.261719
1596.347656	54161.292969
1595.306641	53362.570313
1594.265625	53787.203125
1593.224609	53243.199219
1592.182617	53324.707031
1591.140625	53588.144531
1590.099609	52699.261719
1589.057617	52759.828125
1588.014648	52615.187500
1586.972656	52806.289063
1585.929688	53025.289063
1584.887695	53185.949219
1583.844727	52966.769531
1582.800781	53339.367188
1581.757813	53513.855469
1580.714844	53371.574219
1579.670898	53478.468750
1578.626953	53752.929688
1577.583008	54678.980469
1576.538086	54371.363281
1575.494141	54419.832031
1574.449219	54884.667969
1573.404297	54544.613281
1572.359375	54774.394531
1571.314453	55004.093750
1570.269531	54361.996094
1569.223633	55121.585938
1568.177734	54105.574219
1567.131836	54128.445313
1566.085938	53563.613281
1565.040039	53519.214844
1563.993164	52666.750000
1562.946289	52592.343750
1561.899414	52910.246094
1560.852539	52733.703125
1559.805664	52441.195313
1558.757813	52540.871094
1557.709961	52485.097656
1556.662109	52280.914063
1555.614258	51967.820313
1554.566406	51979.406250
1553.517578	51974.757813
1552.469727	52028.046875
1551.420898	51719.847656
1550.372070	52009.460938
1549.322266	52051.125000
1548.273438	51921.402344
1547.223633	51946.859375
1546.173828	52000.082031
1545.124023	52039.398438
1544.074219	52196.718750
1543.024414	51983.777344
1541.973633	51824.121094
1540.922852	52099.351563
1539.872070	51979.035156
1538.821289	51900.382813
1537.770508	52256.355469
1536.718750	52004.328125
1535.666992	52244.605469
1534.615234	52313.820313
1533.563477	52415.351563
1532.511719	52285.878906
1531.458984	52477.433594
1530.407227	52031.679688
1529.354492	52050.074219
1528.300781	51989.992188
1527.248047	51946.078125
1526.195313	51890.644531
1525.141602	52112.039063
1524.087891	51867.468750
1523.034180	51862.800781
1521.980469	51622.972656
1520.925781	52305.269531
1519.871094	51851.101563
1518.817383	51440.878906
1517.762695	51933.917969
1516.707031	51922.320313
1515.652344	51873.878906
1514.596680	51549.132813
1513.541016	51447.816406
1512.485352	51434.003906
1511.429688	51583.593750
1510.374023	51671.003906
1509.317383	51162.527344
1508.260742	51185.570313
1507.204102	51399.480469
1506.147461	51546.632813
1505.090820	51889.140625
1504.033203	51477.609375
1502.975586	51374.167969
1501.917969	51521.210938
1500.860352	51619.953125
1499.802734	51815.128906
1498.744141	52170.984375
1497.686523	52136.382813
1496.627930	51429.171875
1495.569336	51511.765625
1494.509766	51959.207031
1493.451172	52314.707031
1492.391602	51523.082031
1491.332031	52247.796875
1490.272461	52263.656250
1489.212891	51967.695313
1488.152344	51839.179688
1487.092773	52159.929688
1486.032227	51749.562500
1484.971680	51811.312500
1483.910156	52319.722656
1482.849609	52074.441406
1481.788086	52092.585938
1480.726563	52005.406250
1479.665039	52234.144531
1478.603516	52254.527344
1477.541992	52512.882813
1476.479492	52423.390625
1475.416992	52603.847656
1474.354492	52651.585938
1473.291992	52980.562500
1472.229492	52747.011719
1471.166016	52554.687500
1470.102539	52680.097656
1469.039063	53008.820313
1467.975586	52745.726563
1466.912109	52690.578125
1465.847656	52875.242188
1464.783203	53208.253906
1463.718750	53285.453125
1462.654297	53271.328125
1461.589844	53458.027344
1460.524414	53945.839844
1459.458984	53726.281250
1458.393555	54026.832031
1457.328125	54046.781250
1456.262695	54135.121094
1455.196289	54451.390625
1454.130859	54450.730469
1453.064453	54320.175781
1451.998047	54586.113281
1450.930664	53879.242188
1449.864258	54523.234375
1448.796875	55094.125000
1447.729492	55291.414063
1446.662109	55358.882813
1445.594727	55540.117188
1444.526367	56035.312500
1443.458008	56327.839844
1442.390625	56283.601563
1441.321289	56787.484375
1440.252930	57452.632813
1439.184570	57712.855469
1438.115234	57893.425781
1437.045898	58294.378906
1435.976563	58438.417969
1434.907227	58761.878906
1433.836914	58542.343750
1432.767578	58729.406250
1431.697266	58964.078125
1430.626953	59523.308594
1429.555664	59272.003906
1428.485352	59193.265625
1427.414063	59645.503906
1426.342773	59600.750000
1425.271484	59812.316406
1424.200195	60193.890625
1423.128906	60092.367188
1422.056641	60231.183594
1420.984375	60621.531250
1419.912109	60782.855469
1418.839844	60771.921875
1417.767578	60636.398438
1416.694336	61431.808594
1415.621094	60922.558594
1414.547852	60583.300781
1413.474609	60499.964844
1412.400391	60176.742188
1411.327148	59570.769531
1410.252930	60109.835938
1409.178711	59626.242188
1408.104492	59733.121094
1407.029297	60850.742188
1405.955078	60471.269531
1404.879883	61079.750000
1403.804688	61290.238281
1402.729492	62271.187500
1401.653320	62293.867188
1400.578125	62029.664063
1399.501953	62318.863281
1398.425781	62343.769531
1397.349609	62499.609375
1396.272461	61747.992188
1395.196289	61766.207031
1394.119141	61879.187500
1393.041992	61261.183594
1391.964844	61365.183594
1390.886719	61496.203125
1389.809570	61444.539063
1388.731445	62276.601563
1387.653320	62030.968750
1386.575195	62035.566406
1385.497070	62812.988281
1384.417969	62524.585938
1383.338867	63177.753906
1382.259766	63006.480469
1381.180664	63008.636719
1380.101563	63499.277344
1379.021484	62416.496094
1377.941406	63156.843750
1376.861328	63055.464844
1375.781250	63035.097656
1374.701172	62254.550781
1373.620117	62209.593750
1372.539063	61478.933594
1371.458008	61243.062500
1370.376953	61587.117188
1369.295898	60782.800781
1368.213867	60751.617188
1367.132813	60688.996094
1366.050781	60109.855469
1364.967773	59836.296875
1363.885742	60355.328125
1362.802734	60023.460938
1361.720703	60407.613281
1360.637695	60201.503906
1359.554688	59739.714844
1358.470703	59648.187500
1357.387695	59597.058594
1356.303711	59559.398438
1355.219727	59389.480469
1354.135742	58701.867188
1353.050781	59247.035156
1351.966797	58741.171875
1350.881836	58524.472656
1349.796875	58124.187500
1348.711914	58194.312500
1347.626953	57444.949219
1346.541016	57994.218750
1345.455078	57860.648438
1344.369141	57501.113281
1343.283203	58486.343750
1342.197266	57540.742188
1341.110352	57908.324219
1340.023438	58329.441406
1338.936523	58347.968750
1337.849609	58607.902344
1336.762695	58072.109375
1335.674805	58832.527344
1334.586914	59179.355469
1333.499023	59284.816406
1332.411133	58755.976563
1331.323242	59165.144531
1330.234375	59147.757813
1329.145508	58991.984375
1328.056641	59282.597656
1326.967773	59568.644531
1325.878906	59644.882813
1324.789063	59754.546875
1323.699219	60515.351563
1322.609375	60022.804688
1321.519531	60491.246094
1320.429688	61010.781250
1319.338867	60547.371094
1318.248047	60656.738281
1317.157227	61688.312500
1316.066406	61383.160156
1314.975586	61875.328125
1313.883789	61877.496094
1312.791992	61694.898438
1311.700195	62004.230469
1310.608398	62293.421875
1309.516602	62353.347656
1308.423828	62077.359375
1307.331055	62306.324219
1306.238281	62217.226563
1305.145508	62626.156250
1304.051758	62361.421875
1302.958984	63023.531250
1301.865234	63720.953125
1300.771484	64502.539063
1299.677734	64908.453125
1298.583008	66362.445313
1297.489258	66716.796875
1296.394531	67468.406250
1295.299805	68712.492188
1294.204102	68396.023438
1293.109375	68439.109375
1292.013672	68089.515625
1290.917969	67657.984375
1289.822266	67537.070313
1288.726563	66223.343750
1287.630859	66078.343750
1286.534180	65308.367188
1285.437500	64691.570313
1284.340820	64704.222656
1283.244141	63952.628906
1282.146484	63518.015625
1281.048828	63094.632813
1279.951172	62593.910156
1278.853516	62664.472656
1277.755859	62232.609375
1276.658203	62154.949219
1275.559570	61849.437500
1274.460938	61964.312500
1273.362305	61316.144531
1272.262695	60639.464844
1271.164063	60568.781250
1270.064453	60884.941406
1268.964844	60434.117188
1267.865234	59740.398438
1266.765625	60202.332031
1265.665039	60346.031250
1264.564453	59736.617188
1263.463867	59407.835938
1262.363281	59233.703125
1261.262695	59295.796875
1260.161133	58715.695313
1259.059570	59422.117188
1257.958008	59232.656250
1256.856445	58690.367188
1255.754883	58681.925781
1254.652344	58516.945313
1253.549805	58757.625000
1252.447266	58383.308594
1251.344727	59309.234375
1250.242188	58624.300781
1249.138672	58477.089844
1248.035156	58462.070313
1246.931641	58061.710938
1245.828125	58601.566406
1244.724609	58760.421875
1243.620117	58201.761719
1242.515625	58563.058594
1241.411133	58114.628906
1240.306641	58515.402344
1239.201172	57884.609375
1238.096680	58733.820313
1236.991211	58279.082031
1235.885742	59255.390625
1234.779297	58422.734375
1233.673828	58258.320313
1232.567383	58232.363281
1231.460938	58520.492188
1230.354492	58228.777344
1229.248047	58852.722656
1228.140625	58980.328125
1227.033203	59259.324219
1225.926758	59601.855469
1224.818359	59779.707031
1223.710938	59308.191406
1222.602539	59488.218750
1221.495117	59446.710938
1220.386719	59587.179688
1219.278320	59541.277344
1218.168945	59637.843750
1217.060547	59252.308594
1215.951172	59191.148438
1214.841797	59526.468750
1213.731445	59053.554688
1212.622070	59077.851563
1211.511719	59056.164063
1210.402344	58666.761719
1209.291992	58975.601563
1208.180664	59109.285156
1207.070313	59041.656250
1205.958984	59466.171875
1204.847656	59206.058594
1203.736328	59978.027344
1202.625000	59459.960938
1201.512695	59641.476563
1200.401367	59873.187500
1199.289063	59798.933594
1198.176758	60428.093750
1197.063477	60674.812500
1195.951172	60316.570313
1194.837891	60737.878906
1193.724609	60567.476563
1192.611328	60842.351563
1191.498047	61117.125000
1190.383789	61023.097656
1189.269531	60486.304688
1188.155273	60438.218750
1187.041016	60486.085938
1185.926758	60632.039063
1184.811523	60171.984375
1183.696289	59487.632813
1182.581055	59712.117188
1181.465820	59418.042969
1180.350586	60091.136719
1179.234375	59692.566406
1178.118164	59381.226563
1177.001953	59244.148438
1175.885742	59287.769531
1174.768555	58872.210938
1173.652344	59287.925781
1172.535156	58609.300781
1171.417969	59079.277344
1170.299805	58505.312500
