#Wave		#Intensity
2001.221680	44182.328125
2000.251953	44520.710938
1999.282227	44635.734375
1998.312500	44362.343750
1997.342773	44504.914063
1996.372070	44316.800781
1995.402344	44607.078125
1994.431641	44864.703125
1993.460938	44706.660156
1992.490234	44884.078125
1991.518555	44711.070313
1990.547852	44963.484375
1989.576172	44820.539063
1988.604492	44632.617188
1987.632813	44689.843750
1986.661133	45004.589844
1985.689453	44901.730469
1984.716797	45528.765625
1983.745117	45038.488281
1982.772461	45105.578125
1981.799805	44508.121094
1980.827148	45144.769531
1979.853516	45056.964844
1978.880859	45119.003906
1977.907227	45283.378906
1976.933594	44963.460938
1975.959961	44805.867188
1974.986328	44927.785156
1974.011719	44984.792969
1973.038086	45231.347656
1972.063477	44699.734375
1971.088867	45262.910156
1970.114258	45053.066406
1969.138672	45556.160156
1968.164063	45184.347656
1967.188477	45178.941406
1966.212891	45004.128906
1965.237305	44901.609375
1964.261719	45401.789063
1963.286133	45254.414063
1962.309570	45445.660156
1961.333984	45701.550781
1960.357422	45404.878906
1959.380859	45247.644531
1958.404297	45075.539063
1957.426758	45311.410156
1956.450195	45567.089844
1955.472656	45437.285156
1954.495117	45618.269531
1953.517578	45321.960938
1952.540039	45557.578125
1951.561523	45733.472656
1950.583008	45355.312500
1949.605469	45727.402344
1948.626953	45719.398438
1947.647461	45612.078125
1946.668945	45353.359375
1945.690430	45625.898438
1944.710938	45992.644531
1943.731445	45622.332031
1942.751953	45530.000000
1941.772461	45678.292969
1940.791992	45801.730469
1939.812500	45830.902344
1938.832031	45758.421875
1937.851563	45643.828125
1936.871094	45472.277344
1935.890625	46294.359375
1934.909180	46055.863281
1933.928711	45983.394531
1932.947266	45787.132813
1931.965820	45853.390625
1930.984375	45803.277344
1930.002930	46102.171875
1929.020508	45844.148438
1928.038086	45860.859375
1927.056641	46525.710938
1926.074219	46089.660156
1925.090820	45950.515625
1924.108398	46580.378906
1923.125000	45833.054688
1922.142578	46526.980469
1921.159180	46696.757813
1920.175781	46317.949219
1919.191406	46280.187500
1918.208008	46025.078125
1917.223633	46103.445313
1916.240234	45734.878906
1915.255859	46326.742188
1914.271484	46289.000000
1913.286133	46295.691406
1912.301758	46445.484375
1911.316406	46077.171875
1910.331055	46503.195313
1909.345703	46425.988281
1908.360352	46405.519531
1907.375000	46552.687500
1906.388672	46386.777344
1905.402344	46339.214844
1904.416016	46732.699219
1903.429688	46313.105469
1902.443359	46782.808594
1901.457031	46619.457031
1900.469727	46645.750000
1899.482422	46689.261719
1898.495117	46914.894531
1897.507813	46820.531250
1896.520508	46608.097656
1895.532227	46806.558594
1894.543945	46879.511719
1893.556641	46954.894531
1892.568359	46587.679688
1891.579102	46982.664063
1890.590820	46620.484375
1889.601563	46745.003906
1888.613281	46702.398438
1887.624023	46898.093750
1886.634766	46698.281250
1885.644531	47421.878906
1884.655273	47239.230469
1883.665039	47230.933594
1882.674805	47232.460938
1881.684570	47111.281250
1880.694336	47171.707031
1879.704102	46746.394531
1878.712891	46927.039063
1877.722656	47458.292969
1876.731445	46974.304688
1875.740234	47113.136719
1874.748047	47180.839844
1873.756836	47461.710938
1872.764648	47499.925781
1871.773438	47293.156250
1870.781250	47191.777344
1869.788086	47029.207031
1868.795898	47559.585938
1867.803711	47646.699219
1866.810547	47192.878906
1865.817383	47556.539063
1864.824219	47831.992188
1863.831055	47466.437500
1862.837891	47409.175781
1861.843750	47491.320313
1860.849609	47541.652344
1859.855469	47865.746094
1858.861328	47351.406250
1857.867188	47902.675781
1856.872070	47991.980469
1855.877930	47705.066406
1854.882813	47982.429688
1853.887695	48015.503906
1852.892578	47677.460938
1851.896484	47866.800781
1850.901367	47785.164063
1849.905273	47613.261719
1848.909180	48012.332031
1847.913086	48086.824219
1846.916992	48446.640625
1845.919922	48247.914063
1844.923828	48451.535156
1843.926758	48603.894531
1842.929688	48334.562500
1841.932617	48876.765625
1840.935547	48836.492188
1839.937500	48774.308594
1838.939453	48841.226563
1837.942383	48881.328125
1836.943359	48371.191406
1835.945313	48886.031250
1834.947266	48492.890625
1833.948242	48800.687500
1832.949219	48614.496094
1831.951172	49252.976563
1830.951172	48915.976563
1829.952148	49067.851563
1828.953125	49226.964844
1827.953125	49050.574219
1826.953125	49331.144531
1825.953125	49154.792969
1824.953125	49748.648438
1823.952148	49317.230469
1822.952148	49451.832031
1821.951172	49656.804688
1820.950195	49465.972656
1819.949219	50059.242188
1818.948242	49589.308594
1817.946289	49808.664063
1816.945313	49416.566406
1815.943359	49672.253906
1814.941406	49767.785156
1813.939453	49412.273438
1812.936523	49801.160156
1811.934570	49756.023438
1810.931641	49999.296875
1809.928711	49597.945313
1808.925781	49724.871094
1807.921875	49655.550781
1806.918945	49981.007813
1805.915039	50069.050781
1804.912109	50205.480469
1803.908203	49606.023438
1802.903320	49909.464844
1801.899414	50324.105469
1800.894531	50063.632813
1799.890625	50202.351563
1798.885742	50273.304688
1797.880859	50602.953125
1796.875000	50207.222656
1795.870117	50751.882813
1794.864258	50624.511719
1793.858398	50475.441406
1792.852539	50836.156250
1791.846680	50438.308594
1790.840820	50847.199219
1789.833984	50802.011719
1788.828125	51174.476563
1787.821289	50537.886719
1786.814453	51001.968750
1785.806641	50956.777344
1784.799805	51365.132813
1783.791992	51126.925781
1782.784180	51248.125000
1781.776367	51468.140625
1780.768555	51348.160156
1779.760742	51490.945313
1778.751953	51460.164063
1777.743164	51761.898438
1776.735352	51752.757813
1775.725586	51890.542969
1774.716797	52187.218750
1773.708008	51710.902344
1772.698242	51764.359375
1771.688477	51825.019531
1770.678711	51873.621094
1769.668945	52437.093750
1768.659180	52235.382813
1767.648438	51995.257813
1766.637695	52354.003906
1765.626953	52616.445313
1764.616211	52669.648438
1763.605469	52477.679688
1762.593750	52831.269531
1761.583008	52807.519531
1760.571289	53199.355469
1759.559570	52973.792969
1758.547852	53259.800781
1757.535156	53581.718750
1756.523438	52854.492188
1755.510742	53296.367188
1754.498047	53421.328125
1753.485352	53277.527344
1752.472656	53325.679688
1751.458984	53647.230469
1750.445313	53731.269531
1749.432617	54124.554688
1748.417969	54304.359375
1747.404297	54254.011719
1746.390625	54071.886719
1745.375977	54323.472656
1744.361328	54285.121094
1743.346680	54558.128906
1742.332031	54823.855469
1741.317383	54811.765625
1740.302734	55548.910156
1739.287109	56266.652344
1738.271484	56139.445313
1737.255859	55854.378906
1736.240234	56215.265625
1735.223633	56585.585938
1734.208008	57285.753906
1733.191406	57751.382813
1732.174805	57566.667969
1731.158203	58526.785156
1730.140625	58812.726563
1729.124023	59676.718750
1728.106445	59348.464844
1727.088867	59371.394531
1726.071289	60530.910156
1725.053711	60558.394531
1724.035156	60772.046875
1723.017578	61238.593750
1721.999023	61268.316406
1720.980469	61357.667969
1719.961914	61733.214844
1718.942383	62115.785156
1717.923828	62624.589844
1716.904297	61984.121094
1715.884766	62283.007813
1714.865234	62326.789063
1713.844727	61782.015625
1712.825195	61923.539063
1711.804688	62122.175781
1710.784180	62173.089844
1709.763672	62085.882813
1708.743164	61746.355469
1707.722656	61449.789063
1706.701172	61591.207031
1705.679688	61718.296875
1704.658203	61426.640625
1703.636719	61120.820313
1702.615234	61129.011719
1701.592773	60338.300781
1700.571289	61226.207031
1699.548828	60863.582031
1698.526367	60802.886719
1697.502930	60775.476563
1696.480469	60990.382813
1695.457031	61143.453125
1694.433594	60489.062500
1693.410156	59903.753906
1692.386719	60488.976563
1691.363281	60051.023438
1690.338867	60030.882813
1689.314453	59825.679688
1688.290039	60419.980469
1687.265625	60169.714844
1686.241211	60393.804688
1685.215820	60423.398438
1684.191406	60720.847656
1683.166016	60636.601563
1682.140625	60846.222656
1681.115234	61043.921875
1680.088867	60450.355469
1679.062500	60688.312500
1678.037109	61295.589844
1677.010742	60915.371094
1675.983398	60783.835938
1674.957031	61300.828125
1673.930664	61531.312500
1672.903320	61562.976563
1671.875977	61334.421875
1670.848633	61517.468750
1669.820313	61825.773438
1668.792969	62018.121094
1667.764648	62002.382813
1666.736328	62303.335938
1665.708008	62070.156250
1664.679688	61948.093750
1663.651367	62648.089844
1662.622070	62849.515625
1661.592773	62661.257813
1660.563477	62742.203125
1659.534180	62896.289063
1658.504883	63439.718750
1657.474609	63669.128906
1656.444336	63726.234375
1655.415039	63535.644531
1654.383789	63583.316406
1653.353516	64251.101563
1652.323242	63954.425781
1651.291992	64421.550781
1650.260742	64502.011719
1649.229492	64650.773438
1648.198242	64865.441406
1647.166016	65247.265625
1646.134766	65727.859375
1645.102539	65047.476563
1644.070313	65786.890625
1643.038086	66509.562500
1642.004883	66382.421875
1640.972656	67201.195313
1639.939453	67252.765625
1638.906250	67466.601563
1637.873047	68023.703125
1636.839844	68632.328125
1635.805664	69243.085938
1634.772461	69120.304688
1633.738281	69998.648438
1632.704102	70369.179688
1631.668945	71167.109375
1630.634766	71006.484375
1629.599609	71829.843750
1628.565430	72843.085938
1627.530273	73623.570313
1626.494141	73753.640625
1625.458984	74683.867188
1624.422852	75470.632813
1623.387695	76613.679688
1622.351563	78157.375000
1621.315430	79205.734375
1620.278320	80860.945313
1619.242188	82553.078125
1618.205078	85282.867188
1617.167969	87404.765625
1616.130859	90777.000000
1615.093750	92997.882813
1614.055664	95262.476563
1613.018555	98287.281250
1611.980469	100051.437500
1610.942383	101435.750000
1609.904297	102325.750000
1608.865234	101640.640625
1607.827148	100473.828125
1606.788086	98271.187500
1605.749023	96693.765625
1604.709961	94504.273438
1603.669922	91226.109375
1602.630859	89379.625000
1601.590820	88040.937500
1600.550781	86312.507813
1599.510742	85666.351563
1598.470703	84546.257813
1597.429688	83982.375000
1596.389648	83782.953125
1595.348633	83086.335938
1594.307617	82674.718750
1593.265625	82933.031250
1592.224609	82880.914063
1591.182617	81970.312500
1590.140625	82482.835938
1589.098633	81187.843750
1588.056641	81553.421875
1587.014648	81366.375000
1585.971680	80913.671875
1584.928711	80917.890625
1583.886719	80957.046875
1582.842773	80341.585938
1581.799805	80122.289063
1580.755859	80485.257813
1579.712891	80205.468750
1578.668945	80584.578125
1577.625000	80481.757813
1576.580078	80765.265625
1575.536133	81381.375000
1574.491211	82660.242188
1573.446289	82143.117188
1572.401367	83240.000000
1571.356445	82525.328125
1570.311523	83080.117188
1569.265625	83097.828125
1568.219727	82899.421875
1567.173828	82917.156250
1566.127930	82282.140625
1565.082031	82088.617188
1564.035156	81642.054688
1562.988281	81399.960938
1561.941406	81359.890625
1560.894531	81459.085938
1559.847656	81354.046875
1558.799805	81464.804688
1557.751953	82215.718750
1556.704102	81836.929688
1555.656250	82826.335938
1554.608398	82004.757813
1553.560547	82112.960938
1552.511719	81688.093750
1551.462891	82329.242188
1550.414063	81121.437500
1549.365234	81069.882813
1548.315430	81342.570313
1547.265625	81341.929688
1546.216797	81225.531250
1545.166992	81569.789063
1544.116211	80592.500000
1543.066406	80763.195313
1542.015625	80246.757813
1540.965820	79758.257813
1539.915039	79713.937500
1538.863281	79417.609375
1537.812500	79070.523438
1536.760742	78497.046875
1535.709961	78115.578125
1534.658203	77995.335938
1533.605469	77048.117188
1532.553711	76775.656250
1531.501953	76868.156250
1530.449219	76392.640625
1529.396484	76383.593750
1528.343750	75938.335938
1527.290039	75262.468750
1526.237305	75996.539063
1525.183594	74538.906250
1524.129883	74564.773438
1523.076172	75019.546875
1522.022461	74547.320313
1520.968750	74531.679688
1519.914063	74562.132813
1518.859375	74788.437500
1517.804688	74450.210938
1516.750000	74614.250000
1515.694336	74434.554688
1514.639648	74255.023438
1513.583984	74075.320313
1512.528320	73895.625000
1511.472656	73769.625000
1510.416016	73832.351563
1509.360352	72981.718750
1508.303711	73525.296875
1507.247070	73454.640625
1506.190430	72967.820313
1505.132813	72908.773438
1504.076172	73072.710938
1503.018555	72565.523438
1501.960938	72644.437500
1500.903320	72204.132813
1499.844727	72813.656250
1498.787109	72084.109375
1497.728516	71683.164063
1496.669922	71782.812500
1495.611328	71439.437500
1494.552734	71025.039063
1493.493164	71271.585938
1492.434570	71176.226563
1491.375000	70768.976563
1490.315430	70671.445313
1489.254883	70986.648438
1488.195313	70451.265625
1487.134766	70117.765625
1486.074219	70570.382813
1485.013672	70628.757813
1483.953125	71193.359375
1482.892578	70207.210938
1481.831055	70208.367188
1480.769531	70198.070313
1479.708008	69594.898438
1478.646484	69415.351563
1477.583984	69583.671875
1476.522461	69310.382813
1475.459961	68922.812500
1474.397461	68791.523438
1473.334961	68776.898438
1472.271484	68711.984375
1471.208984	68631.078125
1470.145508	67974.289063
1469.082031	67968.953125
1468.018555	68173.789063
1466.954102	67928.578125
1465.890625	68503.312500
1464.826172	68459.054688
1463.761719	68316.640625
1462.697266	68649.039063
1461.631836	68381.125000
1460.567383	68544.539063
1459.501953	68415.890625
1458.436523	68474.320313
1457.371094	68473.429688
1456.305664	68046.164063
1455.239258	68277.875000
1454.172852	68128.859375
1453.107422	68155.367188
1452.040039	67967.695313
1450.973633	68618.390625
1449.907227	68107.273438
1448.839844	68356.921875
1447.772461	68884.242188
1446.705078	67931.726563
1445.637695	68299.609375
1444.569336	68503.523438
1443.500977	68356.984375
1442.432617	68547.156250
1441.364258	68648.554688
1440.295898	69025.062500
1439.227539	68803.500000
1438.158203	69213.929688
1437.088867	69319.671875
1436.019531	69059.539063
1434.950195	69767.312500
1433.879883	70338.546875
1432.810547	69969.343750
1431.740234	70197.460938
1430.669922	70963.539063
1429.598633	70626.187500
1428.528320	71083.265625
1427.457031	71619.593750
1426.386719	71275.500000
1425.314453	71861.492188
1424.243164	71499.328125
1423.171875	71565.828125
1422.099609	71650.437500
1421.027344	71716.882813
1419.955078	71885.273438
1418.882813	71464.507813
1417.810547	72045.179688
1416.737305	71669.828125
1415.664063	71740.718750
1414.590820	70939.890625
1413.517578	71250.843750
1412.444336	70758.203125
1411.370117	70145.796875
1410.295898	70216.882813
1409.221680	69815.171875
1408.147461	69809.390625
1407.073242	69765.164063
1405.998047	69347.914063
1404.922852	69613.468750
1403.847656	69115.023438
1402.772461	69299.171875
1401.697266	69415.476563
1400.621094	69712.437500
1399.544922	69589.218750
1398.468750	69556.367188
1397.392578	70024.718750
1396.316406	69790.898438
1395.239258	70428.296875
1394.162109	71537.039063
1393.084961	72209.984375
1392.007813	72553.359375
1390.930664	73487.468750
1389.852539	74502.406250
1388.774414	74211.695313
1387.696289	75063.851563
1386.618164	75158.500000
1385.540039	75054.828125
1384.460938	75987.460938
1383.382813	75552.578125
1382.303711	75624.539063
1381.223633	75250.664063
1380.144531	74933.195313
1379.064453	74910.687500
1377.985352	74789.171875
1376.905273	74930.937500
1375.825195	74705.968750
1374.744141	74645.273438
1373.664063	74465.414063
1372.583008	73959.609375
1371.501953	73939.531250
1370.420898	73348.593750
1369.338867	72674.734375
1368.257813	73587.250000
1367.175781	72700.187500
1366.093750	72731.992188
1365.011719	72950.148438
1363.929688	72546.351563
1362.846680	73431.125000
1361.763672	73094.703125
1360.680664	73584.132813
1359.597656	74037.492188
1358.514648	73250.289063
1357.430664	73609.343750
1356.346680	72723.843750
1355.262695	72065.078125
1354.178711	72603.460938
1353.094727	70683.265625
1352.009766	70495.742188
1350.925781	69577.984375
1349.840820	69272.007813
1348.755859	69109.468750
1347.669922	68808.164063
1346.584961	68585.312500
1345.499023	68552.781250
1344.413086	68305.437500
1343.327148	67868.007813
1342.240234	67797.593750
1341.154297	67317.906250
1340.067383	67855.843750
1338.980469	67848.054688
1337.893555	67927.453125
1336.805664	68424.742188
1335.718750	68224.679688
1334.630859	68384.382813
1333.542969	69022.046875
1332.455078	68337.343750
1331.367188	68930.117188
1330.278320	68448.835938
1329.189453	68583.781250
1328.100586	68488.812500
1327.011719	69281.937500
1325.922852	69559.429688
1324.833008	69897.046875
1323.743164	70560.125000
1322.653320	71084.726563
1321.563477	71651.492188
1320.473633	72808.703125
1319.382813	73163.234375
1318.291992	73927.601563
1317.201172	74736.250000
1316.110352	75990.054688
1315.019531	77314.656250
1313.927734	77788.273438
1312.835938	78159.312500
1311.744141	77969.343750
1310.652344	77757.195313
1309.560547	77362.679688
1308.467773	76854.851563
1307.375000	75753.382813
1306.282227	74705.687500
1305.189453	74007.406250
1304.095703	73671.703125
1303.002930	72829.398438
1301.909180	72234.046875
1300.815430	71929.937500
1299.721680	71874.718750
1298.626953	71461.953125
1297.533203	71533.398438
1296.438477	71562.625000
1295.343750	71653.992188
1294.248047	71290.382813
1293.153320	71907.625000
1292.057617	71774.812500
1290.961914	71910.421875
1289.866211	71684.507813
1288.770508	72108.312500
1287.674805	72811.289063
1286.578125	72155.343750
1285.481445	72084.656250
1284.384766	72149.140625
1283.288086	72085.125000
1282.190430	72189.453125
1281.092773	71503.195313
1279.996094	71711.640625
1278.897461	71780.546875
1277.799805	71094.726563
1276.702148	71042.015625
1275.603516	71026.929688
1274.504883	70458.843750
1273.406250	70337.703125
1272.307617	70258.617188
1271.208008	70018.171875
1270.108398	69813.171875
1269.008789	70341.968750
1267.909180	69845.312500
1266.809570	69366.507813
1265.708984	69627.820313
1264.609375	69065.304688
1263.508789	69057.203125
1262.407227	68296.304688
1261.306641	68515.671875
1260.206055	68291.390625
1259.104492	68159.859375
1258.002930	68491.632813
1256.901367	68009.414063
1255.798828	68085.289063
1254.697266	67618.750000
1253.594727	67377.218750
1252.492188	66926.406250
1251.389648	67229.375000
1250.286133	66531.984375
1249.183594	66744.593750
1248.080078	67029.804688
1246.976563	66114.820313
1245.872070	66983.453125
1244.768555	66055.601563
1243.664063	66250.484375
1242.560547	66434.289063
1241.455078	66732.429688
1240.350586	66405.773438
1239.246094	66771.976563
1238.140625	66528.976563
1237.035156	66435.554688
1235.929688	66346.562500
1234.824219	66204.859375
1233.717773	66581.734375
1232.612305	66341.171875
1231.505859	65968.914063
1230.399414	65904.226563
1229.291992	65512.414063
1228.185547	65671.742188
1227.078125	65488.613281
1225.970703	65364.800781
1224.863281	65019.433594
1223.755859	65746.867188
1222.647461	64947.554688
1221.539063	64751.554688
1220.430664	65178.269531
1219.322266	64232.625000
1218.213867	64166.156250
1217.104492	63852.105469
1215.995117	63853.644531
1214.885742	63579.183594
1213.776367	63712.164063
1212.666992	63343.671875
1211.556641	63507.292969
1210.446289	63053.601563
1209.335938	63576.113281
1208.225586	63774.601563
1207.115234	63622.992188
1206.003906	63265.835938
1204.892578	63831.656250
1203.781250	63634.195313
1202.669922	64099.175781
1201.557617	63667.871094
1200.446289	63671.585938
1199.333984	64721.835938
1198.221680	64437.003906
1197.108398	64704.835938
1195.996094	65127.609375
1194.882813	64812.285156
1193.769531	65175.941406
1192.656250	65319.031250
1191.542969	65230.769531
1190.428711	65247.257813
1189.314453	64476.296875
1188.200195	64676.105469
1187.085938	64670.871094
1185.971680	64691.796875
1184.856445	63949.820313
1183.741211	64025.347656
1182.625977	64678.250000
1181.510742	64028.171875
1180.395508	64149.375000
1179.279297	64433.859375
1178.163086	64126.007813
1177.046875	64279.769531
1175.930664	64470.476563
1174.813477	63764.550781
1173.697266	63963.976563
1172.580078	63567.289063
1171.462891	63401.289063
1170.344727	62763.468750
