#Wave		#Intensity
2001.182617	36795.375000
2000.212891	36880.593750
1999.243164	36415.546875
1998.273438	36679.800781
1997.303711	36811.179688
1996.333008	36631.925781
1995.363281	36685.632813
1994.392578	36771.871094
1993.421875	36460.031250
1992.451172	36446.156250
1991.479492	36757.617188
1990.508789	36676.132813
1989.537109	36594.679688
1988.566406	36813.398438
1987.594727	36676.925781
1986.622070	37233.105469
1985.650391	36691.613281
1984.677734	36870.167969
1983.706055	36363.914063
1982.733398	36732.355469
1981.760742	37153.128906
1980.788086	36604.625000
1979.814453	36832.976563
1978.841797	36918.921875
1977.868164	37102.203125
1976.894531	36673.890625
1975.920898	37189.058594
1974.947266	36783.335938
1973.972656	36741.980469
1972.999023	37152.101563
1972.024414	36539.605469
1971.049805	37385.960938
1970.075195	37037.890625
1969.099609	37303.097656
1968.125000	37012.480469
1967.149414	37053.347656
1966.173828	37163.957031
1965.198242	37316.867188
1964.222656	37367.621094
1963.247070	36962.699219
1962.270508	37344.593750
1961.294922	37166.320313
1960.318359	37184.703125
1959.341797	36804.972656
1958.364258	37129.406250
1957.387695	37195.042969
1956.410156	36997.046875
1955.433594	37172.082031
1954.456055	37834.312500
1953.478516	37678.558594
1952.500000	37483.093750
1951.522461	37302.609375
1950.543945	37231.492188
1949.565430	37567.742188
1948.586914	37245.777344
1947.608398	37725.917969
1946.629883	37826.062500
1945.650391	37695.335938
1944.671875	37433.128906
1943.692383	37483.644531
1942.712891	37491.964844
1941.733398	37659.027344
1940.752930	36915.902344
1939.773438	37489.632813
1938.792969	37716.097656
1937.812500	37652.488281
1936.832031	37350.992188
1935.851563	37443.558594
1934.870117	37617.843750
1933.888672	37502.273438
1932.908203	37958.800781
1931.926758	38011.574219
1930.945313	37831.625000
1929.962891	37735.894531
1928.981445	37833.222656
1927.999023	37831.542969
1927.016602	37476.101563
1926.034180	37971.636719
1925.051758	38194.968750
1924.069336	37797.617188
1923.085938	38196.417969
1922.102539	37905.480469
1921.119141	37713.496094
1920.135742	37845.250000
1919.152344	38305.515625
1918.168945	37925.843750
1917.184570	37872.273438
1916.200195	38184.144531
1915.215820	38416.910156
1914.231445	38010.324219
1913.247070	38144.324219
1912.261719	37977.257813
1911.276367	38084.078125
1910.291992	38171.125000
1909.306641	38028.796875
1908.320313	38068.976563
1907.334961	38237.328125
1906.348633	37801.753906
1905.363281	38379.167969
1904.376953	38330.546875
1903.390625	38193.261719
1902.403320	38149.617188
1901.416992	38364.558594
1900.429688	37981.117188
1899.443359	38070.460938
1898.456055	38524.039063
1897.467773	38495.132813
1896.480469	38102.093750
1895.493164	38097.867188
1894.504883	38290.402344
1893.516602	38094.332031
1892.528320	38601.511719
1891.540039	38729.941406
1890.550781	38673.988281
1889.562500	38391.968750
1888.573242	38198.500000
1887.583984	38315.140625
1886.594727	38431.785156
1885.605469	38548.425781
1884.615234	38665.183594
1883.625000	38682.945313
1882.635742	38663.878906
1881.645508	38821.503906
1880.654297	38772.976563
1879.664063	38798.058594
1878.673828	38234.488281
1877.682617	38257.199219
1876.691406	38910.015625
1875.700195	38510.960938
1874.708984	38756.640625
1873.716797	38916.468750
1872.725586	38887.578125
1871.733398	38706.820313
1870.741211	38753.902344
1869.749023	39217.261719
1868.755859	38559.105469
1867.763672	38794.675781
1866.770508	39252.878906
1865.777344	39179.910156
1864.784180	38896.554688
1863.791016	38980.226563
1862.797852	39210.617188
1861.803711	39174.378906
1860.809570	39304.406250
1859.815430	39189.941406
1858.821289	39219.710938
1857.827148	39225.035156
1856.832031	39135.066406
1855.837891	39587.425781
1854.842773	39262.960938
1853.847656	39644.320313
1852.852539	39312.628906
1851.856445	39615.730469
1850.861328	39252.429688
1849.865234	39445.621094
1848.869141	39638.742188
1847.873047	39351.250000
1846.876953	39683.332031
1845.879883	39449.574219
1844.883789	39252.464844
1843.886719	39584.386719
1842.889648	39674.910156
1841.892578	39572.894531
1840.895508	39604.910156
1839.897461	39354.351563
1838.899414	39895.406250
1837.901367	39837.250000
1836.903320	39857.015625
1835.905273	39886.515625
1834.907227	39920.867188
1833.908203	40193.671875
1832.909180	40137.937500
1831.910156	39909.515625
1830.911133	40279.457031
1829.912109	40089.992188
1828.912109	40326.050781
1827.913086	40248.460938
1826.913086	40479.542969
1825.913086	40535.593750
1824.913086	40159.171875
1823.912109	40443.585938
1822.912109	39778.304688
1821.911133	40133.097656
1820.910156	40424.644531
1819.909180	40575.300781
1818.908203	40417.683594
1817.906250	40245.562500
1816.904297	40973.562500
1815.903320	40825.656250
1814.900391	40602.621094
1813.898438	40539.695313
1812.896484	40770.136719
1811.893555	40518.136719
1810.891602	40896.332031
1809.888672	40719.507813
1808.885742	40823.773438
1807.881836	41024.886719
1806.878906	40964.375000
1805.875000	41167.808594
1804.871094	41218.656250
1803.867188	41327.570313
1802.863281	41112.156250
1801.859375	41107.328125
1800.854492	41257.328125
1799.849609	41042.035156
1798.844727	41083.167969
1797.839844	41225.832031
1796.834961	41402.292969
1795.830078	41501.339844
1794.824219	41361.105469
1793.818359	41440.792969
1792.812500	41534.945313
1791.806641	41230.527344
1790.799805	41563.761719
1789.793945	41628.863281
1788.787109	41983.632813
1787.780273	42022.085938
1786.773438	41623.722656
1785.766602	41572.945313
1784.758789	42098.750000
1783.751953	41891.125000
1782.744141	41975.371094
1781.736328	41779.894531
1780.728516	41755.644531
1779.719727	42321.917969
1778.711914	42131.296875
1777.703125	42278.062500
1776.694336	42077.878906
1775.685547	42345.023438
1774.676758	42544.648438
1773.666992	42253.023438
1772.657227	42286.488281
1771.648438	42182.746094
1770.638672	42538.667969
1769.627930	42372.355469
1768.618164	42526.046875
1767.607422	42963.492188
1766.597656	42563.929688
1765.586914	42950.718750
1764.576172	42822.933594
1763.564453	43423.445313
1762.553711	43302.832031
1761.541992	43521.027344
1760.530273	43321.160156
1759.518555	43630.539063
1758.506836	43608.417969
1757.495117	43655.933594
1756.482422	43753.839844
1755.469727	43760.507813
1754.457031	44623.843750
1753.444336	44090.523438
1752.431641	43744.500000
1751.417969	43595.261719
1750.405273	44314.132813
1749.391602	44109.703125
1748.377930	43982.046875
1747.364258	43832.867188
1746.349609	44445.746094
1745.335938	44090.488281
1744.321289	44779.757813
1743.306641	44963.433594
1742.291992	45065.632813
1741.276367	44885.281250
1740.261719	45020.964844
1739.246094	44821.539063
1738.230469	45352.003906
1737.214844	45698.062500
1736.199219	45448.382813
1735.182617	45813.429688
1734.166992	45838.800781
1733.150391	45737.449219
1732.133789	46386.695313
1731.117188	46674.835938
1730.099609	46958.089844
1729.083008	47160.019531
1728.065430	47507.578125
1727.047852	47544.542969
1726.030273	47533.738281
1725.012695	48069.644531
1723.994141	48364.277344
1722.976563	48544.250000
1721.958008	49132.179688
1720.939453	48672.585938
1719.920898	49276.976563
1718.901367	49039.308594
1717.882813	49190.378906
1716.863281	49482.050781
1715.843750	49723.558594
1714.824219	50062.691406
1713.803711	49334.242188
1712.784180	49975.871094
1711.763672	49959.871094
1710.743164	50139.156250
1709.722656	49944.550781
1708.702148	49707.164063
1707.681641	49960.179688
1706.660156	49908.488281
1705.638672	50406.445313
1704.617188	50200.062500
1703.595703	50153.109375
1702.574219	50638.863281
1701.551758	50549.105469
1700.529297	50459.351563
1699.507813	50369.679688
1698.484375	50279.839844
1697.461914	50190.082031
1696.439453	49893.742188
1695.416016	50381.296875
1694.392578	49581.585938
1693.369141	49857.707031
1692.345703	50352.128906
1691.322266	50027.527344
1690.297852	50365.117188
1689.273438	49627.796875
1688.249023	50627.171875
1687.224609	50350.183594
1686.200195	50471.675781
1685.174805	50797.023438
1684.150391	50911.277344
1683.125000	51115.550781
1682.099609	50492.742188
1681.073242	50865.230469
1680.047852	51168.890625
1679.021484	51481.910156
1677.995117	51598.277344
1676.968750	51584.386719
1675.942383	51736.195313
1674.916016	51956.585938
1673.888672	51507.230469
1672.862305	51495.722656
1671.834961	51503.140625
1670.806641	52333.585938
1669.779297	51964.871094
1668.751953	51482.804688
1667.723633	51667.496094
1666.695313	51956.105469
1665.666992	51764.933594
1664.638672	51843.152344
1663.609375	52726.820313
1662.581055	52490.734375
1661.551758	52394.046875
1660.522461	52391.820313
1659.493164	52495.816406
1658.462891	52996.250000
1657.433594	52977.398438
1656.403320	52892.492188
1655.373047	53116.613281
1654.342773	53177.921875
1653.312500	52972.769531
1652.281250	53055.296875
1651.250977	53293.363281
1650.219727	53109.500000
1649.188477	52734.843750
1648.156250	53264.953125
1647.125000	53434.496094
1646.092773	53253.082031
1645.060547	53610.925781
1644.028320	53380.109375
1642.996094	53662.480469
1641.963867	53518.800781
1640.930664	53699.867188
1639.898438	54803.035156
1638.865234	54706.265625
1637.832031	54336.738281
1636.797852	54705.621094
1635.764648	54540.738281
1634.730469	55088.078125
1633.696289	54481.390625
1632.662109	54904.011719
1631.627930	55678.851563
1630.592773	55650.160156
1629.558594	56239.070313
1628.523438	56109.324219
1627.488281	56587.609375
1626.453125	57084.500000
1625.416992	57452.148438
1624.381836	57495.886719
1623.345703	58273.835938
1622.309570	59112.484375
1621.273438	59798.410156
1620.237305	60427.824219
1619.200195	61340.648438
1618.163086	62780.472656
1617.125977	63106.726563
1616.088867	65166.578125
1615.051758	67089.835938
1614.014648	68286.375000
1612.976563	69430.968750
1611.938477	70525.984375
1610.900391	70733.460938
1609.862305	70124.070313
1608.823242	70822.921875
1607.785156	69341.093750
1606.746094	67979.078125
1605.707031	67040.843750
1604.667969	66236.226563
1603.628906	64964.324219
1602.588867	63398.355469
1601.548828	62127.406250
1600.508789	61948.101563
1599.468750	60853.070313
1598.428711	60526.898438
1597.387695	60343.292969
1596.347656	59480.285156
1595.306641	59112.503906
1594.265625	59064.621094
1593.224609	58533.679688
1592.182617	58511.582031
1591.140625	58186.214844
1590.099609	57725.679688
1589.057617	57974.242188
1588.014648	57686.445313
1586.972656	57263.539063
1585.929688	57071.527344
1584.887695	56949.492188
1583.844727	56508.296875
1582.800781	56745.148438
1581.757813	56681.457031
1580.714844	56680.664063
1579.670898	56807.921875
1578.626953	56902.542969
1577.583008	56952.906250
1576.538086	57340.671875
1575.494141	57467.714844
1574.449219	57480.722656
1573.404297	58182.160156
1572.359375	57843.898438
1571.314453	58182.324219
1570.269531	58037.117188
1569.223633	58033.730469
1568.177734	57802.621094
1567.131836	57553.003906
1566.085938	57491.625000
1565.040039	56698.687500
1563.993164	56804.667969
1562.946289	56125.894531
1561.899414	56445.488281
1560.852539	55750.769531
1559.805664	56376.605469
1558.757813	56150.781250
1557.709961	55502.871094
1556.662109	55539.339844
1555.614258	56394.316406
1554.566406	55593.691406
1553.517578	55871.183594
1552.469727	55838.027344
1551.420898	55550.003906
1550.372070	55530.812500
1549.322266	55601.960938
1548.273438	55152.015625
1547.223633	55128.269531
1546.173828	55088.324219
1545.124023	55134.031250
1544.074219	55668.015625
1543.024414	55644.183594
1541.973633	55007.316406
1540.922852	55318.988281
1539.872070	54795.714844
1538.821289	55181.292969
1537.770508	55793.281250
1536.718750	55344.160156
1535.666992	55047.714844
1534.615234	55183.433594
1533.563477	54713.867188
1532.511719	54916.570313
1531.458984	54509.562500
1530.407227	55049.312500
1529.354492	55101.796875
1528.300781	54851.910156
1527.248047	55269.003906
1526.195313	55044.550781
1525.141602	54580.273438
1524.087891	54695.050781
1523.034180	55423.167969
1521.980469	54366.542969
1520.925781	54919.265625
1519.871094	54466.937500
1518.817383	54348.886719
1517.762695	55099.441406
1516.707031	54608.156250
1515.652344	54939.234375
1514.596680	54560.980469
1513.541016	54148.328125
1512.485352	53949.886719
1511.429688	54299.246094
1510.374023	54535.734375
1509.317383	54707.714844
1508.260742	54727.824219
1507.204102	54241.976563
1506.147461	54701.328125
1505.090820	54799.585938
1504.033203	54555.324219
1502.975586	54490.398438
1501.917969	54878.140625
1500.860352	54569.664063
1499.802734	54987.109375
1498.744141	54476.632813
1497.686523	54542.644531
1496.627930	54581.082031
1495.569336	55172.652344
1494.509766	55002.128906
1493.451172	54847.730469
1492.391602	54431.863281
1491.332031	54837.250000
1490.272461	55098.015625
1489.212891	54641.054688
1488.152344	54906.343750
1487.092773	54763.570313
1486.032227	54778.960938
1484.971680	55002.835938
1483.910156	54846.371094
1482.849609	55358.726563
1481.788086	55548.023438
1480.726563	55755.562500
1479.665039	55482.324219
1478.603516	55820.250000
1477.541992	55668.371094
1476.479492	55781.929688
1475.416992	56165.363281
1474.354492	56029.503906
1473.291992	56193.238281
1472.229492	56356.906250
1471.166016	55983.359375
1470.102539	56453.246094
1469.039063	56625.914063
1467.975586	56455.835938
1466.912109	56100.800781
1465.847656	56819.246094
1464.783203	56717.718750
1463.718750	56721.238281
1462.654297	57201.796875
1461.589844	56949.628906
1460.524414	57404.871094
1459.458984	57207.503906
1458.393555	57261.097656
1457.328125	57034.175781
1456.262695	57691.992188
1455.196289	57155.039063
1454.130859	57500.335938
1453.064453	57697.386719
1451.998047	58165.492188
1450.930664	57202.843750
1449.864258	57527.375000
1448.796875	57494.273438
1447.729492	57866.445313
1446.662109	57717.195313
1445.594727	58250.781250
1444.526367	58401.878906
1443.458008	58662.128906
1442.390625	59111.085938
1441.321289	58848.019531
1440.252930	59110.312500
1439.184570	59595.316406
1438.115234	60152.882813
1437.045898	60212.527344
1435.976563	59592.734375
1434.907227	60511.218750
1433.836914	60834.250000
1432.767578	60852.839844
1431.697266	61466.328125
1430.626953	61711.816406
1429.555664	61525.945313
1428.485352	62243.367188
1427.414063	61991.660156
1426.342773	62645.214844
1425.271484	62779.117188
1424.200195	63255.402344
1423.128906	63221.351563
1422.056641	63366.406250
1420.984375	63905.785156
1419.912109	63935.082031
1418.839844	63683.410156
1417.767578	63835.062500
1416.694336	63954.945313
1415.621094	63662.636719
1414.547852	63757.597656
1413.474609	63275.273438
1412.400391	62686.746094
1411.327148	62505.750000
1410.252930	62365.539063
1409.178711	62019.527344
1408.104492	62110.140625
1407.029297	62013.035156
1405.955078	62130.742188
1404.879883	61920.640625
1403.804688	62255.281250
1402.729492	62268.929688
1401.653320	62820.269531
1400.578125	62827.027344
1399.501953	63226.750000
1398.425781	63253.750000
1397.349609	63650.988281
1396.272461	63725.296875
1395.196289	63907.906250
1394.119141	63878.347656
1393.041992	64760.210938
1391.964844	64660.578125
1390.886719	65316.460938
1389.809570	65284.402344
1388.731445	65863.281250
1387.653320	66714.679688
1386.575195	66269.976563
1385.497070	66918.203125
1384.417969	66320.437500
1383.338867	66484.171875
1382.259766	66544.250000
1381.180664	66401.664063
1380.101563	66524.765625
1379.021484	66501.523438
1377.941406	66262.257813
1376.861328	66662.039063
1375.781250	65959.429688
1374.701172	66093.726563
1373.620117	65512.898438
1372.539063	65775.375000
1371.458008	64680.046875
1370.376953	65261.710938
1369.295898	64796.035156
1368.213867	64550.699219
1367.132813	64646.878906
1366.050781	65513.339844
1364.967773	65440.894531
1363.885742	65007.027344
1362.802734	64941.429688
1361.720703	65430.171875
1360.637695	66428.085938
1359.554688	66247.843750
1358.470703	66114.765625
1357.387695	66217.210938
1356.303711	65929.468750
1355.219727	65348.160156
1354.135742	65000.156250
1353.050781	64589.531250
1351.966797	64179.050781
1350.881836	63753.035156
1349.796875	63123.347656
1348.711914	63387.394531
1347.626953	62966.222656
1346.541016	62433.269531
1345.455078	62507.046875
1344.369141	62486.808594
1343.283203	62280.875000
1342.197266	62262.917969
1341.110352	62414.941406
1340.023438	62110.734375
1338.936523	62153.171875
1337.849609	61768.648438
1336.762695	61728.437500
1335.674805	62233.457031
1334.586914	61869.222656
1333.499023	61947.394531
1332.411133	62530.261719
1331.323242	62534.593750
1330.234375	62614.824219
1329.145508	62509.761719
1328.056641	62790.816406
1326.967773	63439.925781
1325.878906	63914.792969
1324.789063	63309.933594
1323.699219	64315.402344
1322.609375	64526.742188
1321.519531	65197.234375
1320.429688	65863.023438
1319.338867	66363.664063
1318.248047	67133.710938
1317.157227	67927.984375
1316.066406	69049.375000
1314.975586	69560.195313
1313.883789	69930.562500
1312.791992	71164.500000
1311.700195	70900.132813
1310.608398	70849.476563
1309.516602	70084.664063
1308.423828	70189.882813
1307.331055	69803.546875
1306.238281	68716.898438
1305.145508	68173.117188
1304.051758	67467.257813
1302.958984	66926.109375
1301.865234	66954.000000
1300.771484	66801.914063
1299.677734	67058.593750
1298.583008	67417.328125
1297.489258	67633.828125
1296.394531	68669.437500
1295.299805	68694.734375
1294.204102	68782.164063
1293.109375	68585.546875
1292.013672	68854.867188
1290.917969	68582.890625
1289.822266	67721.132813
1288.726563	68283.125000
1287.630859	67461.625000
1286.534180	67509.250000
1285.437500	66575.164063
1284.340820	67141.375000
1283.244141	66792.507813
1282.146484	66169.125000
1281.048828	65590.250000
1279.951172	65903.820313
1278.853516	65464.660156
1277.755859	65127.460938
1276.658203	64916.507813
1275.559570	64550.761719
1274.460938	64266.988281
1273.362305	64175.722656
1272.262695	63973.929688
1271.164063	63933.593750
1270.064453	63968.421875
1268.964844	63384.441406
1267.865234	63317.707031
1266.765625	63052.171875
1265.665039	63290.332031
1264.564453	62532.425781
1263.463867	62651.355469
1262.363281	62626.750000
1261.262695	62434.402344
1260.161133	61922.140625
1259.059570	62217.593750
1257.958008	62113.660156
1256.856445	62183.996094
1255.754883	62038.199219
1254.652344	62060.019531
1253.549805	61574.816406
1252.447266	61409.367188
1251.344727	61089.722656
1250.242188	60882.554688
1249.138672	61303.250000
1248.035156	61173.195313
1246.931641	60825.191406
1245.828125	60957.253906
1244.724609	61487.679688
1243.620117	61150.800781
1242.515625	61058.285156
1241.411133	60715.003906
1240.306641	61535.421875
1239.201172	61341.718750
1238.096680	61623.015625
1236.991211	61618.421875
1235.885742	61651.191406
1234.779297	61778.441406
1233.673828	61406.886719
1232.567383	61654.953125
1231.460938	61327.472656
1230.354492	61257.042969
1229.248047	61390.820313
1228.140625	61048.195313
1227.033203	61256.582031
1225.926758	61427.585938
1224.818359	61585.363281
1223.710938	61150.808594
1222.602539	61231.808594
1221.495117	61512.324219
1220.386719	61299.441406
1219.278320	60792.910156
1218.168945	60672.277344
1217.060547	60810.250000
1215.951172	60336.937500
1214.841797	60407.011719
1213.731445	60374.128906
1212.622070	60851.437500
1211.511719	60693.695313
1210.402344	61179.519531
1209.291992	60883.898438
1208.180664	61319.179688
1207.070313	61185.523438
1205.958984	61285.941406
1204.847656	61268.234375
1203.736328	61567.558594
1202.625000	61551.988281
1201.512695	61838.035156
1200.401367	62095.570313
1199.289063	62029.648438
1198.176758	62228.070313
1197.063477	62734.363281
1195.951172	62797.191406
1194.837891	62482.289063
1193.724609	62988.253906
1192.611328	62867.664063
1191.498047	63022.058594
1190.383789	62977.859375
1189.269531	62709.007813
1188.155273	62409.718750
1187.041016	62086.546875
1185.926758	61863.777344
1184.811523	61791.480469
1183.696289	61538.328125
1182.581055	61618.636719
1181.465820	61204.394531
1180.350586	61750.835938
1179.234375	60938.203125
1178.118164	61231.921875
1177.001953	61037.910156
1175.885742	61355.441406
1174.768555	60787.179688
1173.652344	60349.667969
1172.535156	61424.148438
1171.417969	60745.257813
1170.299805	60227.527344
