#Wave		#Intensity
2001.221680	42502.964844
2000.251953	42189.652344
1999.282227	42147.199219
1998.312500	42362.843750
1997.342773	42726.218750
1996.372070	42207.789063
1995.402344	42388.242188
1994.431641	42641.246094
1993.460938	42471.078125
1992.490234	42361.035156
1991.518555	42431.218750
1990.547852	42521.394531
1989.576172	42581.511719
1988.604492	42674.125000
1987.632813	42824.226563
1986.661133	42391.679688
1985.689453	42576.769531
1984.716797	42479.347656
1983.745117	42554.398438
1982.772461	42674.394531
1981.799805	42467.082031
1980.827148	42307.296875
1979.853516	42547.140625
1978.880859	42629.593750
1977.907227	42355.023438
1976.933594	42422.503906
1975.959961	42619.726563
1974.986328	42989.046875
1974.011719	43176.121094
1973.038086	42517.566406
1972.063477	42614.875000
1971.088867	42365.566406
1970.114258	42535.160156
1969.138672	42836.800781
1968.164063	42784.453125
1967.188477	43013.679688
1966.212891	42869.140625
1965.237305	42644.945313
1964.261719	42385.960938
1963.286133	42864.085938
1962.309570	42256.621094
1961.333984	42682.324219
1960.357422	42565.359375
1959.380859	42687.300781
1958.404297	42682.324219
1957.426758	43047.953125
1956.450195	42809.140625
1955.472656	42836.464844
1954.495117	42600.253906
1953.517578	42217.480469
1952.540039	43181.781250
1951.561523	42548.082031
1950.583008	42739.378906
1949.605469	42731.898438
1948.626953	42729.386719
1947.647461	42995.035156
1946.668945	42919.394531
1945.690430	42843.750000
1944.710938	42768.035156
1943.731445	42692.316406
1942.751953	42616.597656
1941.772461	42540.882813
1940.791992	42465.089844
1939.812500	42389.371094
1938.832031	42590.187500
1937.851563	42758.710938
1936.871094	42860.265625
1935.890625	43125.312500
1934.909180	43083.078125
1933.928711	42847.656250
1932.947266	42594.984375
1931.965820	42681.613281
1930.984375	43087.558594
1930.002930	42834.972656
1929.020508	42953.675781
1928.038086	42785.324219
1927.056641	42592.289063
1926.074219	42911.316406
1925.090820	42980.460938
1924.108398	42836.937500
1923.125000	42925.843750
1922.142578	42992.472656
1921.159180	42708.156250
1920.175781	43157.773438
1919.191406	42898.230469
1918.208008	43043.847656
1917.223633	42794.289063
1916.240234	42880.613281
1915.255859	43060.714844
1914.271484	42976.648438
1913.286133	42902.484375
1912.301758	43173.773438
1911.316406	43144.000000
1910.331055	43185.765625
1909.345703	42842.808594
1908.360352	42951.179688
1907.375000	42699.593750
1906.388672	43079.070313
1905.402344	42765.937500
1904.416016	42812.644531
1903.429688	43046.550781
1902.443359	43179.394531
1901.457031	43610.160156
1900.469727	43255.343750
1899.482422	43117.285156
1898.495117	43473.992188
1897.507813	42984.031250
1896.520508	43129.035156
1895.532227	43256.769531
1894.543945	43202.445313
1893.556641	43246.503906
1892.568359	43642.144531
1891.579102	43337.031250
1890.590820	43309.761719
1889.601563	43257.925781
1888.613281	43070.972656
1887.624023	43267.304688
1886.634766	43033.746094
1885.644531	43966.718750
1884.655273	43490.046875
1883.665039	43629.699219
1882.674805	43597.492188
1881.684570	43621.738281
1880.694336	43925.675781
1879.704102	43527.917969
1878.712891	43515.367188
1877.722656	43618.078125
1876.731445	43657.000000
1875.740234	43955.753906
1874.748047	43724.996094
1873.756836	43646.250000
1872.764648	44442.210938
1871.773438	44150.242188
1870.781250	43772.648438
1869.788086	43931.476563
1868.795898	43580.984375
1867.803711	43565.980469
1866.810547	43795.734375
1865.817383	43981.355469
1864.824219	43963.839844
1863.831055	43912.082031
1862.837891	43897.023438
1861.843750	43383.117188
1860.849609	43891.371094
1859.855469	44047.437500
1858.861328	44357.421875
1857.867188	44171.238281
1856.872070	44139.039063
1855.877930	44316.929688
1854.882813	43622.835938
1853.887695	44494.253906
1852.892578	44105.554688
1851.896484	44195.441406
1850.901367	44209.632813
1849.905273	44196.976563
1848.909180	44274.593750
1847.913086	44425.363281
1846.916992	43807.820313
1845.919922	44239.039063
1844.923828	44572.585938
1843.926758	44033.339844
1842.929688	44700.695313
1841.932617	44856.093750
1840.935547	44356.058594
1839.937500	44881.718750
1838.939453	44666.804688
1837.942383	44792.871094
1836.943359	44736.292969
1835.945313	44774.667969
1834.947266	44851.968750
1833.948242	44885.441406
1832.949219	44561.257813
1831.951172	44818.554688
1830.951172	44856.871094
1829.952148	44953.535156
1828.953125	44690.343750
1827.953125	45285.304688
1826.953125	44856.878906
1825.953125	45213.468750
1824.953125	45237.089844
1823.952148	44864.761719
1822.952148	45277.011719
1821.951172	45269.039063
1820.950195	45258.636719
1819.949219	45359.894531
1818.948242	45349.476563
1817.946289	45358.468750
1816.945313	45234.027344
1815.943359	45034.429688
1814.941406	45715.257813
1813.939453	45304.687500
1812.936523	45371.855469
1811.934570	45470.515625
1810.931641	45319.511719
1809.928711	45856.718750
1808.925781	45286.578125
1807.921875	45637.085938
1806.918945	45309.363281
1805.915039	45560.460938
1804.912109	45441.066406
1803.908203	45687.210938
1802.903320	46020.386719
1801.899414	45900.964844
1800.894531	46064.636719
1799.890625	46107.308594
1798.885742	46275.718750
1797.880859	45970.152344
1796.875000	45911.273438
1795.870117	46219.816406
1794.864258	46455.750000
1793.858398	46297.746094
1792.852539	46393.457031
1791.846680	46165.472656
1790.840820	46055.898438
1789.833984	46632.093750
1788.828125	46877.347656
1787.821289	46634.949219
1786.814453	47140.742188
1785.806641	46997.304688
1784.799805	46906.988281
1783.791992	46843.234375
1782.784180	47498.144531
1781.776367	47224.539063
1780.768555	47143.878906
1779.760742	47002.992188
1778.751953	47823.687500
1777.743164	47371.906250
1776.735352	47597.218750
1775.725586	47196.214844
1774.716797	47293.839844
1773.708008	47721.289063
1772.698242	48085.992188
1771.688477	47925.867188
1770.678711	47878.898438
1769.668945	47807.886719
1768.659180	48023.164063
1767.648438	48738.640625
1766.637695	48270.722656
1765.626953	48252.578125
1764.616211	48258.476563
1763.605469	48535.964844
1762.593750	48628.316406
1761.583008	48900.832031
1760.571289	48678.394531
1759.559570	48643.375000
1758.547852	48368.226563
1757.535156	48928.699219
1756.523438	49088.089844
1755.510742	48882.605469
1754.498047	49164.324219
1753.485352	49174.828125
1752.472656	49547.546875
1751.458984	49402.078125
1750.445313	49263.855469
1749.432617	49657.929688
1748.417969	49270.406250
1747.404297	50486.406250
1746.390625	49998.222656
1745.375977	50502.093750
1744.361328	50102.707031
1743.346680	50623.140625
1742.332031	50269.367188
1741.317383	50698.605469
1740.302734	50799.750000
1739.287109	51410.628906
1738.271484	51152.675781
1737.255859	51181.906250
1736.240234	51550.792969
1735.223633	52146.750000
1734.208008	52371.859375
1733.191406	52568.195313
1732.174805	52673.632813
1731.158203	53204.429688
1730.140625	53498.480469
1729.124023	53720.753906
1728.106445	54198.531250
1727.088867	54091.019531
1726.071289	54680.785156
1725.053711	54520.699219
1724.035156	55007.535156
1723.017578	55642.160156
1721.999023	55527.320313
1720.980469	55362.417969
1719.961914	55533.894531
1718.942383	55943.792969
1717.923828	56351.160156
1716.904297	55785.707031
1715.884766	56448.000000
1714.865234	55815.996094
1713.844727	56563.820313
1712.825195	56101.160156
1711.804688	56336.554688
1710.784180	56119.386719
1709.763672	56173.734375
1708.743164	56361.375000
1707.722656	56632.250000
1706.701172	56160.539063
1705.679688	56695.460938
1704.658203	56150.152344
1703.636719	56159.226563
1702.615234	55854.390625
1701.592773	56013.304688
1700.571289	55651.542969
1699.548828	55285.152344
1698.526367	56176.011719
1697.502930	55602.945313
1696.480469	54851.910156
1695.457031	55264.960938
1694.433594	55373.898438
1693.410156	55644.246094
1692.386719	55425.476563
1691.363281	55095.230469
1690.338867	55439.042969
1689.314453	55329.562500
1688.290039	55001.871094
1687.265625	55205.578125
1686.241211	55447.148438
1685.215820	55238.152344
1684.191406	55927.656250
1683.166016	55303.878906
1682.140625	55249.042969
1681.115234	55971.339844
1680.088867	56281.203125
1679.062500	55844.902344
1678.037109	55865.773438
1677.010742	56050.000000
1675.983398	56333.582031
1674.957031	56207.613281
1673.930664	56412.968750
1672.903320	56717.621094
1671.875977	56454.445313
1670.848633	57231.988281
1669.820313	56585.742188
1668.792969	56708.089844
1667.764648	57527.714844
1666.736328	56380.714844
1665.708008	57039.421875
1664.679688	58023.917969
1663.651367	57496.312500
1662.622070	57200.335938
1661.592773	57409.773438
1660.563477	57798.562500
1659.534180	57762.332031
1658.504883	57782.750000
1657.474609	58199.574219
1656.444336	58196.312500
1655.415039	58336.933594
1654.383789	58578.910156
1653.353516	58568.500000
1652.323242	59168.687500
1651.291992	59332.597656
1650.260742	59095.812500
1649.229492	59580.125000
1648.198242	59849.878906
1647.166016	60083.597656
1646.134766	60317.093750
1645.102539	60550.812500
1644.070313	60784.531250
1643.038086	61018.250000
1642.004883	61252.187500
1640.972656	61384.824219
1639.939453	61286.867188
1638.906250	61852.226563
1637.873047	62222.191406
1636.839844	62552.054688
1635.805664	62477.457031
1634.772461	62431.089844
1633.738281	63230.726563
1632.704102	63825.664063
1631.668945	64183.125000
1630.634766	64284.445313
1629.599609	64770.851563
1628.565430	65149.074219
1627.530273	65050.628906
1626.494141	65602.343750
1625.458984	66050.609375
1624.422852	67127.500000
1623.387695	67399.390625
1622.351563	68642.179688
1621.315430	69230.265625
1620.278320	70052.601563
1619.242188	72105.312500
1618.205078	74286.187500
1617.167969	75568.804688
1616.130859	77769.367188
1615.093750	79873.101563
1614.055664	82472.593750
1613.018555	83780.929688
1611.980469	85304.179688
1610.942383	85839.078125
1609.904297	86743.554688
1608.865234	86636.843750
1607.827148	85461.007813
1606.788086	83824.773438
1605.749023	82376.210938
1604.709961	79992.851563
1603.669922	78617.960938
1602.630859	77720.398438
1601.590820	76624.500000
1600.550781	74914.460938
1599.510742	74933.820313
1598.470703	74329.515625
1597.429688	74365.312500
1596.389648	73714.609375
1595.348633	73465.687500
1594.307617	73142.156250
1593.265625	73700.875000
1592.224609	73503.406250
1591.182617	73247.687500
1590.140625	72558.218750
1589.098633	72979.039063
1588.056641	72854.109375
1587.014648	72465.796875
1585.971680	72513.476563
1584.928711	71768.804688
1583.886719	72065.890625
1582.842773	72115.937500
1581.799805	72184.593750
1580.755859	72479.109375
1579.712891	72102.968750
1578.668945	72062.171875
1577.625000	71865.445313
1576.580078	72750.875000
1575.536133	71974.750000
1574.491211	72980.796875
1573.446289	72849.164063
1572.401367	73324.500000
1571.356445	73557.859375
1570.311523	73544.734375
1569.265625	73496.750000
1568.219727	73767.125000
1567.173828	73273.031250
1566.127930	73266.921875
1565.082031	73128.429688
1564.035156	73277.921875
1562.988281	72858.546875
1561.941406	72956.960938
1560.894531	72807.007813
1559.847656	72220.859375
1558.799805	72945.726563
1557.751953	72577.804688
1556.704102	72244.796875
1555.656250	72656.226563
1554.608398	72506.468750
1553.560547	72366.031250
1552.511719	72649.750000
1551.462891	72106.156250
1550.414063	72123.390625
1549.365234	72156.828125
1548.315430	72046.671875
1547.265625	72522.359375
1546.216797	71831.093750
1545.166992	72584.406250
1544.116211	72432.578125
1543.066406	71880.523438
1542.015625	72080.507813
1540.965820	72032.929688
1539.915039	72595.882813
1538.863281	72046.484375
1537.812500	71340.085938
1536.760742	70770.304688
1535.709961	71316.890625
1534.658203	70342.976563
1533.605469	70037.023438
1532.553711	69571.804688
1531.501953	69873.421875
1530.449219	70181.859375
1529.396484	69273.632813
1528.343750	68656.546875
1527.290039	68831.179688
1526.237305	68230.539063
1525.183594	68698.140625
1524.129883	67495.765625
1523.076172	67502.140625
1522.022461	67015.125000
1520.968750	66846.382813
1519.914063	66901.265625
1518.859375	67142.765625
1517.804688	66531.742188
1516.750000	66676.468750
1515.694336	66279.921875
1514.639648	66811.492188
1513.583984	65869.421875
1512.528320	65988.835938
1511.472656	65590.390625
1510.416016	65799.546875
1509.360352	65967.210938
1508.303711	65536.765625
1507.247070	65161.671875
1506.190430	65304.062500
1505.132813	64607.281250
1504.076172	65149.660156
1503.018555	64250.917969
1501.960938	64149.800781
1500.903320	64848.175781
1499.844727	63853.492188
1498.787109	64280.683594
1497.728516	64207.175781
1496.669922	64090.070313
1495.611328	63933.992188
1494.552734	63966.136719
1493.493164	63608.218750
1492.434570	63865.222656
1491.375000	63670.289063
1490.315430	63397.457031
1489.254883	63365.460938
1488.195313	63846.960938
1487.134766	63507.769531
1486.074219	63127.449219
1485.013672	62664.781250
1483.953125	62864.292969
1482.892578	63047.699219
1481.831055	63528.726563
1480.769531	62803.015625
1479.708008	63000.062500
1478.646484	62592.824219
1477.583984	63032.386719
1476.522461	63135.476563
1475.459961	62399.035156
1474.397461	63110.546875
1473.334961	62735.656250
1472.271484	62651.242188
1471.208984	62896.015625
1470.145508	62811.597656
1469.082031	62475.863281
1468.018555	62638.281250
1466.954102	62921.699219
1465.890625	63047.437500
1464.826172	62995.023438
1463.761719	63328.441406
1462.697266	62785.250000
1461.631836	63323.968750
1460.567383	62840.292969
1459.501953	63235.082031
1458.436523	62820.015625
1457.371094	63283.078125
1456.305664	63319.597656
1455.239258	62993.640625
1454.172852	63014.238281
1453.107422	63137.375000
1452.040039	62980.222656
1450.973633	63073.699219
1449.907227	63269.636719
1448.839844	63219.562500
1447.772461	63215.039063
1446.705078	63271.976563
1445.637695	63531.453125
1444.569336	63262.902344
1443.500977	63504.078125
1442.432617	63908.949219
1441.364258	63540.394531
1440.295898	64011.054688
1439.227539	64279.195313
1438.158203	64424.488281
1437.088867	64578.820313
1436.019531	65030.761719
1434.950195	64898.664063
1433.879883	64482.679688
1432.810547	65290.945313
1431.740234	65458.589844
1430.669922	65694.281250
1429.598633	65457.757813
1428.528320	65954.343750
1427.457031	65781.382813
1426.386719	65529.082031
1425.314453	65710.101563
1424.243164	65829.812500
1423.171875	66119.539063
1422.099609	66357.015625
1421.027344	66338.281250
1419.955078	66022.687500
1418.882813	66031.203125
1417.810547	65740.687500
1416.737305	65681.296875
1415.664063	65830.265625
1414.590820	65238.800781
1413.517578	65781.679688
1412.444336	64683.445313
1411.370117	64732.906250
1410.295898	65078.734375
1409.221680	65039.878906
1408.147461	64530.601563
1407.073242	64921.496094
1405.998047	64301.632813
1404.922852	64866.480469
1403.847656	64547.433594
1402.772461	65098.468750
1401.697266	64933.121094
1400.621094	65303.175781
1399.544922	64916.515625
1398.468750	65390.304688
1397.392578	65130.191406
1396.316406	65730.164063
1395.239258	66580.429688
1394.162109	66008.851563
1393.084961	66624.132813
1392.007813	67094.828125
1390.930664	67707.429688
1389.852539	68574.593750
1388.774414	68564.492188
1387.696289	69196.773438
1386.618164	69315.015625
1385.540039	69568.398438
1384.460938	69468.007813
1383.382813	70047.851563
1382.303711	69834.804688
1381.223633	70277.031250
1380.144531	70259.859375
1379.064453	70366.484375
1377.985352	70594.585938
1376.905273	70714.609375
1375.825195	70953.804688
1374.744141	70477.695313
1373.664063	69734.164063
1372.583008	70043.093750
1371.501953	69589.882813
1370.420898	69595.312500
1369.338867	68832.242188
1368.257813	68844.539063
1367.175781	68555.835938
1366.093750	67885.437500
1365.011719	68313.296875
1363.929688	68222.398438
1362.846680	68335.789063
1361.763672	67926.234375
1360.680664	68268.507813
1359.597656	67948.835938
1358.514648	68082.375000
1357.430664	68361.625000
1356.346680	67465.859375
1355.262695	67128.625000
1354.178711	66925.992188
1353.094727	66281.953125
1352.009766	66523.171875
1350.925781	66175.132813
1349.840820	65565.171875
1348.755859	66173.640625
1347.669922	65854.953125
1346.584961	65603.539063
1345.499023	65372.351563
1344.413086	65552.992188
1343.327148	64563.429688
1342.240234	64985.742188
1341.154297	64627.339844
1340.067383	64546.347656
1338.980469	64445.257813
1337.893555	64956.687500
1336.805664	64547.132813
1335.718750	65666.148438
1334.630859	64872.339844
1333.542969	64838.281250
1332.455078	65123.597656
1331.367188	65607.539063
1330.278320	65167.039063
1329.189453	65244.546875
1328.100586	65411.292969
1327.011719	65937.210938
1325.922852	65684.359375
1324.833008	66015.984375
1323.743164	66175.765625
1322.653320	67167.164063
1321.563477	67299.921875
1320.473633	67735.765625
1319.382813	67875.054688
1318.291992	68500.007813
1317.201172	69093.546875
1316.110352	69586.648438
1315.019531	70304.476563
1313.927734	70463.195313
1312.835938	70822.203125
1311.744141	71034.187500
1310.652344	70611.890625
1309.560547	70554.617188
1308.467773	70573.000000
1307.375000	70155.453125
1306.282227	69600.187500
1305.189453	68671.617188
1304.095703	69023.734375
1303.002930	69029.023438
1301.909180	68800.992188
1300.815430	68195.367188
1299.721680	68738.335938
1298.626953	68197.335938
1297.533203	68466.984375
1296.438477	68356.906250
1295.343750	68666.375000
1294.248047	68893.625000
1293.153320	68728.046875
1292.057617	69219.187500
1290.961914	68709.820313
1289.866211	69371.531250
1288.770508	69314.625000
1287.674805	69284.335938
1286.578125	69152.101563
1285.481445	70105.757813
1284.384766	69417.296875
1283.288086	69426.875000
1282.190430	68953.617188
1281.092773	68788.328125
1279.996094	69526.414063
1278.897461	68980.335938
1277.799805	68925.789063
1276.702148	68484.015625
1275.603516	68445.054688
1274.504883	68061.031250
1273.406250	67840.804688
1272.307617	68204.414063
1271.208008	67157.398438
1270.108398	67308.796875
1269.008789	67592.734375
1267.909180	67518.609375
1266.809570	67216.960938
1265.708984	66970.640625
1264.609375	66538.906250
1263.508789	66835.960938
1262.407227	66437.507813
1261.306641	66690.320313
1260.206055	66272.179688
1259.104492	65666.640625
1258.002930	65696.640625
1256.901367	65834.703125
1255.798828	65928.609375
1254.697266	65497.738281
1253.594727	65243.371094
1252.492188	65108.109375
1251.389648	65367.339844
1250.286133	65472.246094
1249.183594	64876.625000
1248.080078	64483.835938
1246.976563	64742.976563
1245.872070	65087.882813
1244.768555	64811.925781
1243.664063	64461.238281
1242.560547	65239.480469
1241.455078	64913.035156
1240.350586	64507.523438
1239.246094	64509.003906
1238.140625	64589.640625
1237.035156	64566.921875
1235.929688	64568.382813
1234.824219	64330.304688
1233.717773	64298.847656
1232.612305	63795.082031
1231.505859	63258.554688
1230.399414	63989.312500
1229.291992	63766.910156
1228.185547	64082.410156
1227.078125	63708.625000
1225.970703	63122.117188
1224.863281	63703.027344
1223.755859	63693.644531
1222.647461	62769.695313
1221.539063	63207.816406
1220.430664	63224.828125
1219.322266	63377.738281
1218.213867	63254.445313
1217.104492	62657.890625
1215.995117	62631.164063
1214.885742	62389.785156
1213.776367	62702.566406
1212.666992	62430.597656
1211.556641	62627.222656
1210.446289	62598.324219
1209.335938	62753.261719
1208.225586	63083.183594
1207.115234	63038.894531
1206.003906	63108.355469
1204.892578	63245.582031
1203.781250	63347.773438
1202.669922	62870.621094
1201.557617	62848.253906
1200.446289	63361.281250
1199.333984	63828.234375
1198.221680	63248.660156
1197.108398	63494.871094
1195.996094	64236.675781
1194.882813	64148.574219
1193.769531	64505.800781
1192.656250	64432.953125
1191.542969	64512.871094
1190.428711	64686.570313
1189.314453	64474.117188
1188.200195	64503.816406
1187.085938	64570.566406
1185.971680	64395.304688
1184.856445	63993.414063
1183.741211	63624.359375
1182.625977	64026.761719
1181.510742	64311.375000
1180.395508	64940.023438
1179.279297	64122.445313
1178.163086	64609.371094
1177.046875	64040.312500
1175.930664	64616.304688
1174.813477	63964.753906
1173.697266	64183.726563
1172.580078	63647.777344
1171.462891	63523.082031
1170.344727	63874.656250
