Data from AgNPs_APTES_FTO_UA_100uM_CRN_0uM_R6G_10uM_Scan_RamanShift__69__12-00-11-321.txt Node

Date: Wed Jun 29 12:00:11 BST 2022
User: TCL
Spectrometer: QEP01345
Trigger mode: 4
Integration Time (sec): 7.000000E0
Scans to average: 10
Electric dark correction enabled: true
Nonlinearity correction enabled: false
Boxcar width: 0
XAxis mode: Raman Shifts
Number of Pixels in Spectrum: 1044
>>>>>Begin Spectral Data<<<<<
46.04893	0.675
50.45542	-1.025
54.85868	0.875
59.25871	2.375
63.6555	40.275
68.04907	43.675
72.43941	45.475
76.82654	49.375
81.21044	54.375
85.59113	57.175
89.96862	58.975
94.34289	59.575
98.71396	64.275
103.08183	62.575
107.4465	61.475
111.80798	64.975
116.16626	63.075
120.52136	61.875
124.87327	61.475
129.222	64.775
133.56755	63.575
137.90993	59.375
142.24913	61.175
146.58517	57.875
150.91804	58.275
155.24774	63.875
159.57429	65.875
163.89768	72.575
168.21792	84.475
172.53501	102.975
176.84895	125.375
181.15975	163.275
185.46741	212.075
189.77193	279.775
194.07331	360.675
198.37157	464.875
202.6667	572.475
206.9587	667.875
211.24758	781.575
215.53334	904.775
219.81599	1037.675
224.09553	1183.175
228.37195	1358.675
232.64527	1529.075
236.91549	1701.175
241.18261	1838.475
245.44663	1956.975
249.70755	2033.375
253.96539	2120.375
258.22014	2178.275
262.4718	2222.675
266.72039	2236.175
270.96589	2225.875
275.20832	2164.275
279.44768	2084.175
283.68397	2016.875
287.91719	1979.875
292.14735	1998.475
296.37445	2078.175
300.59849	2223.375
304.81948	2407.475
309.03742	2543.375
313.25231	2567.375
317.46415	2408.175
321.67296	2151.375
325.87872	1939.975
330.08145	1844.075
334.28114	1852.775
338.47781	1919.275
342.67145	2008.475
346.86207	2151.975
351.04966	2365.375
355.23424	2588.775
359.4158	2738.675
363.59435	2785.475
367.76989	2783.475
371.94243	2739.375
376.11196	2692.875
380.27849	2669.275
384.44203	2601.075
388.60257	2544.175
392.76012	2494.275
396.91468	2514.375
401.06626	2574.975
405.21485	2612.375
409.36047	2509.375
413.50311	2295.875
417.64277	2099.875
421.77947	1980.575
425.9132	1933.975
430.04396	1917.575
434.17176	1933.575
438.2966	1952.875
442.41849	2028.075
446.53742	2093.575
450.6534	2138.175
454.76644	2160.575
458.87653	2158.075
462.98368	2109.575
467.08789	2065.175
471.18916	2015.875
475.2875	1957.875
479.38291	1909.875
483.4754	1890.875
487.56496	1873.275
491.6516	1863.875
495.73531	1874.475
499.81612	1881.975
503.89401	1915.975
507.96899	1959.575
512.04106	2028.075
516.11023	2104.675
520.1765	2153.475
524.23987	2150.075
528.30034	2115.775
532.35792	2054.175
536.41261	1995.875
540.46441	1939.975
544.51333	1901.775
548.55936	1903.975
552.60252	1948.475
556.64279	1996.575
560.6802	2033.175
564.71473	2131.475
568.7464	2294.175
572.7752	2338.075
576.80114	2128.175
580.82422	1946.175
584.84444	1864.275
588.86181	1851.775
592.87633	1874.375
596.888	1932.875
600.89682	2084.875
604.9028	2560.175
608.90594	3795.075
612.90624	5308.875
616.90371	4951.375
620.89834	3089.875
624.89015	2246.975
628.87913	2110.675
632.86528	2176.575
636.84862	2250.375
640.82913	2194.775
644.80683	2018.275
648.78172	1912.475
652.75379	1910.775
656.72306	2048.475
660.68952	2189.275
664.65319	2115.075
668.61405	1923.175
672.57211	1838.175
676.52738	1830.775
680.47986	1828.375
684.42955	1800.675
688.37646	1787.875
692.32058	1798.775
696.26192	1833.375
700.20048	1870.875
704.13626	1865.075
708.06928	1867.875
711.99952	1838.675
715.927	1857.675
719.85171	1884.375
723.77365	1900.875
727.69284	1879.975
731.60928	1870.075
735.52295	1866.275
739.43388	1870.675
743.34206	1878.475
747.24749	1872.375
751.15017	1872.875
755.05012	1891.375
758.94733	2105.675
762.8418	2546.775
766.73354	3210.675
770.62254	3825.075
774.50882	4157.475
778.39237	4009.675
782.27321	3326.975
786.15132	2588.875
790.02671	2163.175
793.89938	1985.575
797.76935	1929.875
801.6366	1909.575
805.50115	1887.375
809.36299	1894.875
813.22213	1900.675
817.07857	1881.875
820.93231	1888.575
824.78336	1875.675
828.63172	1887.575
832.47738	1894.875
836.32036	1867.375
840.16066	1845.575
843.99827	1817.575
847.8332	1820.775
851.66546	1816.575
855.49504	1833.275
859.32195	1816.075
863.1462	1810.375
866.96777	1801.475
870.78668	1805.275
874.60293	1819.375
878.41652	1846.675
882.22745	1885.275
886.03573	1894.875
889.84136	1892.375
893.64433	1894.475
897.44466	1890.575
901.24235	1886.075
905.0374	1856.775
908.8298	1810.975
912.61957	1796.075
916.40671	1784.075
920.19121	1782.175
923.97308	1799.475
927.75233	1854.575
931.52895	1912.875
935.30295	1893.475
939.07433	1805.475
942.84309	1736.375
946.60924	1694.075
950.37278	1676.875
954.13371	1675.975
957.89203	1665.475
961.64774	1664.875
965.40086	1657.675
969.15137	1652.575
972.89929	1643.975
976.64461	1647.575
980.38733	1633.175
984.12747	1653.975
987.86502	1662.075
991.59999	1662.675
995.33237	1677.475
999.06217	1707.375
1002.78939	1743.175
1006.51404	1786.675
1010.23611	1831.075
1013.95561	1846.575
1017.67255	1836.575
1021.38692	1809.775
1025.09872	1778.375
1028.80796	1763.175
1032.51465	1761.375
1036.21877	1774.775
1039.92035	1801.175
1043.61937	1812.875
1047.31584	1820.075
1051.00976	1815.075
1054.70114	1802.475
1058.38998	1783.775
1062.07627	1800.075
1065.76003	1792.975
1069.44126	1800.875
1073.11995	1835.375
1076.79611	1892.175
1080.46974	1988.475
1084.14085	2123.575
1087.80943	2209.675
1091.47549	2213.975
1095.13903	2125.875
1098.80005	1994.875
1102.45857	1937.775
1106.11456	1926.675
1109.76805	1988.875
1113.41903	2102.975
1117.06751	2275.075
1120.71348	2514.675
1124.35696	2791.775
1127.99793	2950.575
1131.63641	2821.475
1135.2724	2530.575
1138.90589	2300.475
1142.5369	2162.075
1146.16542	2056.875
1149.79145	1977.775
1153.415	1940.475
1157.03607	1953.875
1160.65467	1990.675
1164.27079	2072.975
1167.88443	2214.675
1171.49561	2439.875
1175.10432	2889.675
1178.71056	3469.375
1182.31434	3943.375
1185.91565	4015.375
1189.51451	3767.175
1193.11091	3389.575
1196.70485	3040.875
1200.29634	2828.575
1203.88538	2665.575
1207.47197	2427.275
1211.05612	2191.875
1214.63782	2050.075
1218.21708	1984.675
1221.79391	1948.175
1225.36829	1929.975
1228.94024	1926.075
1232.50976	1919.075
1236.07685	1935.975
1239.6415	1958.075
1243.20374	1986.875
1246.76355	2012.675
1250.32093	2044.275
1253.8759	2083.075
1257.42845	2175.375
1260.97859	2271.675
1264.52631	2399.775
1268.07163	2505.675
1271.61453	2579.175
1275.15503	2594.075
1278.69312	2569.575
1282.22882	2579.675
1285.76211	2668.075
1289.29301	2818.275
1292.82151	2954.375
1296.34761	3107.575
1299.87133	3398.775
1303.39266	3877.075
1306.9116	4678.675
1310.42815	5437.775
1313.94233	5581.775
1317.45412	4983.275
1320.96354	4160.375
1324.47058	3466.675
1327.97525	2966.475
1331.47754	2703.375
1334.97747	2626.675
1338.47502	2695.575
1341.97022	2927.775
1345.46305	3326.775
1348.95352	3854.575
1352.44163	4504.775
1355.92738	5453.575
1359.41078	6854.675
1362.89183	7858.675
1366.37053	7169.475
1369.84688	5482.575
1373.32088	4202.275
1376.79254	3472.175
1380.26186	3056.675
1383.72883	2761.275
1387.19347	2500.775
1390.65578	2295.675
1394.11575	2147.175
1397.57339	2050.575
1401.0287	2007.375
1404.48168	1986.275
1407.93234	1974.175
1411.38068	1998.175
1414.82669	2045.175
1418.27039	2077.875
1421.71177	2064.875
1425.15083	2053.675
1428.58758	2065.375
1432.02203	2130.975
1435.45416	2174.275
1438.88399	2161.875
1442.31151	2125.875
1445.73673	2142.075
1449.15965	2140.375
1452.58027	2115.375
1455.9986	2073.975
1459.41463	2052.275
1462.82837	2097.175
1466.23982	2179.575
1469.64898	2235.375
1473.05586	2280.075
1476.46045	2281.575
1479.86276	2337.475
1483.26279	2427.675
1486.66054	2578.575
1490.05602	2769.475
1493.44922	3094.175
1496.84016	3568.875
1500.22882	4345.175
1503.61521	5452.775
1506.99934	6725.075
1510.38121	7674.575
1513.76081	7661.975
1517.13816	6656.975
1520.51324	5216.875
1523.88607	4027.075
1527.25665	3285.575
1530.62498	2921.975
1533.99105	2700.875
1537.35488	2578.175
1540.71647	2519.375
1544.07581	2528.975
1547.4329	2559.775
1550.78776	2627.875
1554.14038	2670.275
1557.49077	2720.675
1560.83892	2789.475
1564.18484	2961.075
1567.52853	3194.375
1570.86999	3412.675
1574.20922	3499.175
1577.54624	3420.175
1580.88103	3080.575
1584.2136	2659.275
1587.54395	2384.075
1590.87208	2328.875
1594.19801	2443.775
1597.52172	2655.475
1600.84321	2730.675
1604.16251	2614.075
1607.47959	2444.375
1610.79447	2258.975
1614.10715	2088.875
1617.41763	1980.875
1620.7259	1917.075
1624.03199	1894.375
1627.33587	1907.175
1630.63757	1976.875
1633.93707	2097.775
1637.23439	2323.375
1640.52951	2712.075
1643.82246	3326.175
1647.11321	4104.475
1650.40179	4615.775
1653.68819	4426.175
1656.97241	3640.375
1660.25446	2862.975
1663.53433	2331.375
1666.81203	2025.175
1670.08756	1860.475
1673.36092	1763.275
1676.63211	1697.475
1679.90115	1650.275
1683.16801	1617.075
1686.43272	1593.775
1689.69527	1574.475
1692.95567	1568.775
1696.2139	1565.175
1699.46999	1564.475
1702.72392	1554.875
1705.97571	1538.675
1709.22535	1530.375
1712.47284	1520.875
1715.71819	1539.975
1718.96139	1522.675
1722.20246	1510.175
1725.44139	1490.975
1728.67818	1482.075
1731.91284	1454.775
1735.14537	1438.275
1738.37576	1441.075
1741.60403	1428.575
1744.83017	1419.575
1748.05418	1419.075
1751.27607	1405.275
1754.49584	1407.875
1757.71349	1404.875
1760.92903	1405.875
1764.14244	1402.275
1767.35375	1395.175
1770.56294	1384.875
1773.77002	1372.475
1776.97499	1360.275
1780.17785	1352.675
1783.37861	1343.375
1786.57727	1337.575
1789.77382	1339.475
1792.96828	1337.375
1796.16064	1324.975
1799.3509	1332.975
1802.53907	1322.975
1805.72514	1318.775
1808.90913	1319.675
1812.09102	1300.375
1815.27083	1304.075
1818.44856	1293.175
1821.6242	1295.275
1824.79776	1293.575
1827.96924	1283.275
1831.13864	1283.575
1834.30597	1280.375
1837.47122	1285.475
1840.6344	1270.075
1843.7955	1274.275
1846.95454	1270.975
1850.11151	1275.275
1853.26642	1271.475
1856.41926	1272.475
1859.57004	1264.075
1862.71876	1265.475
1865.86542	1256.275
1869.01003	1261.275
1872.15258	1264.875
1875.29308	1266.375
1878.43152	1268.675
1881.56792	1258.575
1884.70227	1257.775
1887.83457	1258.175
1890.96482	1253.375
1894.09304	1259.175
1897.21921	1255.575
1900.34335	1248.475
1903.46544	1254.575
1906.58551	1254.675
1909.70353	1245.375
1912.81953	1250.175
1915.93349	1250.675
1919.04543	1255.675
1922.15534	1246.075
1925.26322	1241.275
1928.36908	1238.875
1931.47292	1233.375
1934.57473	1236.075
1937.67453	1228.975
1940.77232	1218.975
1943.86808	1224.775
1946.96184	1215.575
1950.05358	1211.175
1953.14331	1205.475
1956.23103	1203.675
1959.31675	1206.475
1962.40046	1204.075
1965.48217	1203.275
1968.56188	1194.375
1971.63959	1195.675
1974.7153	1195.475
1977.78901	1192.475
1980.86073	1170.575
1983.93046	1176.175
1986.99819	1176.175
1990.06394	1165.575
1993.1277	1162.075
1996.18947	1153.675
1999.24925	1159.875
2002.30706	1148.775
2005.36288	1142.575
2008.41672	1134.475
2011.46859	1140.875
2014.51848	1144.875
2017.56639	1136.275
2020.61233	1135.675
2023.6563	1123.875
2026.6983	1128.675
2029.73833	1128.975
2032.7764	1125.275
2035.8125	1123.375
2038.84664	1113.875
2041.87881	1110.175
2044.90903	1114.175
2047.93729	1102.475
2050.96359	1109.675
2053.98794	1103.875
2057.01034	1105.275
2060.03078	1110.175
2063.04927	1094.675
2066.06582	1103.775
2069.08042	1104.375
2072.09307	1115.275
2075.10378	1097.075
2078.11255	1101.675
2081.11938	1101.475
2084.12426	1106.175
2087.12722	1110.875
2090.12824	1099.775
2093.12732	1099.375
2096.12447	1110.075
2099.11969	1099.375
2102.11299	1106.475
2105.10435	1105.375
2108.09379	1100.175
2111.08131	1103.175
2114.0669	1102.175
2117.05057	1118.675
2120.03233	1118.175
2123.01216	1116.875
2125.99008	1113.875
2128.96609	1118.775
2131.94018	1121.175
2134.91236	1119.275
2137.88263	1123.275
2140.851	1122.075
2143.81746	1118.075
2146.78201	1119.475
2149.74466	1117.175
2152.7054	1117.875
2155.66425	1115.675
2158.6212	1115.475
2161.57625	1107.775
2164.52941	1108.175
2167.48067	1107.475
2170.43004	1109.475
2173.37752	1116.375
2176.32311	1107.775
2179.26681	1113.475
2182.20863	1108.875
2185.14856	1117.475
2188.08661	1117.475
2191.02278	1118.175
2193.95707	1116.075
2196.88948	1103.675
2199.82001	1111.575
2202.74867	1103.975
2205.67545	1101.775
2208.60037	1093.075
2211.52341	1101.975
2214.44458	1102.275
2217.36388	1093.575
2220.28132	1097.075
2223.1969	1092.075
2226.11061	1091.575
2229.02246	1094.575
2231.93245	1082.675
2234.84058	1091.275
2237.74686	1083.475
2240.65128	1084.775
2243.55385	1087.975
2246.45456	1084.475
2249.35343	1082.275
2252.25044	1081.975
2255.14561	1088.175
2258.03893	1098.975
2260.93041	1093.375
2263.82004	1098.275
2266.70783	1090.375
2269.59378	1090.375
2272.4779	1087.575
2275.36017	1076.475
2278.24061	1083.875
2281.11922	1073.175
2283.996	1076.875
2286.87094	1074.775
2289.74405	1067.275
2292.61534	1069.075
2295.4848	1067.875
2298.35243	1063.475
2301.21824	1061.575
2304.08223	1062.475
2306.94439	1063.475
2309.80474	1060.275
2312.66327	1065.475
2315.51999	1068.475
2318.37489	1062.675
2321.22797	1063.175
2324.07925	1059.375
2326.92871	1054.075
2329.77637	1059.175
2332.62222	1058.475
2335.46626	1048.775
2338.3085	1044.675
2341.14893	1053.575
2343.98756	1053.275
2346.8244	1052.875
2349.65943	1053.975
2352.49267	1060.175
2355.32411	1055.175
2358.15376	1067.475
2360.98161	1063.175
2363.80768	1070.575
2366.63195	1076.775
2369.45444	1077.475
2372.27514	1079.375
2375.09405	1086.775
2377.91118	1079.275
2380.72652	1073.675
2383.54009	1068.175
2386.35187	1062.875
2389.16188	1058.675
2391.97011	1057.775
2394.77657	1056.075
2397.58125	1041.575
2400.38416	1041.075
2403.18529	1038.675
2405.98466	1035.675
2408.78226	1037.975
2411.57809	1026.075
2414.37216	1035.275
2417.16446	1026.975
2419.955	1030.175
2422.74378	1030.475
2425.5308	1033.975
2428.31606	1040.875
2431.09956	1036.275
2433.88131	1033.875
2436.6613	1036.675
2439.43954	1038.875
2442.21603	1033.475
2444.99077	1036.775
2447.76377	1045.175
2450.53501	1046.875
2453.30451	1049.975
2456.07226	1043.175
2458.83827	1042.475
2461.60254	1038.475
2464.36507	1038.175
2467.12586	1038.275
2469.88492	1034.675
2472.64224	1034.875
2475.39782	1039.875
2478.15167	1044.375
2480.90379	1048.275
2483.65417	1059.275
2486.40283	1061.275
2489.14976	1065.175
2491.89497	1061.275
2494.63845	1065.275
2497.3802	1060.175
2500.12024	1062.775
2502.85855	1055.975
2505.59514	1044.475
2508.33002	1043.175
2511.06318	1033.575
2513.79462	1035.275
2516.52435	1026.175
2519.25237	1024.875
2521.97867	1015.775
2524.70327	1019.975
2527.42616	1015.675
2530.14734	1014.975
2532.86681	1011.475
2535.58458	1016.175
2538.30065	1017.675
2541.01501	1010.475
2543.72768	1019.775
2546.43864	1019.975
2549.14791	1013.075
2551.85548	1024.975
2554.56136	1020.375
2557.26554	1010.875
2559.96803	1011.475
2562.66883	1016.175
2565.36794	1015.975
2568.06536	1007.875
2570.7611	1010.175
2573.45514	998.675
2576.14751	1001.875
2578.83819	998.275
2581.52719	1004.975
2584.21451	994.975
2586.90015	994.675
2589.58411	991.475
2592.2664	996.775
2594.94701	999.075
2597.62594	998.575
2600.30321	1000.875
2602.9788	995.475
2605.65273	992.575
2608.32498	994.075
2610.99557	987.175
2613.66449	992.475
2616.33175	995.875
2618.99734	996.775
2621.66128	988.875
2624.32355	986.775
2626.98416	990.275
2629.64311	983.675
2632.30041	987.575
2634.95605	976.475
2637.61004	982.275
2640.26238	979.875
2642.91306	982.375
2645.56209	972.275
2648.20948	976.575
2650.85521	970.775
2653.4993	980.275
2656.14175	979.575
2658.78255	981.175
2661.42171	976.275
2664.05923	983.075
2666.6951	982.975
2669.32934	983.475
2671.96194	994.575
2674.59291	987.675
2677.22224	981.275
2679.84993	994.075
2682.476	987.775
2685.10043	997.175
2687.72324	993.175
2690.34441	983.175
2692.96396	989.575
2695.58188	994.075
2698.19818	983.475
2700.81285	989.575
2703.4259	994.675
2706.03733	997.475
2708.64714	982.975
2711.25533	989.875
2713.86191	993.575
2716.46687	999.075
2719.07021	999.575
2721.67194	1006.375
2724.27206	998.675
2726.87057	1001.375
2729.46747	1010.575
2732.06276	1005.975
2734.65644	1002.975
2737.24852	1004.075
2739.83899	1003.675
2742.42786	1001.975
2745.01513	1000.475
2747.60079	995.075
2750.18486	991.175
2752.76733	989.875
2755.3482	993.475
2757.92747	992.975
2760.50515	990.675
2763.08123	987.575
2765.65573	985.975
2768.22863	983.175
2770.79994	978.775
2773.36967	988.475
2775.9378	986.575
2778.50435	989.775
2781.06932	987.475
2783.6327	985.675
2786.1945	989.275
2788.75471	986.675
2791.31335	989.275
2793.87041	995.575
2796.42589	992.575
2798.97979	988.475
2801.53212	985.675
2804.08288	987.675
2806.63206	982.775
2809.17967	984.875
2811.72571	991.875
2814.27018	1000.075
2816.81308	992.875
2819.35442	992.475
2821.89419	991.275
2824.43239	1003.175
2826.96904	1009.175
2829.50412	999.075
2832.03763	1000.675
2834.56959	1005.375
2837.1	1000.675
2839.62884	999.575
2842.15613	1002.075
2844.68186	1002.775
2847.20604	1009.875
2849.72867	1008.775
2852.24974	1018.275
2854.76927	1023.975
2857.28724	1033.475
2859.80367	1028.375
2862.31855	1031.875
2864.83189	1032.375
2867.34368	1036.775
2869.85393	1036.375
2872.36264	1035.475
2874.8698	1036.575
2877.37543	1035.175
2879.87952	1031.875
2882.38207	1029.375
2884.88308	1031.975
2887.38256	1026.275
2889.88051	1031.875
2892.37692	1031.775
2894.8718	1037.175
2897.36515	1037.775
2899.85698	1036.375
2902.34727	1035.475
2904.83604	1042.275
2907.32328	1036.475
2909.809	1037.975
2912.29319	1039.075
2914.77587	1033.075
2917.25702	1035.575
2919.73665	1038.275
2922.21476	1039.875
2924.69136	1029.675
2927.16644	1033.075
2929.64	1038.275
2932.11205	1041.075
2934.58258	1025.375
2937.05161	1028.375
2939.51912	1032.675
2941.98513	1028.075
2944.44962	1030.675
2946.91261	1031.175
2949.37409	1026.375
2951.83407	1032.775
2954.29254	1028.775
2956.74951	1032.275
2959.20498	1031.675
2961.65895	1034.975
2964.11142	1030.275
2966.56239	1025.975
2969.01186	1025.275
2971.45984	1031.875
2973.90632	1031.175
2976.35131	1026.775
2978.7948	1029.675
2981.23681	1031.575
2983.67732	1023.275
2986.11635	1022.475
2988.55388	1018.975
2990.98993	1010.475
2993.4245	1019.775
2995.85758	1016.775
2998.28917	1025.675
3000.71928	1022.875
3003.14791	1020.675
3005.57506	1032.375
3008.00073	1019.575
3010.42493	1021.475
3012.84764	1024.775
3015.26888	1030.875
3017.68865	1031.375
3020.10694	1028.575
3022.52376	1029.575
3024.9391	1030.875
3027.35298	1037.275
3029.76539	1036.375
3032.17632	1034.275
3034.5858	1038.075
3036.9938	1032.375
3039.40034	1038.275
3041.80542	1033.575
3044.20903	1047.175
3046.61118	1050.275
3049.01187	1047.775
3051.4111	1052.675
3053.80888	1061.875
3056.20519	1059.175
3058.60005	1053.375
3060.99345	1060.575
3063.3854	1057.675
3065.7759	1059.675
3068.16494	1062.075
3070.55254	1067.375
3072.93868	1068.975
3075.32338	1064.175
3077.70662	1062.575
3080.08842	1068.975
3082.46878	1070.475
3084.84769	1076.575
3087.22515	1078.875
3089.60118	1083.475
3091.97576	1088.275
3094.3489	1097.675
3096.72061	1093.375
3099.09087	1104.675
3101.4597	1117.575
3103.82709	1119.575
3106.19305	1131.275
3108.55757	1134.475
3110.92066	1139.975
3113.28232	1141.775
3115.64255	1142.575
3118.00134	1153.975
3120.35871	1160.075
3122.71466	1162.575
3125.06917	1163.575
3127.42226	1166.675
3129.77393	1180.875
3132.12417	1182.275
3134.47299	1184.775
3136.82039	1192.075
3139.16636	1191.875
3141.51092	1210.675
3143.85406	1214.775
3146.19579	1220.375
3148.53609	1217.075
3150.87499	1237.775
3153.21246	1243.975
3155.54853	1255.275
3157.88318	1253.075
3160.21642	1276.975
3162.54826	1281.675
3164.87868	1289.475
3167.2077	1299.475
3169.5353	1293.375
3171.86151	1305.775
3174.18631	1310.975
3176.5097	1317.475
3178.83169	1323.675
3181.15228	1335.975
3183.47147	1344.375
3185.78926	1335.575
3188.10565	1352.375
3190.42065	1357.175
3192.73424	1360.275
3195.04645	1353.675
3197.35725	1364.275
3199.66667	1370.475
3201.97469	1380.975
3204.28132	1384.475
3206.58656	1396.675
3208.8904	1399.675
3211.19287	1399.875
3213.49394	1413.675
3215.79363	1422.475
3218.09193	1426.575
3220.38884	1432.775
3222.68438	1433.775
3224.97853	1438.375
3227.2713	1446.475
3229.56269	1440.275
3231.8527	1448.975
3234.14133	1439.675
3236.42858	1434.875
3238.71446	1439.575
3240.99896	1438.575
3243.28209	1450.475
3245.56384	1433.975
3247.84423	1439.575
