Data from AgNPs_APTES_FTO_UA_100uM_CRN_0uM_R6G_10uM_Scan_RamanShift__21__11-04-11-255.txt Node

Date: Wed Jun 29 11:04:11 BST 2022
User: TCL
Spectrometer: QEP01345
Trigger mode: 4
Integration Time (sec): 7.000000E0
Scans to average: 10
Electric dark correction enabled: true
Nonlinearity correction enabled: false
Boxcar width: 0
XAxis mode: Raman Shifts
Number of Pixels in Spectrum: 1044
>>>>>Begin Spectral Data<<<<<
46.04893	-0.3625
50.45542	0.2375
54.85868	0.2375
59.25871	1.7375
63.6555	30.4375
68.04907	31.1375
72.43941	33.9375
76.82654	35.8375
81.21044	35.7375
85.59113	42.7375
89.96862	43.1375
94.34289	47.4375
98.71396	43.6375
103.08183	46.7375
107.4465	47.3375
111.80798	48.6375
116.16626	45.6375
120.52136	44.0375
124.87327	45.5375
129.222	46.6375
133.56755	43.1375
137.90993	40.7375
142.24913	42.9375
146.58517	39.8375
150.91804	39.7375
155.24774	40.9375
159.57429	45.3375
163.89768	46.3375
168.21792	51.0375
172.53501	58.2375
176.84895	69.7375
181.15975	90.4375
185.46741	108.0375
189.77193	136.9375
194.07331	179.1375
198.37157	223.0375
202.6667	271.5375
206.9587	317.2375
211.24758	371.8375
215.53334	418.5375
219.81599	469.8375
224.09553	526.4375
228.37195	590.3375
232.64527	656.3375
236.91549	722.7375
241.18261	786.8375
245.44663	867.9375
249.70755	930.8375
253.96539	962.8375
258.22014	1009.0375
262.4718	1016.1375
266.72039	1024.1375
270.96589	1010.0375
275.20832	992.3375
279.44768	956.8375
283.68397	925.6375
287.91719	899.3375
292.14735	865.6375
296.37445	848.4375
300.59849	834.6375
304.81948	814.1375
309.03742	809.8375
313.25231	798.3375
317.46415	788.9375
321.67296	774.6375
325.87872	761.5375
330.08145	767.6375
334.28114	756.3375
338.47781	765.2375
342.67145	773.4375
346.86207	783.7375
351.04966	798.1375
355.23424	809.2375
359.4158	820.9375
363.59435	819.6375
367.76989	832.0375
371.94243	839.5375
376.11196	843.5375
380.27849	845.6375
384.44203	858.1375
388.60257	861.5375
392.76012	863.3375
396.91468	874.8375
401.06626	890.4375
405.21485	914.0375
409.36047	916.1375
413.50311	1021.5375
417.64277	1206.9375
421.77947	1298.4375
425.9132	1028.7375
430.04396	885.8375
434.17176	885.9375
438.2966	885.6375
442.41849	898.8375
446.53742	905.2375
450.6534	920.2375
454.76644	916.7375
458.87653	928.2375
462.98368	932.3375
467.08789	931.9375
471.18916	934.3375
475.2875	931.1375
479.38291	936.1375
483.4754	942.6375
487.56496	936.6375
491.6516	950.4375
495.73531	947.8375
499.81612	958.5375
503.89401	941.0375
507.96899	946.6375
512.04106	939.8375
516.11023	939.8375
520.1765	930.6375
524.23987	931.1375
528.30034	928.9375
532.35792	923.7375
536.41261	923.6375
540.46441	914.3375
544.51333	916.3375
548.55936	912.6375
552.60252	924.9375
556.64279	914.9375
560.6802	914.1375
564.71473	925.3375
568.7464	928.7375
572.7752	931.4375
576.80114	933.6375
580.82422	928.2375
584.84444	927.2375
588.86181	932.9375
592.87633	938.1375
596.888	939.3375
600.89682	949.3375
604.9028	972.9375
608.90594	1021.9375
612.90624	1077.3375
616.90371	1076.6375
620.89834	1000.4375
624.89015	983.5375
628.87913	983.9375
632.86528	990.7375
636.84862	1003.7375
640.82913	1004.1375
644.80683	1001.0375
648.78172	986.6375
652.75379	994.9375
656.72306	992.6375
660.68952	995.7375
664.65319	1006.8375
668.61405	1002.7375
672.57211	1010.2375
676.52738	1035.3375
680.47986	1043.2375
684.42955	1074.4375
688.37646	1094.4375
692.32058	1076.0375
696.26192	1055.7375
700.20048	1035.1375
704.13626	1014.6375
708.06928	1014.3375
711.99952	1008.1375
715.927	1001.9375
719.85171	1001.3375
723.77365	992.9375
727.69284	994.7375
731.60928	994.6375
735.52295	987.4375
739.43388	989.9375
743.34206	990.9375
747.24749	987.1375
751.15017	989.3375
755.05012	957.3375
758.94733	995.9375
762.8418	1010.8375
766.73354	1032.2375
770.62254	1061.3375
774.50882	1084.4375
778.39237	1072.6375
782.27321	1055.5375
786.15132	1019.8375
790.02671	1011.9375
793.89938	1007.8375
797.76935	1006.2375
801.6366	1013.3375
805.50115	1007.0375
809.36299	1015.9375
813.22213	1011.8375
817.07857	1007.0375
820.93231	1002.4375
824.78336	994.0375
828.63172	983.6375
832.47738	974.4375
836.32036	978.4375
840.16066	976.3375
843.99827	978.7375
847.8332	991.5375
851.66546	984.2375
855.49504	978.9375
859.32195	972.1375
863.1462	975.6375
866.96777	965.5375
870.78668	976.2375
874.60293	978.6375
878.41652	981.5375
882.22745	987.5375
886.03573	982.2375
889.84136	1001.8375
893.64433	1001.6375
897.44466	1002.1375
901.24235	1002.6375
905.0374	997.5375
908.8298	999.6375
912.61957	1008.0375
916.40671	1014.7375
920.19121	1017.5375
923.97308	1021.9375
927.75233	1036.7375
931.52895	1026.3375
935.30295	1021.0375
939.07433	1008.9375
942.84309	995.5375
946.60924	992.9375
950.37278	995.6375
954.13371	980.1375
957.89203	987.3375
961.64774	982.9375
965.40086	966.3375
969.15137	973.5375
972.89929	962.2375
976.64461	963.7375
980.38733	968.5375
984.12747	959.3375
987.86502	960.3375
991.59999	959.4375
995.33237	967.7375
999.06217	964.8375
1002.78939	977.1375
1006.51404	977.4375
1010.23611	978.1375
1013.95561	980.3375
1017.67255	987.8375
1021.38692	984.1375
1025.09872	990.4375
1028.80796	982.4375
1032.51465	982.2375
1036.21877	986.5375
1039.92035	975.1375
1043.61937	982.2375
1047.31584	980.5375
1051.00976	976.4375
1054.70114	979.2375
1058.38998	977.4375
1062.07627	980.1375
1065.76003	982.7375
1069.44126	991.2375
1073.11995	988.1375
1076.79611	994.6375
1080.46974	993.7375
1084.14085	995.2375
1087.80943	992.6375
1091.47549	986.1375
1095.13903	980.9375
1098.80005	974.9375
1102.45857	968.5375
1106.11456	963.8375
1109.76805	967.5375
1113.41903	977.5375
1117.06751	982.5375
1120.71348	998.2375
1124.35696	1014.6375
1127.99793	1043.9375
1131.63641	1059.5375
1135.2724	1059.9375
1138.90589	1058.9375
1142.5369	1042.0375
1146.16542	1047.6375
1149.79145	1021.3375
1153.415	1005.5375
1157.03607	989.4375
1160.65467	994.5375
1164.27079	988.5375
1167.88443	1000.7375
1171.49561	1009.3375
1175.10432	1025.0375
1178.71056	1058.2375
1182.31434	1083.0375
1185.91565	1084.8375
1189.51451	1078.9375
1193.11091	1068.8375
1196.70485	1063.6375
1200.29634	1056.7375
1203.88538	1053.0375
1207.47197	1034.3375
1211.05612	1025.7375
1214.63782	1022.5375
1218.21708	1011.5375
1221.79391	1010.2375
1225.36829	1004.0375
1228.94024	1015.6375
1232.50976	1012.0375
1236.07685	1010.9375
1239.6415	1019.6375
1243.20374	1021.2375
1246.76355	1021.8375
1250.32093	1022.5375
1253.8759	1024.7375
1257.42845	1030.6375
1260.97859	1027.6375
1264.52631	1039.7375
1268.07163	1049.2375
1271.61453	1055.1375
1275.15503	1064.0375
1278.69312	1063.1375
1282.22882	1062.7375
1285.76211	1080.5375
1289.29301	1087.1375
1292.82151	1108.1375
1296.34761	1120.0375
1299.87133	1141.6375
1303.39266	1167.8375
1306.9116	1205.9375
1310.42815	1232.2375
1313.94233	1261.6375
1317.45412	1240.4375
1320.96354	1221.5375
1324.47058	1193.2375
1327.97525	1169.5375
1331.47754	1174.1375
1334.97747	1168.8375
1338.47502	1175.4375
1341.97022	1187.2375
1345.46305	1213.0375
1348.95352	1241.3375
1352.44163	1272.5375
1355.92738	1311.9375
1359.41078	1359.5375
1362.89183	1417.9375
1366.37053	1422.8375
1369.84688	1356.3375
1373.32088	1286.8375
1376.79254	1228.4375
1380.26186	1216.8375
1383.72883	1186.7375
1387.19347	1163.5375
1390.65578	1146.3375
1394.11575	1139.5375
1397.57339	1123.1375
1401.0287	1126.6375
1404.48168	1117.5375
1407.93234	1107.2375
1411.38068	1100.6375
1414.82669	1089.0375
1418.27039	1085.8375
1421.71177	1074.8375
1425.15083	1058.2375
1428.58758	1053.4375
1432.02203	1041.9375
1435.45416	1040.7375
1438.88399	1026.4375
1442.31151	1026.0375
1445.73673	1012.7375
1449.15965	1010.1375
1452.58027	1016.7375
1455.9986	1013.6375
1459.41463	1008.0375
1462.82837	1011.0375
1466.23982	1015.0375
1469.64898	1021.7375
1473.05586	1019.7375
1476.46045	1027.5375
1479.86276	1039.1375
1483.26279	1045.0375
1486.66054	1044.9375
1490.05602	1048.4375
1493.44922	1067.7375
1496.84016	1078.1375
1500.22882	1113.3375
1503.61521	1153.4375
1506.99934	1192.1375
1510.38121	1239.6375
1513.76081	1233.6375
1517.13816	1197.1375
1520.51324	1151.4375
1523.88607	1107.1375
1527.25665	1074.9375
1530.62498	1069.0375
1533.99105	1063.5375
1537.35488	1060.7375
1540.71647	1055.7375
1544.07581	1053.9375
1547.4329	1048.6375
1550.78776	1052.9375
1554.14038	1060.3375
1557.49077	1066.5375
1560.83892	1073.6375
1564.18484	1068.6375
1567.52853	1075.2375
1570.86999	1089.7375
1574.20922	1090.4375
1577.54624	1098.9375
1580.88103	1091.5375
1584.2136	1059.9375
1587.54395	1036.0375
1590.87208	1037.4375
1594.19801	1032.3375
1597.52172	1029.5375
1600.84321	1024.2375
1604.16251	1007.8375
1607.47959	1010.1375
1610.79447	998.5375
1614.10715	985.8375
1617.41763	982.4375
1620.7259	967.0375
1624.03199	977.4375
1627.33587	969.1375
1630.63757	961.8375
1633.93707	956.4375
1637.23439	954.4375
1640.52951	965.0375
1643.82246	969.7375
1647.11321	992.0375
1650.40179	1000.2375
1653.68819	986.6375
1656.97241	952.8375
1660.25446	927.1375
1663.53433	903.8375
1666.81203	882.2375
1670.08756	880.5375
1673.36092	885.5375
1676.63211	888.8375
1679.90115	886.3375
1683.16801	877.5375
1686.43272	872.4375
1689.69527	861.4375
1692.95567	834.3375
1696.2139	795.7375
1699.46999	756.1375
1702.72392	750.6375
1705.97571	753.9375
1709.22535	767.4375
1712.47284	781.7375
1715.71819	796.9375
1718.96139	794.0375
1722.20246	782.0375
1725.44139	775.7375
1728.67818	770.3375
1731.91284	761.7375
1735.14537	758.8375
1738.37576	755.4375
1741.60403	745.8375
1744.83017	732.8375
1748.05418	730.2375
1751.27607	718.7375
1754.49584	701.7375
1757.71349	681.1375
1760.92903	667.4375
1764.14244	666.3375
1767.35375	664.6375
1770.56294	661.2375
1773.77002	673.3375
1776.97499	671.2375
1780.17785	696.1375
1783.37861	703.1375
1786.57727	711.2375
1789.77382	709.3375
1792.96828	709.4375
1796.16064	707.4375
1799.3509	708.9375
1802.53907	710.5375
1805.72514	706.4375
1808.90913	701.5375
1812.09102	706.5375
1815.27083	695.3375
1818.44856	701.1375
1821.6242	697.5375
1824.79776	691.6375
1827.96924	696.4375
1831.13864	699.5375
1834.30597	696.3375
1837.47122	698.6375
1840.6344	695.8375
1843.7955	693.9375
1846.95454	690.7375
1850.11151	686.1375
1853.26642	685.9375
1856.41926	685.1375
1859.57004	690.0375
1862.71876	689.0375
1865.86542	688.1375
1869.01003	690.8375
1872.15258	688.7375
1875.29308	685.1375
1878.43152	684.3375
1881.56792	684.1375
1884.70227	676.4375
1887.83457	674.6375
1890.96482	676.8375
1894.09304	679.7375
1897.21921	673.4375
1900.34335	674.4375
1903.46544	671.6375
1906.58551	677.9375
1909.70353	676.2375
1912.81953	676.4375
1915.93349	675.0375
1919.04543	673.3375
1922.15534	678.2375
1925.26322	674.6375
1928.36908	670.4375
1931.47292	673.1375
1934.57473	670.3375
1937.67453	670.4375
1940.77232	666.2375
1943.86808	669.2375
1946.96184	661.9375
1950.05358	661.3375
1953.14331	657.8375
1956.23103	658.4375
1959.31675	660.1375
1962.40046	651.8375
1965.48217	652.6375
1968.56188	648.8375
1971.63959	653.0375
1974.7153	644.5375
1977.78901	644.0375
1980.86073	650.3375
1983.93046	641.0375
1986.99819	642.2375
1990.06394	638.2375
1993.1277	635.6375
1996.18947	637.4375
1999.24925	638.4375
2002.30706	628.7375
2005.36288	629.7375
2008.41672	624.7375
2011.46859	623.9375
2014.51848	629.6375
2017.56639	622.8375
2020.61233	621.0375
2023.6563	622.3375
2026.6983	613.2375
2029.73833	620.9375
2032.7764	614.1375
2035.8125	625.5375
2038.84664	618.5375
2041.87881	620.7375
2044.90903	617.1375
2047.93729	615.7375
2050.96359	614.6375
2053.98794	614.1375
2057.01034	614.6375
2060.03078	615.4375
2063.04927	616.8375
2066.06582	622.2375
2069.08042	621.3375
2072.09307	625.9375
2075.10378	625.8375
2078.11255	627.4375
2081.11938	629.5375
2084.12426	632.3375
2087.12722	640.7375
2090.12824	639.6375
2093.12732	639.6375
2096.12447	639.8375
2099.11969	649.8375
2102.11299	650.7375
2105.10435	649.1375
2108.09379	652.5375
2111.08131	656.4375
2114.0669	655.1375
2117.05057	661.3375
2120.03233	659.3375
2123.01216	658.3375
2125.99008	656.3375
2128.96609	651.2375
2131.94018	664.7375
2134.91236	655.3375
2137.88263	661.7375
2140.851	650.4375
2143.81746	654.5375
2146.78201	644.6375
2149.74466	646.5375
2152.7054	651.6375
2155.66425	649.1375
2158.6212	647.9375
2161.57625	644.1375
2164.52941	647.7375
2167.48067	645.9375
2170.43004	654.5375
2173.37752	647.5375
2176.32311	645.6375
2179.26681	642.1375
2182.20863	643.1375
2185.14856	638.5375
2188.08661	638.2375
2191.02278	645.0375
2193.95707	641.5375
2196.88948	627.3375
2199.82001	633.1375
2202.74867	627.2375
2205.67545	624.4375
2208.60037	620.3375
2211.52341	623.3375
2214.44458	622.3375
2217.36388	617.9375
2220.28132	613.6375
2223.1969	615.4375
2226.11061	612.9375
2229.02246	617.1375
2231.93245	612.5375
2234.84058	609.8375
2237.74686	608.7375
2240.65128	606.3375
2243.55385	605.4375
2246.45456	604.8375
2249.35343	609.6375
2252.25044	612.6375
2255.14561	605.3375
2258.03893	599.9375
2260.93041	595.8375
2263.82004	598.9375
2266.70783	593.6375
2269.59378	599.3375
2272.4779	593.7375
2275.36017	594.2375
2278.24061	595.8375
2281.11922	593.8375
2283.996	591.8375
2286.87094	594.0375
2289.74405	590.9375
2292.61534	591.7375
2295.4848	586.7375
2298.35243	588.6375
2301.21824	584.8375
2304.08223	595.6375
2306.94439	593.8375
2309.80474	586.3375
2312.66327	586.0375
2315.51999	590.6375
2318.37489	591.0375
2321.22797	582.5375
2324.07925	587.2375
2326.92871	585.5375
2329.77637	592.1375
2332.62222	582.0375
2335.46626	579.6375
2338.3085	578.5375
2341.14893	580.4375
2343.98756	578.5375
2346.8244	575.4375
2349.65943	576.4375
2352.49267	576.4375
2355.32411	570.8375
2358.15376	570.7375
2360.98161	575.8375
2363.80768	578.6375
2366.63195	578.0375
2369.45444	581.1375
2372.27514	583.5375
2375.09405	580.0375
2377.91118	579.0375
2380.72652	579.1375
2383.54009	573.1375
2386.35187	572.0375
2389.16188	571.2375
2391.97011	581.0375
2394.77657	570.9375
2397.58125	576.1375
2400.38416	571.5375
2403.18529	570.5375
2405.98466	572.2375
2408.78226	562.2375
2411.57809	566.0375
2414.37216	567.3375
2417.16446	560.8375
2419.955	565.2375
2422.74378	564.1375
2425.5308	567.4375
2428.31606	566.5375
2431.09956	569.3375
2433.88131	560.9375
2436.6613	558.2375
2439.43954	568.1375
2442.21603	556.1375
2444.99077	565.8375
2447.76377	563.9375
2450.53501	564.6375
2453.30451	567.9375
2456.07226	564.8375
2458.83827	560.4375
2461.60254	558.7375
2464.36507	563.8375
2467.12586	559.7375
2469.88492	562.2375
2472.64224	560.3375
2475.39782	556.4375
2478.15167	549.0375
2480.90379	551.8375
2483.65417	556.2375
2486.40283	558.9375
2489.14976	557.9375
2491.89497	559.3375
2494.63845	546.6375
2497.3802	547.7375
2500.12024	546.8375
2502.85855	549.9375
2505.59514	555.3375
2508.33002	554.4375
2511.06318	555.6375
2513.79462	556.3375
2516.52435	559.0375
2519.25237	553.7375
2521.97867	557.8375
2524.70327	558.4375
2527.42616	552.0375
2530.14734	546.6375
2532.86681	554.9375
2535.58458	551.2375
2538.30065	551.5375
2541.01501	548.5375
2543.72768	544.8375
2546.43864	546.1375
2549.14791	549.1375
2551.85548	552.2375
2554.56136	547.7375
2557.26554	546.1375
2559.96803	542.5375
2562.66883	543.2375
2565.36794	546.0375
2568.06536	543.1375
2570.7611	548.1375
2573.45514	541.8375
2576.14751	537.6375
2578.83819	540.6375
2581.52719	538.6375
2584.21451	542.6375
2586.90015	532.1375
2589.58411	529.4375
2592.2664	535.3375
2594.94701	538.1375
2597.62594	537.6375
2600.30321	538.1375
2602.9788	542.1375
2605.65273	536.2375
2608.32498	533.3375
2610.99557	535.3375
2613.66449	533.4375
2616.33175	537.6375
2618.99734	535.2375
2621.66128	532.8375
2624.32355	523.4375
2626.98416	536.1375
2629.64311	525.0375
2632.30041	538.6375
2634.95605	528.7375
2637.61004	527.4375
2640.26238	534.3375
2642.91306	530.2375
2645.56209	524.0375
2648.20948	525.4375
2650.85521	526.3375
2653.4993	527.8375
2656.14175	533.0375
2658.78255	530.3375
2661.42171	530.9375
2664.05923	526.7375
2666.6951	527.0375
2669.32934	530.3375
2671.96194	530.4375
2674.59291	528.5375
2677.22224	525.1375
2679.84993	530.4375
2682.476	533.0375
2685.10043	528.3375
2687.72324	536.9375
2690.34441	526.5375
2692.96396	526.8375
2695.58188	532.1375
2698.19818	527.8375
2700.81285	525.1375
2703.4259	517.6375
2706.03733	473.0375
2708.64714	502.0375
2711.25533	508.6375
2713.86191	521.2375
2716.46687	533.0375
2719.07021	532.4375
2721.67194	535.4375
2724.27206	534.2375
2726.87057	537.6375
2729.46747	541.2375
2732.06276	537.3375
2734.65644	530.8375
2737.24852	537.5375
2739.83899	539.0375
2742.42786	536.2375
2745.01513	533.8375
2747.60079	542.8375
2750.18486	540.7375
2752.76733	541.7375
2755.3482	532.2375
2757.92747	531.3375
2760.50515	533.0375
2763.08123	528.7375
2765.65573	530.5375
2768.22863	536.1375
2770.79994	528.1375
2773.36967	535.4375
2775.9378	532.2375
2778.50435	530.9375
2781.06932	531.2375
2783.6327	531.3375
2786.1945	527.1375
2788.75471	530.7375
2791.31335	535.5375
2793.87041	531.9375
2796.42589	532.8375
2798.97979	526.4375
2801.53212	527.7375
2804.08288	525.3375
2806.63206	522.2375
2809.17967	519.5375
2811.72571	523.1375
2814.27018	521.4375
2816.81308	517.8375
2819.35442	521.5375
2821.89419	519.7375
2824.43239	519.3375
2826.96904	516.4375
2829.50412	520.5375
2832.03763	521.0375
2834.56959	521.9375
2837.1	521.3375
2839.62884	522.2375
2842.15613	521.3375
2844.68186	515.4375
2847.20604	517.4375
2849.72867	515.3375
2852.24974	518.2375
2854.76927	520.4375
2857.28724	508.8375
2859.80367	506.6375
2862.31855	518.0375
2864.83189	518.0375
2867.34368	516.5375
2869.85393	521.9375
2872.36264	522.8375
2874.8698	525.1375
2877.37543	517.0375
2879.87952	525.1375
2882.38207	521.3375
2884.88308	525.7375
2887.38256	526.9375
2889.88051	525.0375
2892.37692	531.7375
2894.8718	527.7375
2897.36515	531.0375
2899.85698	534.3375
2902.34727	531.5375
2904.83604	534.0375
2907.32328	537.2375
2909.809	541.5375
2912.29319	544.6375
2914.77587	537.0375
2917.25702	549.1375
2919.73665	540.0375
2922.21476	542.5375
2924.69136	548.5375
2927.16644	548.1375
2929.64	545.0375
2932.11205	549.5375
2934.58258	550.1375
2937.05161	548.9375
2939.51912	535.7375
2941.98513	552.6375
2944.44962	553.6375
2946.91261	545.9375
2949.37409	550.6375
2951.83407	550.3375
2954.29254	551.3375
2956.74951	553.8375
2959.20498	554.3375
2961.65895	549.3375
2964.11142	559.8375
2966.56239	552.2375
2969.01186	554.3375
2971.45984	560.0375
2973.90632	555.7375
2976.35131	558.1375
2978.7948	559.0375
2981.23681	559.1375
2983.67732	557.6375
2986.11635	553.7375
2988.55388	563.0375
2990.98993	554.9375
2993.4245	557.7375
2995.85758	560.3375
2998.28917	565.8375
3000.71928	570.8375
3003.14791	561.0375
3005.57506	563.8375
3008.00073	566.6375
3010.42493	560.6375
3012.84764	561.7375
3015.26888	564.4375
3017.68865	570.7375
3020.10694	564.2375
3022.52376	570.9375
3024.9391	573.1375
3027.35298	575.7375
3029.76539	579.9375
3032.17632	580.6375
3034.5858	576.3375
3036.9938	582.0375
3039.40034	584.5375
3041.80542	585.0375
3044.20903	594.6375
3046.61118	595.4375
3049.01187	595.6375
3051.4111	593.3375
3053.80888	596.4375
3056.20519	604.6375
3058.60005	595.6375
3060.99345	609.8375
3063.3854	615.6375
3065.7759	612.6375
3068.16494	611.0375
3070.55254	613.9375
3072.93868	623.6375
3075.32338	627.8375
3077.70662	622.2375
3080.08842	625.7375
3082.46878	629.5375
3084.84769	629.7375
3087.22515	639.3375
3089.60118	643.3375
3091.97576	653.1375
3094.3489	652.3375
3096.72061	654.6375
3099.09087	658.2375
3101.4597	664.1375
3103.82709	672.1375
3106.19305	676.8375
3108.55757	684.2375
3110.92066	686.9375
3113.28232	688.8375
3115.64255	695.4375
3118.00134	698.3375
3120.35871	704.5375
3122.71466	713.1375
3125.06917	716.2375
3127.42226	715.5375
3129.77393	727.7375
3132.12417	729.0375
3134.47299	731.7375
3136.82039	738.3375
3139.16636	744.9375
3141.51092	751.2375
3143.85406	760.5375
3146.19579	762.6375
3148.53609	765.9375
3150.87499	777.4375
3153.21246	788.5375
3155.54853	787.0375
3157.88318	788.9375
3160.21642	804.8375
3162.54826	811.0375
3164.87868	822.9375
3167.2077	825.4375
3169.5353	833.4375
3171.86151	826.7375
3174.18631	840.3375
3176.5097	844.5375
3178.83169	852.9375
3181.15228	864.8375
3183.47147	856.3375
3185.78926	865.1375
3188.10565	867.9375
3190.42065	876.7375
3192.73424	879.6375
3195.04645	883.6375
3197.35725	880.2375
3199.66667	887.8375
3201.97469	895.1375
3204.28132	903.5375
3206.58656	901.0375
3208.8904	910.9375
3211.19287	918.4375
