Data from AgNPs_APTES_FTO_UA_100uM_CRN_0uM_R6G_10uM_Scan_RamanShift__38__11-24-01-279.txt Node

Date: Wed Jun 29 11:24:01 BST 2022
User: TCL
Spectrometer: QEP01345
Trigger mode: 4
Integration Time (sec): 7.000000E0
Scans to average: 10
Electric dark correction enabled: true
Nonlinearity correction enabled: false
Boxcar width: 0
XAxis mode: Raman Shifts
Number of Pixels in Spectrum: 1044
>>>>>Begin Spectral Data<<<<<
46.04893	-0.025
50.45542	0.375
54.85868	0.075
59.25871	0.075
63.6555	37.675
68.04907	40.175
72.43941	42.775
76.82654	44.175
81.21044	47.575
85.59113	51.075
89.96862	56.575
94.34289	55.475
98.71396	56.675
103.08183	59.075
107.4465	57.675
111.80798	59.075
116.16626	56.775
120.52136	57.475
124.87327	58.275
129.222	58.975
133.56755	55.475
137.90993	54.375
142.24913	52.375
146.58517	52.475
150.91804	52.875
155.24774	54.275
159.57429	60.675
163.89768	65.575
168.21792	69.475
172.53501	84.075
176.84895	104.675
181.15975	137.075
185.46741	172.775
189.77193	224.175
194.07331	288.175
198.37157	365.775
202.6667	444.675
206.9587	518.175
211.24758	598.575
215.53334	683.275
219.81599	766.375
224.09553	863.375
228.37195	961.875
232.64527	1075.875
236.91549	1181.775
241.18261	1289.375
245.44663	1376.875
249.70755	1457.475
253.96539	1513.275
258.22014	1552.875
262.4718	1599.875
266.72039	1618.475
270.96589	1632.875
275.20832	1613.975
279.44768	1577.375
283.68397	1549.375
287.91719	1520.375
292.14735	1503.675
296.37445	1504.475
300.59849	1531.675
304.81948	1568.275
309.03742	1595.175
313.25231	1604.175
317.46415	1567.975
321.67296	1509.275
325.87872	1457.375
330.08145	1436.675
334.28114	1447.375
338.47781	1459.875
342.67145	1498.575
346.86207	1518.775
351.04966	1584.775
355.23424	1644.575
359.4158	1694.075
363.59435	1721.475
367.76989	1746.175
371.94243	1747.275
376.11196	1746.975
380.27849	1764.175
384.44203	1764.475
388.60257	1761.275
392.76012	1754.375
396.91468	1780.375
401.06626	1806.475
405.21485	1827.975
409.36047	1799.075
413.50311	1759.775
417.64277	1703.175
421.77947	1672.375
425.9132	1665.475
430.04396	1663.175
434.17176	1675.975
438.2966	1688.575
442.41849	1714.475
446.53742	1748.375
450.6534	1785.575
454.76644	1799.175
458.87653	1797.575
462.98368	1797.975
467.08789	1778.875
471.18916	1754.375
475.2875	1744.375
479.38291	1739.575
483.4754	1738.075
487.56496	1714.675
491.6516	1730.975
495.73531	1728.475
499.81612	1732.875
503.89401	1748.675
507.96899	1743.575
512.04106	1751.175
516.11023	1769.775
520.1765	1786.975
524.23987	1786.575
528.30034	1778.075
532.35792	1777.575
536.41261	1763.575
540.46441	1743.275
544.51333	1721.675
548.55936	1720.775
552.60252	1738.875
556.64279	1754.775
560.6802	1768.275
564.71473	1781.775
568.7464	1820.875
572.7752	1835.175
576.80114	1794.975
580.82422	1766.975
584.84444	1773.575
588.86181	1794.075
592.87633	1832.475
596.888	1854.975
600.89682	1875.475
604.9028	1993.675
608.90594	2338.175
612.90624	2769.375
616.90371	2669.075
620.89834	2154.875
624.89015	1916.475
628.87913	1892.975
632.86528	1937.175
636.84862	1965.975
640.82913	1971.175
644.80683	1910.475
648.78172	1860.575
652.75379	1848.075
656.72306	1872.775
660.68952	1914.175
664.65319	1896.775
668.61405	1838.275
672.57211	1833.475
676.52738	1865.375
680.47986	1892.175
684.42955	1937.675
688.37646	1961.975
692.32058	1951.075
696.26192	1923.975
700.20048	1906.575
704.13626	1887.875
708.06928	1858.575
711.99952	1849.175
715.927	1839.975
719.85171	1828.875
723.77365	1830.975
727.69284	1828.975
731.60928	1822.875
735.52295	1820.875
739.43388	1812.475
743.34206	1814.275
747.24749	1810.875
751.15017	1805.675
755.05012	1779.375
758.94733	1849.675
762.8418	1966.675
766.73354	2170.775
770.62254	2387.575
774.50882	2500.175
778.39237	2437.975
782.27321	2242.175
786.15132	2036.575
790.02671	1910.075
793.89938	1853.675
797.76935	1832.175
801.6366	1832.575
805.50115	1820.375
809.36299	1834.475
813.22213	1829.975
817.07857	1818.675
820.93231	1794.375
824.78336	1797.175
828.63172	1776.075
832.47738	1779.575
836.32036	1775.775
840.16066	1768.575
843.99827	1773.875
847.8332	1765.375
851.66546	1770.675
855.49504	1766.675
859.32195	1775.275
863.1462	1778.775
866.96777	1765.575
870.78668	1778.375
874.60293	1775.175
878.41652	1791.075
882.22745	1804.575
886.03573	1812.575
889.84136	1815.375
893.64433	1803.275
897.44466	1794.475
901.24235	1780.475
905.0374	1760.675
908.8298	1755.575
912.61957	1749.975
916.40671	1745.775
920.19121	1745.675
923.97308	1754.575
927.75233	1769.975
931.52895	1790.775
935.30295	1767.575
939.07433	1747.975
942.84309	1732.675
946.60924	1712.275
950.37278	1727.675
954.13371	1713.575
957.89203	1712.275
961.64774	1711.175
965.40086	1695.075
969.15137	1696.875
972.89929	1684.075
976.64461	1676.875
980.38733	1678.375
984.12747	1676.475
987.86502	1679.875
991.59999	1682.375
995.33237	1690.175
999.06217	1720.875
1002.78939	1721.575
1006.51404	1766.375
1010.23611	1776.575
1013.95561	1792.375
1017.67255	1816.075
1021.38692	1793.675
1025.09872	1791.775
1028.80796	1776.875
1032.51465	1764.575
1036.21877	1766.675
1039.92035	1769.275
1043.61937	1767.475
1047.31584	1767.975
1051.00976	1765.975
1054.70114	1769.975
1058.38998	1765.775
1062.07627	1791.875
1065.76003	1782.675
1069.44126	1809.875
1073.11995	1820.875
1076.79611	1847.175
1080.46974	1872.875
1084.14085	1891.875
1087.80943	1902.675
1091.47549	1898.075
1095.13903	1876.275
1098.80005	1840.675
1102.45857	1806.975
1106.11456	1808.875
1109.76805	1827.775
1113.41903	1845.275
1117.06751	1894.175
1120.71348	1958.375
1124.35696	2036.375
1127.99793	2103.175
1131.63641	2139.175
1135.2724	2118.475
1138.90589	2052.875
1142.5369	2003.375
1146.16542	1947.375
1149.79145	1900.675
1153.415	1858.275
1157.03607	1850.175
1160.65467	1857.175
1164.27079	1884.375
1167.88443	1955.875
1171.49561	2040.075
1175.10432	2185.575
1178.71056	2381.075
1182.31434	2583.475
1185.91565	2619.275
1189.51451	2567.375
1193.11091	2456.875
1196.70485	2344.575
1200.29634	2269.375
1203.88538	2192.775
1207.47197	2104.675
1211.05612	2029.875
1214.63782	1965.475
1218.21708	1942.375
1221.79391	1933.975
1225.36829	1936.775
1228.94024	1929.475
1232.50976	1911.975
1236.07685	1906.275
1239.6415	1897.675
1243.20374	1904.675
1246.76355	1916.175
1250.32093	1917.475
1253.8759	1948.375
1257.42845	1988.975
1260.97859	2023.575
1264.52631	2062.675
1268.07163	2126.675
1271.61453	2168.475
1275.15503	2175.675
1278.69312	2191.175
1282.22882	2207.575
1285.76211	2244.475
1289.29301	2310.975
1292.82151	2377.775
1296.34761	2438.275
1299.87133	2544.475
1303.39266	2696.475
1306.9116	2948.175
1310.42815	3175.075
1313.94233	3287.875
1317.45412	3196.375
1320.96354	2975.675
1324.47058	2761.075
1327.97525	2578.375
1331.47754	2475.175
1334.97747	2429.675
1338.47502	2422.675
1341.97022	2474.675
1345.46305	2569.475
1348.95352	2718.875
1352.44163	2932.675
1355.92738	3204.975
1359.41078	3589.075
1362.89183	3975.175
1366.37053	3913.075
1369.84688	3400.375
1373.32088	2891.875
1376.79254	2608.275
1380.26186	2453.375
1383.72883	2373.475
1387.19347	2287.775
1390.65578	2208.375
1394.11575	2142.875
1397.57339	2096.975
1401.0287	2074.775
1404.48168	2071.875
1407.93234	2048.975
1411.38068	2033.475
1414.82669	2016.675
1418.27039	2013.975
1421.71177	1979.375
1425.15083	1973.275
1428.58758	1965.375
1432.02203	1979.775
1435.45416	2009.275
1438.88399	2016.175
1442.31151	2018.075
1445.73673	2008.375
1449.15965	2022.575
1452.58027	2029.875
1455.9986	2038.475
1459.41463	2041.875
1462.82837	2059.875
1466.23982	2086.375
1469.64898	2119.675
1473.05586	2136.075
1476.46045	2143.675
1479.86276	2146.875
1483.26279	2161.875
1486.66054	2168.475
1490.05602	2204.575
1493.44922	2269.275
1496.84016	2374.075
1500.22882	2585.275
1503.61521	2853.875
1506.99934	3192.575
1510.38121	3475.175
1513.76081	3538.675
1517.13816	3310.875
1520.51324	2951.675
1523.88607	2619.375
1527.25665	2402.875
1530.62498	2280.975
1533.99105	2213.275
1537.35488	2164.375
1540.71647	2143.375
1544.07581	2118.075
1547.4329	2116.275
1550.78776	2125.875
1554.14038	2114.875
1557.49077	2135.675
1560.83892	2168.875
1564.18484	2221.175
1567.52853	2284.175
1570.86999	2369.375
1574.20922	2415.975
1577.54624	2407.875
1580.88103	2335.375
1584.2136	2210.375
1587.54395	2118.475
1590.87208	2106.775
1594.19801	2141.475
1597.52172	2223.675
1600.84321	2270.075
1604.16251	2214.975
1607.47959	2124.775
1610.79447	2028.475
1614.10715	1937.575
1617.41763	1878.975
1620.7259	1823.575
1624.03199	1817.875
1627.33587	1805.875
1630.63757	1814.575
1633.93707	1859.775
1637.23439	1940.875
1640.52951	2085.475
1643.82246	2288.975
1647.11321	2529.275
1650.40179	2681.575
1653.68819	2624.675
1656.97241	2379.075
1660.25446	2095.675
1663.53433	1893.975
1666.81203	1774.275
1670.08756	1709.575
1673.36092	1668.675
1676.63211	1644.075
1679.90115	1619.675
1683.16801	1595.175
1686.43272	1571.875
1689.69527	1562.375
1692.95567	1531.575
1696.2139	1504.375
1699.46999	1477.075
1702.72392	1462.475
1705.97571	1450.375
1709.22535	1452.775
1712.47284	1444.475
1715.71819	1426.975
1718.96139	1425.575
1722.20246	1406.775
1725.44139	1396.775
1728.67818	1378.875
1731.91284	1362.575
1735.14537	1347.375
1738.37576	1339.875
1741.60403	1334.275
1744.83017	1322.375
1748.05418	1309.175
1751.27607	1307.475
1754.49584	1294.875
1757.71349	1274.175
1760.92903	1266.775
1764.14244	1267.075
1767.35375	1257.875
1770.56294	1257.475
1773.77002	1246.275
1776.97499	1249.475
1780.17785	1249.475
1783.37861	1250.575
1786.57727	1257.975
1789.77382	1247.775
1792.96828	1249.775
1796.16064	1245.375
1799.3509	1242.675
1802.53907	1246.175
1805.72514	1238.875
1808.90913	1236.475
1812.09102	1225.175
1815.27083	1225.475
1818.44856	1211.575
1821.6242	1221.075
1824.79776	1207.775
1827.96924	1205.475
1831.13864	1211.975
1834.30597	1206.175
1837.47122	1204.975
1840.6344	1195.175
1843.7955	1194.775
1846.95454	1203.375
1850.11151	1196.675
1853.26642	1196.475
1856.41926	1187.375
1859.57004	1192.275
1862.71876	1198.375
1865.86542	1190.075
1869.01003	1185.975
1872.15258	1192.475
1875.29308	1190.475
1878.43152	1181.075
1881.56792	1176.475
1884.70227	1177.675
1887.83457	1173.775
1890.96482	1171.275
1894.09304	1167.275
1897.21921	1169.075
1900.34335	1165.375
1903.46544	1164.875
1906.58551	1171.275
1909.70353	1163.475
1912.81953	1162.475
1915.93349	1161.375
1919.04543	1176.675
1922.15534	1164.575
1925.26322	1149.975
1928.36908	1152.875
1931.47292	1152.175
1934.57473	1146.875
1937.67453	1156.075
1940.77232	1149.775
1943.86808	1145.675
1946.96184	1138.675
1950.05358	1133.975
1953.14331	1131.275
1956.23103	1124.575
1959.31675	1119.775
1962.40046	1110.875
1965.48217	1126.275
1968.56188	1115.175
1971.63959	1117.375
1974.7153	1110.175
1977.78901	1109.175
1980.86073	1098.275
1983.93046	1097.475
1986.99819	1097.975
1990.06394	1091.375
1993.1277	1084.875
1996.18947	1075.775
1999.24925	1078.275
2002.30706	1069.075
2005.36288	1060.675
2008.41672	1073.675
2011.46859	1069.175
2014.51848	1060.775
2017.56639	1058.675
2020.61233	1058.775
2023.6563	1058.775
2026.6983	1052.575
2029.73833	1051.675
2032.7764	1047.375
2035.8125	1046.475
2038.84664	1037.175
2041.87881	1041.675
2044.90903	1042.075
2047.93729	1047.875
2050.96359	1038.775
2053.98794	1036.875
2057.01034	1035.875
2060.03078	1034.375
2063.04927	1038.975
2066.06582	1043.075
2069.08042	1031.675
2072.09307	1043.475
2075.10378	1030.575
2078.11255	1036.875
2081.11938	1046.375
2084.12426	1038.675
2087.12722	1043.875
2090.12824	1047.175
2093.12732	1049.175
2096.12447	1044.675
2099.11969	1038.775
2102.11299	1040.075
2105.10435	1042.575
2108.09379	1036.275
2111.08131	1039.775
2114.0669	1036.975
2117.05057	1037.875
2120.03233	1046.775
2123.01216	1043.075
2125.99008	1036.275
2128.96609	1029.575
2131.94018	1036.275
2134.91236	1039.975
2137.88263	1038.075
2140.851	1029.975
2143.81746	1033.375
2146.78201	1031.075
2149.74466	1039.875
2152.7054	1023.475
2155.66425	1028.575
2158.6212	1032.275
2161.57625	1027.375
2164.52941	1034.775
2167.48067	1023.575
2170.43004	1028.575
2173.37752	1021.475
2176.32311	1025.175
2179.26681	1025.775
2182.20863	1024.675
2185.14856	1020.675
2188.08661	1026.375
2191.02278	1019.375
2193.95707	1022.475
2196.88948	1018.075
2199.82001	1020.675
2202.74867	1014.175
2205.67545	1018.075
2208.60037	1012.575
2211.52341	1019.775
2214.44458	1006.975
2217.36388	1012.575
2220.28132	1002.975
2223.1969	1005.675
2226.11061	996.375
2229.02246	1001.375
2231.93245	999.175
2234.84058	998.675
2237.74686	1007.875
2240.65128	992.975
2243.55385	991.075
2246.45456	987.575
2249.35343	988.175
2252.25044	986.275
2255.14561	994.375
2258.03893	985.375
2260.93041	976.275
2263.82004	972.775
2266.70783	971.375
2269.59378	976.675
2272.4779	973.075
2275.36017	969.075
2278.24061	977.775
2281.11922	965.075
2283.996	969.175
2286.87094	970.375
2289.74405	962.975
2292.61534	964.375
2295.4848	963.275
2298.35243	956.975
2301.21824	956.375
2304.08223	958.275
2306.94439	964.175
2309.80474	955.175
2312.66327	959.575
2315.51999	965.475
2318.37489	958.575
2321.22797	951.275
2324.07925	952.175
2326.92871	958.675
2329.77637	955.775
2332.62222	952.975
2335.46626	943.875
2338.3085	943.375
2341.14893	944.275
2343.98756	940.475
2346.8244	938.775
2349.65943	943.675
2352.49267	945.875
2355.32411	935.075
2358.15376	939.775
2360.98161	944.475
2363.80768	947.175
2366.63195	943.875
2369.45444	953.775
2372.27514	947.375
2375.09405	940.875
2377.91118	942.375
2380.72652	941.075
2383.54009	938.075
2386.35187	934.475
2389.16188	932.175
2391.97011	936.075
2394.77657	926.575
2397.58125	922.375
2400.38416	924.675
2403.18529	915.675
2405.98466	920.075
2408.78226	918.175
2411.57809	919.775
2414.37216	913.175
2417.16446	911.075
2419.955	915.375
2422.74378	910.975
2425.5308	907.275
2428.31606	906.975
2431.09956	904.675
2433.88131	906.175
2436.6613	908.275
2439.43954	903.175
2442.21603	902.075
2444.99077	903.875
2447.76377	908.475
2450.53501	911.475
2453.30451	900.975
2456.07226	905.475
2458.83827	904.575
2461.60254	899.075
2464.36507	905.375
2467.12586	905.075
2469.88492	900.175
2472.64224	899.775
2475.39782	891.175
2478.15167	897.475
2480.90379	902.875
2483.65417	903.375
2486.40283	898.875
2489.14976	905.675
2491.89497	901.275
2494.63845	892.975
2497.3802	907.775
2500.12024	894.475
2502.85855	899.275
2505.59514	896.275
2508.33002	887.175
2511.06318	892.375
2513.79462	895.175
2516.52435	885.375
2519.25237	890.275
2521.97867	885.275
2524.70327	883.675
2527.42616	876.375
2530.14734	873.075
2532.86681	886.075
2535.58458	879.775
2538.30065	876.475
2541.01501	884.175
2543.72768	876.875
2546.43864	872.775
2549.14791	876.575
2551.85548	874.375
2554.56136	872.975
2557.26554	874.175
2559.96803	871.675
2562.66883	864.975
2565.36794	868.775
2568.06536	872.275
2570.7611	870.075
2573.45514	863.075
2576.14751	868.175
2578.83819	858.975
2581.52719	854.175
2584.21451	852.075
2586.90015	858.275
2589.58411	848.575
2592.2664	857.075
2594.94701	855.375
2597.62594	848.375
2600.30321	853.175
2602.9788	856.575
2605.65273	863.275
2608.32498	844.175
2610.99557	853.775
2613.66449	850.875
2616.33175	850.075
2618.99734	851.375
2621.66128	848.275
2624.32355	842.275
2626.98416	845.675
2629.64311	846.275
2632.30041	841.775
2634.95605	836.075
2637.61004	837.975
2640.26238	836.375
2642.91306	830.475
2645.56209	835.975
2648.20948	828.675
2650.85521	835.375
2653.4993	836.775
2656.14175	830.375
2658.78255	834.075
2661.42171	834.875
2664.05923	835.875
2666.6951	837.375
2669.32934	836.575
2671.96194	832.075
2674.59291	842.175
2677.22224	834.775
2679.84993	835.775
2682.476	834.675
2685.10043	834.075
2687.72324	838.975
2690.34441	839.075
2692.96396	834.075
2695.58188	832.475
2698.19818	835.675
2700.81285	838.675
2703.4259	833.575
2706.03733	827.675
2708.64714	826.975
2711.25533	830.375
2713.86191	833.475
2716.46687	833.975
2719.07021	831.875
2721.67194	838.175
2724.27206	842.775
2726.87057	844.275
2729.46747	838.675
2732.06276	845.575
2734.65644	839.275
2737.24852	850.675
2739.83899	843.375
2742.42786	844.375
2745.01513	833.475
2747.60079	838.975
2750.18486	829.475
2752.76733	834.675
2755.3482	833.775
2757.92747	828.375
2760.50515	826.275
2763.08123	831.575
2765.65573	831.675
2768.22863	833.675
2770.79994	826.375
2773.36967	831.075
2775.9378	820.175
2778.50435	829.475
2781.06932	832.475
2783.6327	825.875
2786.1945	826.275
2788.75471	821.775
2791.31335	823.475
2793.87041	827.375
2796.42589	830.275
2798.97979	826.475
2801.53212	823.175
2804.08288	827.475
2806.63206	822.475
2809.17967	816.175
2811.72571	809.375
2814.27018	816.175
2816.81308	814.775
2819.35442	818.275
2821.89419	804.675
2824.43239	812.175
2826.96904	814.275
2829.50412	815.975
2832.03763	805.275
2834.56959	809.975
2837.1	811.775
2839.62884	812.175
2842.15613	806.775
2844.68186	807.975
2847.20604	816.975
2849.72867	815.475
2852.24974	817.075
2854.76927	815.875
2857.28724	816.375
2859.80367	813.375
2862.31855	818.875
2864.83189	815.075
2867.34368	818.575
2869.85393	815.975
2872.36264	820.575
2874.8698	813.475
2877.37543	813.875
2879.87952	822.875
2882.38207	818.375
2884.88308	826.175
2887.38256	828.575
2889.88051	823.775
2892.37692	835.475
2894.8718	830.775
2897.36515	831.275
2899.85698	829.075
2902.34727	835.275
2904.83604	839.975
2907.32328	838.375
2909.809	836.175
2912.29319	847.275
2914.77587	838.475
2917.25702	839.175
2919.73665	845.775
2922.21476	840.375
2924.69136	841.475
2927.16644	846.175
2929.64	851.175
2932.11205	846.575
2934.58258	841.675
2937.05161	844.175
2939.51912	842.075
2941.98513	842.675
2944.44962	840.075
2946.91261	840.375
2949.37409	840.775
2951.83407	847.975
2954.29254	846.575
2956.74951	854.275
2959.20498	844.175
2961.65895	841.975
2964.11142	847.675
2966.56239	847.275
2969.01186	838.175
2971.45984	841.675
2973.90632	846.475
2976.35131	841.275
2978.7948	835.375
2981.23681	846.675
2983.67732	834.775
2986.11635	839.675
2988.55388	833.175
2990.98993	833.675
2993.4245	829.775
2995.85758	831.775
2998.28917	844.575
3000.71928	842.875
3003.14791	842.375
3005.57506	843.675
3008.00073	832.775
3010.42493	837.575
3012.84764	845.175
3015.26888	844.375
3017.68865	848.775
3020.10694	845.675
3022.52376	848.875
3024.9391	852.675
3027.35298	848.575
3029.76539	851.375
3032.17632	858.275
3034.5858	858.275
3036.9938	855.675
3039.40034	856.875
3041.80542	863.375
3044.20903	863.275
3046.61118	870.775
3049.01187	866.275
3051.4111	866.475
3053.80888	880.275
3056.20519	869.475
3058.60005	879.475
3060.99345	878.375
3063.3854	879.575
3065.7759	883.275
3068.16494	881.075
3070.55254	888.775
3072.93868	888.075
3075.32338	888.375
3077.70662	899.175
3080.08842	892.875
3082.46878	900.575
3084.84769	910.275
3087.22515	911.775
3089.60118	920.775
3091.97576	929.375
3094.3489	928.775
3096.72061	923.175
3099.09087	929.575
3101.4597	941.375
3103.82709	946.275
3106.19305	952.575
3108.55757	953.675
3110.92066	962.075
3113.28232	969.575
3115.64255	966.875
3118.00134	979.575
3120.35871	991.475
3122.71466	985.775
3125.06917	988.675
3127.42226	987.975
3129.77393	1000.275
3132.12417	1004.575
3134.47299	1016.375
3136.82039	1015.975
3139.16636	1019.875
3141.51092	1022.975
3143.85406	1043.375
3146.19579	1039.675
3148.53609	1054.175
3150.87499	1066.775
3153.21246	1075.275
3155.54853	1081.375
3157.88318	1087.375
3160.21642	1089.575
3162.54826	1102.175
3164.87868	1112.575
3167.2077	1127.075
3169.5353	1125.275
3171.86151	1129.675
3174.18631	1139.775
3176.5097	1140.275
3178.83169	1140.275
3181.15228	1150.675
3183.47147	1156.875
3185.78926	1158.775
3188.10565	1173.875
3190.42065	1174.375
3192.73424	1183.275
3195.04645	1182.375
3197.35725	1180.375
3199.66667	1196.975
3201.97469	1195.975
3204.28132	1207.275
3206.58656	1209.275
3208.8904	1216.675
3211.19287	1221.375
3213.49394	1220.975
3215.79363	1226.775
3218.09193	1242.175
3220.38884	1240.375
3222.68438	1242.875
3224.97853	1238.175
3227.2713	1239.675
3229.56269	1252.975
3231.8527	1250.175
3234.14133	1255.875
3236.42858	1251.475
3238.71446	1253.375
3240.99896	1261.475
3243.28209	1251.875
3245.56384	1237.475
3247.84423	1250.175
3250.12324	1247.975
3252.40088	1254.475
3254.67715	1260.575
3256.95205	1255.675
3259.22558	1256.775
3261.49775	1256.675
3263.76855	1257.275
3266.03799	1259.475
3268.30606	1254.875
3270.57277	1262.475
3272.83812	1263.175
3275.10211	1258.475
3277.36474	1258.075
