Data from AgNPs_APTES_FTO_UA_100uM_CRN_0uM_R6G_10uM_Scan_RamanShift__65__11-55-31-316.txt Node

Date: Wed Jun 29 11:55:31 BST 2022
User: TCL
Spectrometer: QEP01345
Trigger mode: 4
Integration Time (sec): 7.000000E0
Scans to average: 10
Electric dark correction enabled: true
Nonlinearity correction enabled: false
Boxcar width: 0
XAxis mode: Raman Shifts
Number of Pixels in Spectrum: 1044
>>>>>Begin Spectral Data<<<<<
46.04893	-0.875
50.45542	1.225
54.85868	0.625
59.25871	0.525
63.6555	37.225
68.04907	44.125
72.43941	44.025
76.82654	47.425
81.21044	50.825
85.59113	53.425
89.96862	56.825
94.34289	57.025
98.71396	57.625
103.08183	60.225
107.4465	61.525
111.80798	62.325
116.16626	58.625
120.52136	59.025
124.87327	59.825
129.222	59.425
133.56755	56.725
137.90993	56.225
142.24913	59.525
146.58517	56.325
150.91804	54.725
155.24774	57.725
159.57429	61.625
163.89768	68.825
168.21792	76.825
172.53501	91.325
176.84895	111.225
181.15975	146.925
185.46741	192.225
189.77193	246.125
194.07331	323.925
198.37157	410.725
202.6667	502.025
206.9587	590.725
211.24758	692.425
215.53334	795.725
219.81599	905.225
224.09553	1037.925
228.37195	1175.925
232.64527	1322.725
236.91549	1464.125
241.18261	1581.425
245.44663	1695.925
249.70755	1766.925
253.96539	1826.225
258.22014	1875.725
262.4718	1917.725
266.72039	1917.225
270.96589	1890.225
275.20832	1845.825
279.44768	1789.525
283.68397	1750.025
287.91719	1720.625
292.14735	1731.925
296.37445	1793.225
300.59849	1904.925
304.81948	2032.125
309.03742	2159.825
313.25231	2186.125
317.46415	2085.425
321.67296	1903.725
325.87872	1741.425
330.08145	1680.925
334.28114	1680.125
338.47781	1736.725
342.67145	1808.925
346.86207	1895.425
351.04966	2067.825
355.23424	2250.425
359.4158	2373.025
363.59435	2401.325
367.76989	2374.225
371.94243	2323.325
376.11196	2274.025
380.27849	2230.425
384.44203	2185.125
388.60257	2137.525
392.76012	2116.925
396.91468	2145.625
401.06626	2203.225
405.21485	2228.125
409.36047	2157.225
413.50311	2027.425
417.64277	1890.425
421.77947	1816.925
425.9132	1788.325
430.04396	1778.825
434.17176	1795.425
438.2966	1834.425
442.41849	1877.825
446.53742	1926.825
450.6534	1965.125
454.76644	1981.325
458.87653	1962.425
462.98368	1941.225
467.08789	1914.625
471.18916	1869.725
475.2875	1823.325
479.38291	1803.425
483.4754	1791.425
487.56496	1780.225
491.6516	1775.925
495.73531	1779.425
499.81612	1775.825
503.89401	1803.825
507.96899	1835.225
512.04106	1873.625
516.11023	1930.625
520.1765	1958.525
524.23987	1972.225
528.30034	1963.025
532.35792	1929.425
536.41261	1895.725
540.46441	1842.925
544.51333	1817.225
548.55936	1814.025
552.60252	1846.725
556.64279	1883.525
560.6802	1924.225
564.71473	2011.425
568.7464	2149.125
572.7752	2163.325
576.80114	1989.225
580.82422	1856.125
584.84444	1799.325
588.86181	1791.625
592.87633	1809.525
596.888	1847.025
600.89682	1955.825
604.9028	2312.725
608.90594	3203.525
612.90624	4237.925
616.90371	3962.025
620.89834	2704.925
624.89015	2138.825
628.87913	2068.525
632.86528	2136.925
636.84862	2183.725
640.82913	2103.625
644.80683	1964.825
648.78172	1862.125
652.75379	1861.825
656.72306	1954.125
660.68952	2055.625
664.65319	2000.525
668.61405	1866.525
672.57211	1794.025
676.52738	1806.725
680.47986	1789.525
684.42955	1775.525
688.37646	1770.925
692.32058	1787.125
696.26192	1809.525
700.20048	1831.525
704.13626	1848.225
708.06928	1837.925
711.99952	1813.125
715.927	1817.825
719.85171	1842.725
723.77365	1850.425
727.69284	1844.725
731.60928	1835.725
735.52295	1823.525
739.43388	1827.225
743.34206	1839.725
747.24749	1841.425
751.15017	1848.825
755.05012	1860.025
758.94733	2044.725
762.8418	2403.225
766.73354	2882.225
770.62254	3225.125
774.50882	3378.325
778.39237	3273.225
782.27321	2831.625
786.15132	2314.125
790.02671	2031.325
793.89938	1917.125
797.76935	1871.025
801.6366	1870.425
805.50115	1869.925
809.36299	1894.625
813.22213	1892.825
817.07857	1886.125
820.93231	1868.625
824.78336	1861.325
828.63172	1858.925
832.47738	1866.025
836.32036	1845.725
840.16066	1818.225
843.99827	1798.825
847.8332	1803.025
851.66546	1793.625
855.49504	1795.525
859.32195	1798.925
863.1462	1803.425
866.96777	1799.425
870.78668	1808.225
874.60293	1831.325
878.41652	1862.725
882.22745	1889.225
886.03573	1904.425
889.84136	1904.025
893.64433	1896.325
897.44466	1887.325
901.24235	1870.825
905.0374	1838.925
908.8298	1811.825
912.61957	1779.825
916.40671	1775.525
920.19121	1778.125
923.97308	1794.725
927.75233	1853.225
931.52895	1884.925
935.30295	1863.225
939.07433	1781.725
942.84309	1738.125
946.60924	1710.825
950.37278	1704.125
954.13371	1695.425
957.89203	1685.025
961.64774	1688.925
965.40086	1685.725
969.15137	1673.625
972.89929	1676.225
976.64461	1674.725
980.38733	1673.925
984.12747	1669.725
987.86502	1687.325
991.59999	1694.825
995.33237	1706.425
999.06217	1746.225
1002.78939	1782.325
1006.51404	1820.025
1010.23611	1863.125
1013.95561	1857.625
1017.67255	1856.225
1021.38692	1833.325
1025.09872	1817.725
1028.80796	1802.525
1032.51465	1814.425
1036.21877	1825.325
1039.92035	1840.725
1043.61937	1847.325
1047.31584	1846.525
1051.00976	1831.525
1054.70114	1823.725
1058.38998	1807.025
1062.07627	1813.125
1065.76003	1818.725
1069.44126	1833.125
1073.11995	1856.825
1076.79611	1897.925
1080.46974	1976.225
1084.14085	2063.725
1087.80943	2132.425
1091.47549	2118.625
1095.13903	2041.725
1098.80005	1947.725
1102.45857	1896.025
1106.11456	1891.925
1109.76805	1942.525
1113.41903	2034.225
1117.06751	2169.225
1120.71348	2373.025
1124.35696	2611.625
1127.99793	2728.125
1131.63641	2582.125
1135.2724	2372.625
1138.90589	2214.525
1142.5369	2115.325
1146.16542	2032.425
1149.79145	1964.925
1153.415	1930.625
1157.03607	1936.625
1160.65467	1972.925
1164.27079	2029.325
1167.88443	2138.225
1171.49561	2319.025
1175.10432	2615.125
1178.71056	2999.625
1182.31434	3286.325
1185.91565	3331.925
1189.51451	3183.225
1193.11091	2954.325
1196.70485	2761.025
1200.29634	2632.325
1203.88538	2510.125
1207.47197	2335.225
1211.05612	2173.825
1214.63782	2042.325
1218.21708	1981.125
1221.79391	1954.425
1225.36829	1948.925
1228.94024	1933.625
1232.50976	1926.025
1236.07685	1933.125
1239.6415	1959.925
1243.20374	1985.825
1246.76355	2005.025
1250.32093	2026.425
1253.8759	2062.825
1257.42845	2137.125
1260.97859	2228.425
1264.52631	2305.225
1268.07163	2383.225
1271.61453	2414.125
1275.15503	2414.325
1278.69312	2404.025
1282.22882	2452.625
1285.76211	2529.725
1289.29301	2653.625
1292.82151	2731.425
1296.34761	2823.125
1299.87133	3034.625
1303.39266	3395.025
1306.9116	3997.325
1310.42815	4595.425
1313.94233	4693.025
1317.45412	4232.725
1320.96354	3605.125
1324.47058	3073.625
1327.97525	2729.625
1331.47754	2534.725
1334.97747	2499.925
1338.47502	2584.025
1341.97022	2784.725
1345.46305	3119.125
1348.95352	3493.125
1352.44163	3930.825
1355.92738	4612.225
1359.41078	5634.225
1362.89183	6301.725
1366.37053	5618.225
1369.84688	4370.225
1373.32088	3483.625
1376.79254	3006.625
1380.26186	2733.425
1383.72883	2523.425
1387.19347	2326.525
1390.65578	2181.425
1394.11575	2071.025
1397.57339	2004.725
1401.0287	1986.025
1404.48168	1962.625
1407.93234	1966.625
1411.38068	1994.825
1414.82669	2028.425
1418.27039	2046.525
1421.71177	2034.825
1425.15083	2029.625
1428.58758	2066.225
1432.02203	2128.025
1435.45416	2147.425
1438.88399	2105.025
1442.31151	2082.225
1445.73673	2086.525
1449.15965	2090.425
1452.58027	2064.025
1455.9986	2038.325
1459.41463	2037.325
1462.82837	2055.625
1466.23982	2106.525
1469.64898	2143.025
1473.05586	2140.825
1476.46045	2152.125
1479.86276	2180.625
1483.26279	2245.725
1486.66054	2349.025
1490.05602	2528.025
1493.44922	2779.825
1496.84016	3176.225
1500.22882	3761.225
1503.61521	4587.125
1506.99934	5502.425
1510.38121	6210.725
1513.76081	6218.425
1517.13816	5467.725
1520.51324	4399.425
1523.88607	3518.425
1527.25665	2957.325
1530.62498	2656.425
1533.99105	2481.925
1537.35488	2381.125
1540.71647	2358.025
1544.07581	2353.325
1547.4329	2390.225
1550.78776	2429.025
1554.14038	2460.525
1557.49077	2502.125
1560.83892	2582.825
1564.18484	2733.325
1567.52853	2881.625
1570.86999	2995.725
1574.20922	3014.125
1577.54624	2941.425
1580.88103	2697.525
1584.2136	2402.525
1587.54395	2232.225
1590.87208	2218.025
1594.19801	2320.225
1597.52172	2489.725
1600.84321	2566.925
1604.16251	2473.125
1607.47959	2356.225
1610.79447	2218.425
1614.10715	2090.125
1617.41763	1987.825
1620.7259	1943.025
1624.03199	1936.225
1627.33587	1953.025
1630.63757	1995.525
1633.93707	2124.325
1637.23439	2316.425
1640.52951	2654.825
1643.82246	3185.525
1647.11321	3797.025
1650.40179	4130.825
1653.68819	3890.125
1656.97241	3246.525
1660.25446	2619.025
1663.53433	2219.125
1666.81203	1986.825
1670.08756	1854.225
1673.36092	1776.625
1676.63211	1720.525
1679.90115	1678.125
1683.16801	1660.425
1686.43272	1639.225
1689.69527	1614.425
1692.95567	1618.825
1696.2139	1608.525
1699.46999	1612.425
1702.72392	1606.825
1705.97571	1587.425
1709.22535	1582.325
1712.47284	1574.125
1715.71819	1572.225
1718.96139	1556.625
1722.20246	1560.725
1725.44139	1540.425
1728.67818	1524.725
1731.91284	1504.825
1735.14537	1503.925
1738.37576	1499.325
1741.60403	1485.625
1744.83017	1476.625
1748.05418	1481.025
1751.27607	1466.325
1754.49584	1460.925
1757.71349	1468.425
1760.92903	1468.225
1764.14244	1456.825
1767.35375	1451.825
1770.56294	1450.025
1773.77002	1445.525
1776.97499	1417.525
1780.17785	1417.625
1783.37861	1408.825
1786.57727	1412.425
1789.77382	1403.625
1792.96828	1404.425
1796.16064	1393.125
1799.3509	1404.925
1802.53907	1393.925
1805.72514	1390.425
1808.90913	1391.125
1812.09102	1384.825
1815.27083	1382.925
1818.44856	1372.625
1821.6242	1369.325
1824.79776	1373.725
1827.96924	1361.825
1831.13864	1367.825
1834.30597	1364.625
1837.47122	1356.325
1840.6344	1347.825
1843.7955	1350.925
1846.95454	1348.225
1850.11151	1354.425
1853.26642	1355.025
1856.41926	1349.725
1859.57004	1359.425
1862.71876	1342.525
1865.86542	1345.725
1869.01003	1343.025
1872.15258	1345.925
1875.29308	1340.025
1878.43152	1344.725
1881.56792	1340.025
1884.70227	1348.925
1887.83457	1336.225
1890.96482	1327.225
1894.09304	1331.725
1897.21921	1329.225
1900.34335	1329.825
1903.46544	1331.125
1906.58551	1322.625
1909.70353	1337.225
1912.81953	1332.725
1915.93349	1328.225
1919.04543	1327.625
1922.15534	1319.325
1925.26322	1319.225
1928.36908	1316.625
1931.47292	1310.025
1934.57473	1306.025
1937.67453	1302.325
1940.77232	1297.725
1943.86808	1302.125
1946.96184	1300.925
1950.05358	1290.725
1953.14331	1285.625
1956.23103	1274.625
1959.31675	1291.725
1962.40046	1272.325
1965.48217	1286.325
1968.56188	1270.725
1971.63959	1278.425
1974.7153	1268.225
1977.78901	1259.125
1980.86073	1257.825
1983.93046	1253.125
1986.99819	1251.825
1990.06394	1243.325
1993.1277	1240.325
1996.18947	1231.325
1999.24925	1237.525
2002.30706	1230.025
2005.36288	1228.025
2008.41672	1226.225
2011.46859	1217.725
2014.51848	1215.825
2017.56639	1207.825
2020.61233	1212.125
2023.6563	1205.625
2026.6983	1198.525
2029.73833	1202.125
2032.7764	1193.725
2035.8125	1200.325
2038.84664	1193.125
2041.87881	1189.925
2044.90903	1190.325
2047.93729	1183.125
2050.96359	1182.225
2053.98794	1184.225
2057.01034	1186.125
2060.03078	1181.225
2063.04927	1183.925
2066.06582	1180.025
2069.08042	1172.125
2072.09307	1178.525
2075.10378	1179.425
2078.11255	1181.625
2081.11938	1165.725
2084.12426	1180.625
2087.12722	1184.525
2090.12824	1177.425
2093.12732	1177.425
2096.12447	1172.325
2099.11969	1172.525
2102.11299	1172.125
2105.10435	1184.025
2108.09379	1180.125
2111.08131	1187.225
2114.0669	1185.925
2117.05057	1184.725
2120.03233	1188.225
2123.01216	1190.025
2125.99008	1192.525
2128.96609	1196.325
2131.94018	1198.725
2134.91236	1189.425
2137.88263	1198.625
2140.851	1196.725
2143.81746	1190.425
2146.78201	1198.225
2149.74466	1188.525
2152.7054	1174.925
2155.66425	1187.425
2158.6212	1188.125
2161.57625	1189.425
2164.52941	1183.225
2167.48067	1181.225
2170.43004	1185.625
2173.37752	1189.325
2176.32311	1187.325
2179.26681	1188.025
2182.20863	1191.825
2185.14856	1185.325
2188.08661	1193.525
2191.02278	1192.425
2193.95707	1189.025
2196.88948	1183.525
2199.82001	1182.925
2202.74867	1185.125
2205.67545	1187.725
2208.60037	1170.725
2211.52341	1181.525
2214.44458	1176.525
2217.36388	1171.625
2220.28132	1162.025
2223.1969	1178.825
2226.11061	1171.725
2229.02246	1164.425
2231.93245	1169.525
2234.84058	1165.325
2237.74686	1159.325
2240.65128	1153.325
2243.55385	1163.625
2246.45456	1154.825
2249.35343	1165.525
2252.25044	1165.625
2255.14561	1169.225
2258.03893	1177.125
2260.93041	1162.425
2263.82004	1155.925
2266.70783	1155.725
2269.59378	1163.325
2272.4779	1151.725
2275.36017	1153.925
2278.24061	1150.625
2281.11922	1150.825
2283.996	1139.125
2286.87094	1147.925
2289.74405	1138.725
2292.61534	1148.425
2295.4848	1138.225
2298.35243	1137.925
2301.21824	1131.425
2304.08223	1137.725
2306.94439	1137.225
2309.80474	1134.625
2312.66327	1130.525
2315.51999	1142.225
2318.37489	1137.625
2321.22797	1125.925
2324.07925	1136.025
2326.92871	1130.225
2329.77637	1130.725
2332.62222	1135.525
2335.46626	1131.125
2338.3085	1124.625
2341.14893	1135.725
2343.98756	1128.525
2346.8244	1120.525
2349.65943	1123.225
2352.49267	1123.825
2355.32411	1117.925
2358.15376	1120.025
2360.98161	1123.925
2363.80768	1131.725
2366.63195	1139.425
2369.45444	1138.025
2372.27514	1135.825
2375.09405	1135.525
2377.91118	1133.725
2380.72652	1136.525
2383.54009	1129.925
2386.35187	1124.125
2389.16188	1121.225
2391.97011	1122.825
2394.77657	1121.825
2397.58125	1112.425
2400.38416	1106.125
2403.18529	1103.125
2405.98466	1102.125
2408.78226	1101.625
2411.57809	1100.225
2414.37216	1098.425
2417.16446	1102.225
2419.955	1096.225
2422.74378	1100.125
2425.5308	1099.425
2428.31606	1102.025
2431.09956	1107.925
2433.88131	1094.225
2436.6613	1096.225
2439.43954	1103.525
2442.21603	1093.925
2444.99077	1098.825
2447.76377	1102.625
2450.53501	1107.825
2453.30451	1099.325
2456.07226	1104.525
2458.83827	1100.525
2461.60254	1089.125
2464.36507	1096.925
2467.12586	1090.525
2469.88492	1096.125
2472.64224	1095.825
2475.39782	1103.325
2478.15167	1105.225
2480.90379	1105.625
2483.65417	1108.725
2486.40283	1115.525
2489.14976	1109.925
2491.89497	1112.925
2494.63845	1115.125
2497.3802	1111.725
2500.12024	1107.325
2502.85855	1103.625
2505.59514	1103.125
2508.33002	1096.225
2511.06318	1100.025
2513.79462	1091.525
2516.52435	1086.525
2519.25237	1082.325
2521.97867	1078.725
2524.70327	1073.325
2527.42616	1078.525
2530.14734	1071.725
2532.86681	1080.525
2535.58458	1071.125
2538.30065	1077.825
2541.01501	1068.625
2543.72768	1074.625
2546.43864	1075.825
2549.14791	1073.025
2551.85548	1075.825
2554.56136	1074.225
2557.26554	1071.625
2559.96803	1065.025
2562.66883	1069.725
2565.36794	1066.225
2568.06536	1068.625
2570.7611	1061.025
2573.45514	1066.625
2576.14751	1059.025
2578.83819	1055.625
2581.52719	1051.325
2584.21451	1061.825
2586.90015	1048.525
2589.58411	1051.025
2592.2664	1046.725
2594.94701	1054.925
2597.62594	1055.425
2600.30321	1044.625
2602.9788	1055.625
2605.65273	1050.925
2608.32498	1046.125
2610.99557	1047.525
2613.66449	1046.525
2616.33175	1046.125
2618.99734	1046.025
2621.66128	1045.525
2624.32355	1043.825
2626.98416	1041.325
2629.64311	1037.825
2632.30041	1045.225
2634.95605	1037.625
2637.61004	1043.825
2640.26238	1037.125
2642.91306	1030.625
2645.56209	1028.225
2648.20948	1029.825
2650.85521	1029.225
2653.4993	1032.625
2656.14175	1037.025
2658.78255	1036.425
2661.42171	1038.025
2664.05923	1031.125
2666.6951	1037.125
2669.32934	1042.625
2671.96194	1044.225
2674.59291	1044.425
2677.22224	1044.425
2679.84993	1045.925
2682.476	1044.925
2685.10043	1043.625
2687.72324	1047.325
2690.34441	1048.825
2692.96396	1044.925
2695.58188	1040.325
2698.19818	1039.525
2700.81285	1043.625
2703.4259	1053.525
2706.03733	1050.925
2708.64714	1043.925
2711.25533	1042.725
2713.86191	1047.825
2716.46687	1053.925
2719.07021	1051.125
2721.67194	1049.325
2724.27206	1052.125
2726.87057	1046.725
2729.46747	1053.125
2732.06276	1056.525
2734.65644	1063.625
2737.24852	1060.625
2739.83899	1051.425
2742.42786	1048.525
2745.01513	1042.425
2747.60079	1053.025
2750.18486	1043.025
2752.76733	1043.925
2755.3482	1044.025
2757.92747	1038.925
2760.50515	1039.525
2763.08123	1035.725
2765.65573	1034.225
2768.22863	1042.225
2770.79994	1038.125
2773.36967	1038.425
2775.9378	1041.025
2778.50435	1040.225
2781.06932	1045.125
2783.6327	1040.725
2786.1945	1035.425
2788.75471	1037.625
2791.31335	1041.425
2793.87041	1040.325
2796.42589	1037.725
2798.97979	1033.025
2801.53212	1043.625
2804.08288	1045.025
2806.63206	1031.825
2809.17967	1028.825
2811.72571	1037.725
2814.27018	1040.125
2816.81308	1035.625
2819.35442	1041.525
2821.89419	1034.825
2824.43239	1045.125
2826.96904	1045.925
2829.50412	1044.725
2832.03763	1040.525
2834.56959	1037.325
2837.1	1045.025
2839.62884	1042.825
2842.15613	1035.425
2844.68186	1036.925
2847.20604	1047.325
2849.72867	1040.125
2852.24974	1057.225
2854.76927	1061.925
2857.28724	1054.725
2859.80367	1066.325
2862.31855	1066.325
2864.83189	1068.125
2867.34368	1064.925
2869.85393	1063.225
2872.36264	1060.425
2874.8698	1066.125
2877.37543	1054.725
2879.87952	1059.325
2882.38207	1065.425
2884.88308	1065.525
2887.38256	1056.425
2889.88051	1061.125
2892.37692	1064.625
2894.8718	1062.225
2897.36515	1066.025
2899.85698	1064.025
2902.34727	1062.725
2904.83604	1063.325
2907.32328	1072.125
2909.809	1075.325
2912.29319	1074.025
2914.77587	1061.925
2917.25702	1069.025
2919.73665	1066.825
2922.21476	1064.025
2924.69136	1064.725
2927.16644	1055.925
2929.64	1064.125
2932.11205	1061.325
2934.58258	1061.525
2937.05161	1057.025
2939.51912	1063.125
2941.98513	1059.925
2944.44962	1055.425
2946.91261	1062.925
2949.37409	1059.125
2951.83407	1065.625
2954.29254	1072.325
2956.74951	1067.625
2959.20498	1071.525
2961.65895	1069.525
2964.11142	1063.225
2966.56239	1068.825
2969.01186	1065.225
2971.45984	1065.425
2973.90632	1064.625
2976.35131	1062.925
2978.7948	1069.825
2981.23681	1061.925
2983.67732	1070.425
2986.11635	1059.525
2988.55388	1065.025
2990.98993	1051.325
2993.4245	1061.125
2995.85758	1058.225
2998.28917	1065.125
3000.71928	1063.825
3003.14791	1063.825
3005.57506	1061.725
3008.00073	1063.025
3010.42493	1064.025
3012.84764	1071.625
3015.26888	1068.825
3017.68865	1073.225
3020.10694	1070.525
3022.52376	1067.825
3024.9391	1076.725
3027.35298	1071.125
3029.76539	1079.925
3032.17632	1088.125
3034.5858	1074.525
3036.9938	1071.625
3039.40034	1078.125
3041.80542	1082.825
3044.20903	1079.225
3046.61118	1088.425
3049.01187	1082.125
3051.4111	1083.025
3053.80888	1092.625
3056.20519	1099.225
3058.60005	1100.825
3060.99345	1096.325
3063.3854	1092.225
3065.7759	1099.025
3068.16494	1102.825
3070.55254	1109.425
3072.93868	1108.425
3075.32338	1107.025
3077.70662	1105.625
3080.08842	1109.325
3082.46878	1107.225
3084.84769	1111.025
3087.22515	1121.325
3089.60118	1121.325
3091.97576	1129.725
3094.3489	1136.325
3096.72061	1147.125
3099.09087	1143.825
3101.4597	1144.725
3103.82709	1165.425
3106.19305	1172.325
3108.55757	1176.525
3110.92066	1176.325
3113.28232	1185.125
3115.64255	1185.325
3118.00134	1196.125
3120.35871	1195.725
3122.71466	1204.925
3125.06917	1207.425
3127.42226	1204.225
3129.77393	1217.525
3132.12417	1215.825
3134.47299	1230.425
3136.82039	1236.325
3139.16636	1236.425
3141.51092	1250.725
3143.85406	1260.525
3146.19579	1259.925
3148.53609	1264.525
3150.87499	1278.225
3153.21246	1284.825
3155.54853	1293.525
3157.88318	1301.525
3160.21642	1317.125
3162.54826	1316.625
3164.87868	1333.125
3167.2077	1334.825
3169.5353	1343.225
3171.86151	1345.725
3174.18631	1359.625
3176.5097	1361.125
3178.83169	1362.125
3181.15228	1379.125
3183.47147	1378.825
3185.78926	1381.225
3188.10565	1382.925
3190.42065	1400.825
3192.73424	1396.225
3195.04645	1408.625
3197.35725	1406.225
3199.66667	1414.825
3201.97469	1418.825
3204.28132	1439.025
3206.58656	1439.725
3208.8904	1439.125
3211.19287	1448.225
3213.49394	1456.825
3215.79363	1466.425
3218.09193	1462.425
3220.38884	1474.725
3222.68438	1476.125
3224.97853	1475.325
3227.2713	1480.625
3229.56269	1476.825
3231.8527	1485.625
3234.14133	1472.725
3236.42858	1489.625
3238.71446	1484.125
