Data from AgNPs_APTES_FTO_UA_100uM_CRN_0uM_R6G_10uM_Scan_RamanShift__77__12-09-31-333.txt Node

Date: Wed Jun 29 12:09:31 BST 2022
User: TCL
Spectrometer: QEP01345
Trigger mode: 4
Integration Time (sec): 7.000000E0
Scans to average: 10
Electric dark correction enabled: true
Nonlinearity correction enabled: false
Boxcar width: 0
XAxis mode: Raman Shifts
Number of Pixels in Spectrum: 1044
>>>>>Begin Spectral Data<<<<<
46.04893	0.2875
50.45542	0.7875
54.85868	0.7875
59.25871	0.6875
63.6555	34.4875
68.04907	37.2875
72.43941	36.9875
76.82654	38.4875
81.21044	41.6875
85.59113	47.6875
89.96862	47.2875
94.34289	51.3875
98.71396	48.3875
103.08183	50.3875
107.4465	48.8875
111.80798	53.6875
116.16626	50.3875
120.52136	49.4875
124.87327	46.2875
129.222	48.8875
133.56755	47.1875
137.90993	46.1875
142.24913	46.3875
146.58517	44.7875
150.91804	42.8875
155.24774	48.6875
159.57429	50.0875
163.89768	49.2875
168.21792	54.0875
172.53501	63.0875
176.84895	70.4875
181.15975	96.2875
185.46741	121.7875
189.77193	152.9875
194.07331	195.0875
198.37157	243.4875
202.6667	298.8875
206.9587	339.8875
211.24758	394.1875
215.53334	440.6875
219.81599	494.2875
224.09553	545.0875
228.37195	600.3875
232.64527	670.6875
236.91549	733.8875
241.18261	810.7875
245.44663	891.2875
249.70755	956.6875
253.96539	1020.9875
258.22014	1081.7875
262.4718	1106.4875
266.72039	1136.7875
270.96589	1133.4875
275.20832	1117.1875
279.44768	1098.4875
283.68397	1076.6875
287.91719	1054.5875
292.14735	1020.0875
296.37445	1008.7875
300.59849	986.5875
304.81948	969.8875
309.03742	958.5875
313.25231	952.0875
317.46415	942.0875
321.67296	943.6875
325.87872	939.3875
330.08145	942.4875
334.28114	950.0875
338.47781	960.4875
342.67145	969.9875
346.86207	981.1875
351.04966	993.3875
355.23424	1005.6875
359.4158	1014.8875
363.59435	1025.6875
367.76989	1034.9875
371.94243	1043.1875
376.11196	1047.5875
380.27849	1067.4875
384.44203	1082.1875
388.60257	1082.3875
392.76012	1099.6875
396.91468	1110.5875
401.06626	1121.9875
405.21485	1139.0875
409.36047	1148.5875
413.50311	1150.2875
417.64277	1158.6875
421.77947	1160.8875
425.9132	1162.3875
430.04396	1176.3875
434.17176	1179.3875
438.2966	1189.3875
442.41849	1200.9875
446.53742	1209.7875
450.6534	1212.4875
454.76644	1216.4875
458.87653	1239.7875
462.98368	1234.6875
467.08789	1240.9875
471.18916	1236.0875
475.2875	1244.9875
479.38291	1247.6875
483.4754	1257.7875
487.56496	1259.6875
491.6516	1261.0875
495.73531	1264.7875
499.81612	1258.2875
503.89401	1253.7875
507.96899	1258.7875
512.04106	1250.8875
516.11023	1257.7875
520.1765	1260.5875
524.23987	1265.4875
528.30034	1263.3875
532.35792	1263.4875
536.41261	1276.9875
540.46441	1285.5875
544.51333	1282.9875
548.55936	1280.1875
552.60252	1286.6875
556.64279	1297.5875
560.6802	1303.0875
564.71473	1292.2875
568.7464	1301.8875
572.7752	1310.4875
576.80114	1290.2875
580.82422	1294.3875
584.84444	1295.9875
588.86181	1295.0875
592.87633	1299.7875
596.888	1287.6875
600.89682	1302.0875
604.9028	1311.6875
608.90594	1335.7875
612.90624	1342.3875
616.90371	1333.3875
620.89834	1325.2875
624.89015	1311.9875
628.87913	1309.5875
632.86528	1318.5875
636.84862	1321.0875
640.82913	1324.7875
644.80683	1334.7875
648.78172	1324.8875
652.75379	1336.9875
656.72306	1338.9875
660.68952	1337.8875
664.65319	1343.3875
668.61405	1344.0875
672.57211	1353.3875
676.52738	1361.0875
680.47986	1364.6875
684.42955	1365.1875
688.37646	1378.1875
692.32058	1386.0875
696.26192	1386.0875
700.20048	1394.8875
704.13626	1393.7875
708.06928	1383.8875
711.99952	1399.8875
715.927	1626.7875
719.85171	1409.0875
723.77365	1395.2875
727.69284	1383.8875
731.60928	1386.3875
735.52295	1383.5875
739.43388	1378.0875
743.34206	1388.1875
747.24749	1393.5875
751.15017	1389.6875
755.05012	1356.3875
758.94733	1397.1875
762.8418	1405.0875
766.73354	1415.1875
770.62254	1420.8875
774.50882	1433.0875
778.39237	1422.4875
782.27321	1415.7875
786.15132	1427.1875
790.02671	1418.3875
793.89938	1408.5875
797.76935	1413.4875
801.6366	1424.2875
805.50115	1414.1875
809.36299	1421.5875
813.22213	1416.8875
817.07857	1412.4875
820.93231	1411.2875
824.78336	1416.7875
828.63172	1417.2875
832.47738	1419.5875
836.32036	1421.1875
840.16066	1420.4875
843.99827	1430.1875
847.8332	1426.6875
851.66546	1432.4875
855.49504	1426.4875
859.32195	1422.1875
863.1462	1430.1875
866.96777	1426.3875
870.78668	1438.4875
874.60293	1434.4875
878.41652	1444.4875
882.22745	1443.0875
886.03573	1456.0875
889.84136	1453.4875
893.64433	1459.0875
897.44466	1463.0875
901.24235	1472.7875
905.0374	1482.0875
908.8298	1486.6875
912.61957	1486.6875
916.40671	1494.9875
920.19121	1487.7875
923.97308	1482.7875
927.75233	1490.9875
931.52895	1478.3875
935.30295	1475.7875
939.07433	1478.5875
942.84309	1473.5875
946.60924	1468.6875
950.37278	1475.1875
954.13371	1471.0875
957.89203	1471.8875
961.64774	1468.8875
965.40086	1462.5875
969.15137	1458.2875
972.89929	1460.3875
976.64461	1452.5875
980.38733	1470.3875
984.12747	1460.6875
987.86502	1459.5875
991.59999	1465.1875
995.33237	1465.6875
999.06217	1469.6875
1002.78939	1470.8875
1006.51404	1481.2875
1010.23611	1485.0875
1013.95561	1484.5875
1017.67255	1481.2875
1021.38692	1493.5875
1025.09872	1496.2875
1028.80796	1486.7875
1032.51465	1485.2875
1036.21877	1488.0875
1039.92035	1490.9875
1043.61937	1505.9875
1047.31584	1509.6875
1051.00976	1507.9875
1054.70114	1506.5875
1058.38998	1506.6875
1062.07627	1503.7875
1065.76003	1512.9875
1069.44126	1513.9875
1073.11995	1509.2875
1076.79611	1521.5875
1080.46974	1521.5875
1084.14085	1510.6875
1087.80943	1511.0875
1091.47549	1510.1875
1095.13903	1510.6875
1098.80005	1513.3875
1102.45857	1498.6875
1106.11456	1500.1875
1109.76805	1496.6875
1113.41903	1502.7875
1117.06751	1500.9875
1120.71348	1497.4875
1124.35696	1499.0875
1127.99793	1502.8875
1131.63641	1508.1875
1135.2724	1505.1875
1138.90589	1514.3875
1142.5369	1500.6875
1146.16542	1508.4875
1149.79145	1507.8875
1153.415	1506.0875
1157.03607	1491.5875
1160.65467	1496.2875
1164.27079	1497.7875
1167.88443	1499.9875
1171.49561	1507.9875
1175.10432	1506.5875
1178.71056	1511.5875
1182.31434	1532.8875
1185.91565	1539.5875
1189.51451	1542.7875
1193.11091	1546.7875
1196.70485	1539.7875
1200.29634	1546.5875
1203.88538	1539.6875
1207.47197	1532.4875
1211.05612	1535.9875
1214.63782	1526.2875
1218.21708	1528.0875
1221.79391	1519.6875
1225.36829	1521.6875
1228.94024	1531.1875
1232.50976	1522.4875
1236.07685	1531.2875
1239.6415	1530.3875
1243.20374	1529.0875
1246.76355	1531.0875
1250.32093	1529.3875
1253.8759	1532.4875
1257.42845	1542.6875
1260.97859	1539.0875
1264.52631	1536.6875
1268.07163	1547.6875
1271.61453	1553.6875
1275.15503	1544.8875
1278.69312	1552.9875
1282.22882	1556.0875
1285.76211	1552.5875
1289.29301	1560.1875
1292.82151	1566.4875
1296.34761	1565.0875
1299.87133	1580.9875
1303.39266	1587.5875
1306.9116	1595.4875
1310.42815	1590.9875
1313.94233	1600.6875
1317.45412	1604.8875
1320.96354	1599.8875
1324.47058	1595.0875
1327.97525	1588.7875
1331.47754	1589.8875
1334.97747	1592.2875
1338.47502	1584.3875
1341.97022	1586.8875
1345.46305	1589.0875
1348.95352	1607.9875
1352.44163	1607.4875
1355.92738	1602.3875
1359.41078	1602.0875
1362.89183	1605.7875
1366.37053	1603.5875
1369.84688	1582.9875
1373.32088	1559.7875
1376.79254	1541.4875
1380.26186	1526.9875
1383.72883	1522.7875
1387.19347	1513.4875
1390.65578	1497.9875
1394.11575	1487.0875
1397.57339	1481.1875
1401.0287	1489.2875
1404.48168	1484.5875
1407.93234	1473.6875
1411.38068	1476.5875
1414.82669	1471.8875
1418.27039	1480.2875
1421.71177	1460.2875
1425.15083	1458.0875
1428.58758	1456.0875
1432.02203	1453.9875
1435.45416	1458.8875
1438.88399	1457.3875
1442.31151	1458.1875
1445.73673	1444.1875
1449.15965	1446.4875
1452.58027	1455.1875
1455.9986	1455.4875
1459.41463	1452.9875
1462.82837	1455.7875
1466.23982	1460.3875
1469.64898	1465.9875
1473.05586	1484.1875
1476.46045	1474.1875
1479.86276	1479.1875
1483.26279	1487.8875
1486.66054	1485.0875
1490.05602	1476.5875
1493.44922	1485.8875
1496.84016	1489.8875
1500.22882	1498.1875
1503.61521	1503.6875
1506.99934	1513.9875
1510.38121	1518.1875
1513.76081	1513.5875
1517.13816	1511.0875
1520.51324	1509.8875
1523.88607	1514.4875
1527.25665	1510.9875
1530.62498	1510.1875
1533.99105	1507.8875
1537.35488	1517.8875
1540.71647	1515.1875
1544.07581	1522.6875
1547.4329	1516.6875
1550.78776	1526.6875
1554.14038	1532.9875
1557.49077	1536.4875
1560.83892	1542.5875
1564.18484	1538.6875
1567.52853	1535.6875
1570.86999	1533.5875
1574.20922	1548.4875
1577.54624	1548.6875
1580.88103	1533.8875
1584.2136	1549.1875
1587.54395	1534.2875
1590.87208	1544.5875
1594.19801	1545.4875
1597.52172	1558.7875
1600.84321	1553.2875
1604.16251	1547.5875
1607.47959	1558.8875
1610.79447	1552.5875
1614.10715	1520.1875
1617.41763	1511.1875
1620.7259	1497.3875
1624.03199	1497.9875
1627.33587	1496.2875
1630.63757	1489.7875
1633.93707	1491.3875
1637.23439	1501.0875
1640.52951	1499.4875
1643.82246	1506.8875
1647.11321	1500.2875
1650.40179	1496.9875
1653.68819	1476.5875
1656.97241	1466.3875
1660.25446	1461.3875
1663.53433	1443.1875
1666.81203	1435.8875
1670.08756	1419.7875
1673.36092	1435.0875
1676.63211	1430.9875
1679.90115	1422.1875
1683.16801	1423.1875
1686.43272	1417.4875
1689.69527	1413.7875
1692.95567	1399.2875
1696.2139	1387.5875
1699.46999	1367.2875
1702.72392	1362.0875
1705.97571	1372.9875
1709.22535	1394.2875
1712.47284	1403.3875
1715.71819	1403.3875
1718.96139	1408.8875
1722.20246	1406.5875
1725.44139	1398.5875
1728.67818	1397.8875
1731.91284	1390.5875
1735.14537	1395.7875
1738.37576	1384.3875
1741.60403	1387.0875
1744.83017	1380.3875
1748.05418	1382.4875
1751.27607	1366.5875
1754.49584	1367.5875
1757.71349	1344.0875
1760.92903	1342.3875
1764.14244	1345.1875
1767.35375	1347.3875
1770.56294	1342.3875
1773.77002	1350.9875
1776.97499	1342.3875
1780.17785	1358.5875
1783.37861	1364.4875
1786.57727	1366.5875
1789.77382	1367.2875
1792.96828	1357.6875
1796.16064	1365.7875
1799.3509	1364.2875
1802.53907	1375.1875
1805.72514	1366.1875
1808.90913	1371.7875
1812.09102	1365.9875
1815.27083	1360.2875
1818.44856	1357.6875
1821.6242	1360.4875
1824.79776	1357.1875
1827.96924	1349.8875
1831.13864	1357.0875
1834.30597	1345.6875
1837.47122	1353.5875
1840.6344	1352.6875
1843.7955	1356.8875
1846.95454	1352.3875
1850.11151	1356.0875
1853.26642	1362.2875
1856.41926	1346.7875
1859.57004	1356.7875
1862.71876	1353.7875
1865.86542	1346.6875
1869.01003	1346.7875
1872.15258	1352.2875
1875.29308	1346.2875
1878.43152	1347.3875
1881.56792	1350.6875
1884.70227	1342.9875
1887.83457	1344.0875
1890.96482	1342.9875
1894.09304	1339.9875
1897.21921	1336.3875
1900.34335	1339.6875
1903.46544	1342.9875
1906.58551	1346.5875
1909.70353	1338.4875
1912.81953	1342.7875
1915.93349	1338.0875
1919.04543	1340.6875
1922.15534	1328.8875
1925.26322	1340.9875
1928.36908	1328.5875
1931.47292	1327.8875
1934.57473	1327.4875
1937.67453	1331.3875
1940.77232	1332.4875
1943.86808	1336.6875
1946.96184	1317.1875
1950.05358	1316.1875
1953.14331	1320.1875
1956.23103	1310.8875
1959.31675	1309.1875
1962.40046	1308.4875
1965.48217	1308.1875
1968.56188	1292.1875
1971.63959	1305.7875
1974.7153	1300.1875
1977.78901	1291.8875
1980.86073	1287.3875
1983.93046	1291.3875
1986.99819	1296.0875
1990.06394	1288.2875
1993.1277	1276.8875
1996.18947	1277.0875
1999.24925	1275.5875
2002.30706	1271.9875
2005.36288	1266.1875
2008.41672	1259.1875
2011.46859	1265.2875
2014.51848	1266.2875
2017.56639	1269.7875
2020.61233	1264.4875
2023.6563	1258.0875
2026.6983	1250.2875
2029.73833	1251.2875
2032.7764	1250.2875
2035.8125	1247.0875
2038.84664	1252.3875
2041.87881	1247.6875
2044.90903	1255.1875
2047.93729	1251.8875
2050.96359	1249.4875
2053.98794	1251.2875
2057.01034	1250.3875
2060.03078	1241.2875
2063.04927	1253.1875
2066.06582	1257.4875
2069.08042	1252.7875
2072.09307	1262.3875
2075.10378	1248.1875
2078.11255	1252.7875
2081.11938	1248.2875
2084.12426	1250.9875
2087.12722	1264.7875
2090.12824	1250.3875
2093.12732	1261.2875
2096.12447	1257.5875
2099.11969	1264.1875
2102.11299	1265.8875
2105.10435	1263.9875
2108.09379	1256.1875
2111.08131	1266.8875
2114.0669	1254.0875
2117.05057	1266.9875
2120.03233	1268.1875
2123.01216	1264.1875
2125.99008	1264.9875
2128.96609	1271.9875
2131.94018	1281.8875
2134.91236	1275.8875
2137.88263	1282.8875
2140.851	1285.0875
2143.81746	1291.8875
2146.78201	1286.8875
2149.74466	1304.7875
2152.7054	1286.5875
2155.66425	1287.7875
2158.6212	1286.8875
2161.57625	1286.0875
2164.52941	1287.8875
2167.48067	1283.7875
2170.43004	1284.9875
2173.37752	1283.4875
2176.32311	1295.1875
2179.26681	1285.0875
2182.20863	1291.3875
2185.14856	1297.7875
2188.08661	1294.5875
2191.02278	1292.1875
2193.95707	1290.4875
2196.88948	1282.5875
2199.82001	1288.5875
2202.74867	1291.9875
2205.67545	1278.8875
2208.60037	1279.6875
2211.52341	1280.7875
2214.44458	1277.6875
2217.36388	1266.7875
2220.28132	1277.0875
2223.1969	1274.5875
2226.11061	1277.7875
2229.02246	1269.7875
2231.93245	1260.8875
2234.84058	1260.9875
2237.74686	1261.5875
2240.65128	1269.0875
2243.55385	1269.4875
2246.45456	1264.7875
2249.35343	1269.5875
2252.25044	1263.4875
2255.14561	1265.8875
2258.03893	1258.0875
2260.93041	1246.2875
2263.82004	1258.0875
2266.70783	1246.5875
2269.59378	1258.1875
2272.4779	1255.8875
2275.36017	1257.0875
2278.24061	1246.2875
2281.11922	1242.4875
2283.996	1246.7875
2286.87094	1242.4875
2289.74405	1248.3875
2292.61534	1251.8875
2295.4848	1242.2875
2298.35243	1234.4875
2301.21824	1243.2875
2304.08223	1243.0875
2306.94439	1244.4875
2309.80474	1246.0875
2312.66327	1244.2875
2315.51999	1247.4875
2318.37489	1246.9875
2321.22797	1235.6875
2324.07925	1234.9875
2326.92871	1238.1875
2329.77637	1243.2875
2332.62222	1233.5875
2335.46626	1235.5875
2338.3085	1234.0875
2341.14893	1226.9875
2343.98756	1227.3875
2346.8244	1233.1875
2349.65943	1229.8875
2352.49267	1227.7875
2355.32411	1225.6875
2358.15376	1230.1875
2360.98161	1230.2875
2363.80768	1234.2875
2366.63195	1220.2875
2369.45444	1242.8875
2372.27514	1236.2875
2375.09405	1233.6875
2377.91118	1233.0875
2380.72652	1233.9875
2383.54009	1227.4875
2386.35187	1229.2875
2389.16188	1219.7875
2391.97011	1233.5875
2394.77657	1225.4875
2397.58125	1210.9875
2400.38416	1210.3875
2403.18529	1215.2875
2405.98466	1215.9875
2408.78226	1266.2875
2411.57809	1261.5875
2414.37216	1219.4875
2417.16446	1212.7875
2419.955	1214.6875
2422.74378	1204.2875
2425.5308	1212.8875
2428.31606	1212.0875
2431.09956	1212.5875
2433.88131	1204.8875
2436.6613	1208.5875
2439.43954	1207.2875
2442.21603	1203.8875
2444.99077	1210.9875
2447.76377	1219.1875
2450.53501	1218.4875
2453.30451	1219.0875
2456.07226	1211.0875
2458.83827	1209.9875
2461.60254	1199.2875
2464.36507	1204.8875
2467.12586	1204.6875
2469.88492	1200.7875
2472.64224	1199.5875
2475.39782	1197.8875
2478.15167	1199.3875
2480.90379	1202.2875
2483.65417	1203.4875
2486.40283	1195.1875
2489.14976	1201.3875
2491.89497	1204.9875
2494.63845	1197.3875
2497.3802	1195.6875
2500.12024	1191.8875
2502.85855	1186.3875
2505.59514	1198.4875
2508.33002	1197.9875
2511.06318	1205.3875
2513.79462	1195.2875
2516.52435	1196.2875
2519.25237	1195.5875
2521.97867	1193.3875
2524.70327	1193.7875
2527.42616	1192.1875
2530.14734	1190.8875
2532.86681	1198.9875
2535.58458	1197.0875
2538.30065	1195.8875
2541.01501	1197.2875
2543.72768	1190.1875
2546.43864	1189.2875
2549.14791	1188.4875
2551.85548	1186.1875
2554.56136	1185.1875
2557.26554	1190.2875
2559.96803	1177.6875
2562.66883	1194.8875
2565.36794	1172.0875
2568.06536	1182.7875
2570.7611	1178.4875
2573.45514	1176.6875
2576.14751	1177.2875
2578.83819	1172.8875
2581.52719	1174.6875
2584.21451	1172.8875
2586.90015	1164.9875
2589.58411	1171.6875
2592.2664	1167.7875
2594.94701	1175.7875
2597.62594	1165.6875
2600.30321	1164.2875
2602.9788	1162.2875
2605.65273	1166.9875
2608.32498	1156.0875
2610.99557	1163.4875
2613.66449	1155.2875
2616.33175	1163.8875
2618.99734	1163.8875
2621.66128	1155.7875
2624.32355	1152.6875
2626.98416	1154.3875
2629.64311	1152.4875
2632.30041	1154.1875
2634.95605	1154.1875
2637.61004	1146.5875
2640.26238	1145.2875
2642.91306	1140.5875
2645.56209	1147.8875
2648.20948	1150.4875
2650.85521	1149.5875
2653.4993	1157.1875
2656.14175	1145.3875
2658.78255	1152.1875
2661.42171	1153.4875
2664.05923	1142.7875
2666.6951	1152.6875
2669.32934	1156.4875
2671.96194	1146.9875
2674.59291	1150.3875
2677.22224	1146.6875
2679.84993	1146.1875
2682.476	1152.3875
2685.10043	1159.5875
2687.72324	1150.3875
2690.34441	1156.3875
2692.96396	1148.3875
2695.58188	1142.0875
2698.19818	1151.1875
2700.81285	1152.3875
2703.4259	1149.6875
2706.03733	1125.3875
2708.64714	1127.2875
2711.25533	1141.7875
2713.86191	1147.8875
2716.46687	1150.9875
2719.07021	1157.1875
2721.67194	1149.8875
2724.27206	1157.8875
2726.87057	1161.4875
2729.46747	1164.2875
2732.06276	1169.9875
2734.65644	1159.8875
2737.24852	1157.6875
2739.83899	1160.7875
2742.42786	1168.8875
2745.01513	1165.8875
2747.60079	1163.2875
2750.18486	1169.2875
2752.76733	1167.2875
2755.3482	1153.1875
2757.92747	1157.1875
2760.50515	1157.3875
2763.08123	1150.4875
2765.65573	1152.3875
2768.22863	1151.5875
2770.79994	1153.6875
2773.36967	1156.9875
2775.9378	1155.0875
2778.50435	1158.1875
2781.06932	1151.3875
2783.6327	1156.1875
2786.1945	1155.5875
2788.75471	1141.4875
2791.31335	1150.5875
2793.87041	1150.0875
2796.42589	1148.6875
2798.97979	1152.7875
2801.53212	1147.4875
2804.08288	1148.4875
2806.63206	1140.0875
2809.17967	1140.7875
2811.72571	1129.2875
2814.27018	1136.9875
2816.81308	1131.1875
2819.35442	1135.6875
2821.89419	1126.6875
2824.43239	1122.8875
2826.96904	1125.2875
2829.50412	1126.9875
2832.03763	1126.4875
2834.56959	1128.1875
2837.1	1128.4875
2839.62884	1121.0875
2842.15613	1124.1875
2844.68186	1122.3875
2847.20604	1115.0875
2849.72867	1120.1875
2852.24974	1131.8875
2854.76927	1124.4875
2857.28724	1118.9875
2859.80367	1126.8875
2862.31855	1126.2875
2864.83189	1122.9875
2867.34368	1120.0875
2869.85393	1120.6875
2872.36264	1121.0875
2874.8698	1117.5875
2877.37543	1117.3875
2879.87952	1123.0875
2882.38207	1122.2875
2884.88308	1114.6875
2887.38256	1122.6875
2889.88051	1125.4875
2892.37692	1123.9875
2894.8718	1122.7875
2897.36515	1124.8875
2899.85698	1123.3875
2902.34727	1135.4875
2904.83604	1126.5875
2907.32328	1135.5875
2909.809	1141.6875
2912.29319	1140.8875
2914.77587	1132.9875
2917.25702	1136.5875
2919.73665	1129.0875
2922.21476	1130.2875
2924.69136	1144.1875
2927.16644	1145.2875
2929.64	1141.1875
2932.11205	1133.7875
2934.58258	1133.2875
2937.05161	1137.0875
2939.51912	1134.1875
2941.98513	1140.8875
2944.44962	1144.6875
2946.91261	1140.2875
2949.37409	1141.4875
2951.83407	1144.1875
2954.29254	1147.2875
2956.74951	1149.3875
2959.20498	1155.3875
2961.65895	1148.2875
2964.11142	1164.5875
2966.56239	1153.8875
2969.01186	1156.5875
2971.45984	1159.5875
2973.90632	1166.6875
2976.35131	1169.6875
2978.7948	1161.3875
2981.23681	1165.3875
2983.67732	1165.6875
2986.11635	1161.4875
2988.55388	1152.0875
2990.98993	1157.6875
2993.4245	1153.9875
2995.85758	1161.5875
2998.28917	1160.3875
3000.71928	1159.4875
3003.14791	1160.7875
3005.57506	1160.7875
3008.00073	1158.8875
3010.42493	1160.5875
3012.84764	1162.3875
3015.26888	1163.7875
3017.68865	1168.5875
3020.10694	1156.4875
3022.52376	1169.9875
3024.9391	1163.9875
3027.35298	1166.8875
3029.76539	1178.7875
3032.17632	1183.5875
3034.5858	1173.8875
3036.9938	1169.9875
3039.40034	1193.8875
3041.80542	1178.3875
3044.20903	1183.6875
3046.61118	1186.0875
3049.01187	1188.8875
3051.4111	1189.3875
3053.80888	1200.2875
3056.20519	1196.8875
3058.60005	1192.7875
3060.99345	1203.9875
3063.3854	1200.6875
3065.7759	1203.8875
3068.16494	1200.7875
3070.55254	1203.6875
3072.93868	1209.6875
3075.32338	1206.1875
3077.70662	1212.2875
3080.08842	1210.8875
3082.46878	1209.9875
3084.84769	1217.5875
3087.22515	1225.6875
3089.60118	1228.4875
3091.97576	1245.4875
3094.3489	1236.6875
3096.72061	1234.7875
3099.09087	1243.0875
3101.4597	1257.3875
3103.82709	1267.9875
3106.19305	1268.1875
3108.55757	1267.9875
3110.92066	1280.0875
3113.28232	1282.7875
3115.64255	1290.5875
3118.00134	1293.0875
3120.35871	1290.2875
3122.71466	1291.5875
3125.06917	1296.0875
3127.42226	1290.4875
3129.77393	1312.1875
