Data from AgNPs_APTES_FTO_UA_100uM_CRN_0uM_R6G_10uM_Scan_RamanShift__36__11-21-41-276.txt Node

Date: Wed Jun 29 11:21:41 BST 2022
User: TCL
Spectrometer: QEP01345
Trigger mode: 4
Integration Time (sec): 7.000000E0
Scans to average: 10
Electric dark correction enabled: true
Nonlinearity correction enabled: false
Boxcar width: 0
XAxis mode: Raman Shifts
Number of Pixels in Spectrum: 1044
>>>>>Begin Spectral Data<<<<<
46.04893	-0.825
50.45542	2.175
54.85868	0.575
59.25871	1.175
63.6555	38.975
68.04907	40.975
72.43941	42.775
76.82654	46.975
81.21044	51.875
85.59113	52.875
89.96862	58.475
94.34289	58.775
98.71396	56.875
103.08183	61.175
107.4465	60.375
111.80798	63.375
116.16626	59.075
120.52136	61.375
124.87327	60.275
129.222	59.875
133.56755	58.175
137.90993	53.875
142.24913	58.475
146.58517	54.775
150.91804	54.575
155.24774	60.975
159.57429	62.675
163.89768	67.175
168.21792	72.275
172.53501	85.475
176.84895	105.775
181.15975	137.375
185.46741	170.975
189.77193	217.375
194.07331	286.875
198.37157	361.675
202.6667	435.475
206.9587	509.075
211.24758	593.375
215.53334	664.275
219.81599	753.975
224.09553	843.575
228.37195	935.375
232.64527	1053.175
236.91549	1157.075
241.18261	1249.075
245.44663	1341.575
249.70755	1419.475
253.96539	1469.475
258.22014	1520.775
262.4718	1557.875
266.72039	1568.075
270.96589	1574.975
275.20832	1562.075
279.44768	1531.775
283.68397	1493.875
287.91719	1467.475
292.14735	1454.675
296.37445	1455.975
300.59849	1485.475
304.81948	1515.375
309.03742	1553.875
313.25231	1556.075
317.46415	1519.975
321.67296	1452.075
325.87872	1404.575
330.08145	1380.275
334.28114	1384.675
338.47781	1407.575
342.67145	1417.375
346.86207	1472.075
351.04966	1518.475
355.23424	1594.375
359.4158	1646.175
363.59435	1669.975
367.76989	1681.875
371.94243	1691.375
376.11196	1700.275
380.27849	1700.775
384.44203	1704.375
388.60257	1697.275
392.76012	1700.375
396.91468	1713.975
401.06626	1735.475
405.21485	1751.975
409.36047	1735.175
413.50311	1676.775
417.64277	1626.675
421.77947	1592.275
425.9132	1578.975
430.04396	1572.875
434.17176	1592.575
438.2966	1611.575
442.41849	1639.075
446.53742	1663.775
450.6534	1690.775
454.76644	1704.075
458.87653	1711.175
462.98368	1699.075
467.08789	1688.675
471.18916	1679.075
475.2875	1660.475
479.38291	1659.175
483.4754	1649.975
487.56496	1639.775
491.6516	1652.375
495.73531	1649.675
499.81612	1650.175
503.89401	1670.275
507.96899	1668.675
512.04106	1670.475
516.11023	1690.475
520.1765	1704.875
524.23987	1712.375
528.30034	1700.875
532.35792	1697.975
536.41261	1672.175
540.46441	1653.275
544.51333	1640.175
548.55936	1644.475
552.60252	1660.375
556.64279	1671.975
560.6802	1685.275
564.71473	1696.275
568.7464	1737.175
572.7752	1750.775
576.80114	1709.875
580.82422	1676.375
584.84444	1672.375
588.86181	1689.575
592.87633	1724.275
596.888	1749.575
600.89682	1779.075
604.9028	1897.875
608.90594	2241.375
612.90624	2686.275
616.90371	2603.275
620.89834	2062.275
624.89015	1816.475
628.87913	1785.975
632.86528	1817.075
636.84862	1866.375
640.82913	1849.075
644.80683	1804.775
648.78172	1757.275
652.75379	1754.375
656.72306	1787.175
660.68952	1826.175
664.65319	1809.875
668.61405	1761.975
672.57211	1751.775
676.52738	1784.175
680.47986	1828.375
684.42955	1861.875
688.37646	1896.575
692.32058	1901.575
696.26192	1856.075
700.20048	1828.375
704.13626	1804.775
708.06928	1788.875
711.99952	1769.575
715.927	1760.875
719.85171	1742.575
723.77365	1747.675
727.69284	1735.875
731.60928	1737.075
735.52295	1729.875
739.43388	1740.475
743.34206	1722.175
747.24749	1727.775
751.15017	1717.175
755.05012	1692.875
758.94733	1752.575
762.8418	1885.075
766.73354	2080.375
770.62254	2293.575
774.50882	2421.375
778.39237	2344.675
782.27321	2146.475
786.15132	1959.975
790.02671	1823.375
793.89938	1765.475
797.76935	1748.375
801.6366	1733.975
805.50115	1734.075
809.36299	1737.675
813.22213	1730.375
817.07857	1723.075
820.93231	1703.675
824.78336	1697.075
828.63172	1688.575
832.47738	1684.775
836.32036	1686.175
840.16066	1676.275
843.99827	1670.375
847.8332	1678.875
851.66546	1682.275
855.49504	1672.275
859.32195	1677.075
863.1462	1676.375
866.96777	1673.275
870.78668	1677.875
874.60293	1685.175
878.41652	1693.475
882.22745	1705.775
886.03573	1708.875
889.84136	1712.175
893.64433	1716.075
897.44466	1692.475
901.24235	1689.375
905.0374	1674.475
908.8298	1657.275
912.61957	1644.675
916.40671	1656.375
920.19121	1655.075
923.97308	1658.575
927.75233	1685.875
931.52895	1691.975
935.30295	1673.275
939.07433	1661.275
942.84309	1635.775
946.60924	1621.575
950.37278	1626.675
954.13371	1622.075
957.89203	1610.975
961.64774	1619.575
965.40086	1597.575
969.15137	1589.475
972.89929	1582.575
976.64461	1583.675
980.38733	1585.075
984.12747	1574.775
987.86502	1567.775
991.59999	1583.075
995.33237	1597.475
999.06217	1597.275
1002.78939	1624.475
1006.51404	1649.775
1010.23611	1665.975
1013.95561	1687.575
1017.67255	1686.975
1021.38692	1681.275
1025.09872	1670.375
1028.80796	1655.675
1032.51465	1660.375
1036.21877	1645.375
1039.92035	1648.875
1043.61937	1641.475
1047.31584	1663.475
1051.00976	1663.075
1054.70114	1669.675
1058.38998	1669.875
1062.07627	1677.075
1065.76003	1687.775
1069.44126	1700.475
1073.11995	1719.775
1076.79611	1741.275
1080.46974	1764.275
1084.14085	1779.475
1087.80943	1797.275
1091.47549	1787.875
1095.13903	1757.875
1098.80005	1726.475
1102.45857	1702.575
1106.11456	1700.975
1109.76805	1705.575
1113.41903	1733.775
1117.06751	1771.575
1120.71348	1832.075
1124.35696	1914.075
1127.99793	2000.275
1131.63641	2009.575
1135.2724	1987.175
1138.90589	1917.175
1142.5369	1876.375
1146.16542	1825.375
1149.79145	1779.175
1153.415	1752.675
1157.03607	1745.375
1160.65467	1750.875
1164.27079	1771.675
1167.88443	1827.875
1171.49561	1929.775
1175.10432	2066.575
1178.71056	2271.175
1182.31434	2452.375
1185.91565	2496.875
1189.51451	2429.975
1193.11091	2315.275
1196.70485	2209.875
1200.29634	2133.875
1203.88538	2059.275
1207.47197	1974.875
1211.05612	1886.875
1214.63782	1826.575
1218.21708	1814.175
1221.79391	1805.075
1225.36829	1797.075
1228.94024	1792.075
1232.50976	1785.075
1236.07685	1775.675
1239.6415	1785.175
1243.20374	1788.375
1246.76355	1792.375
1250.32093	1807.075
1253.8759	1825.075
1257.42845	1848.375
1260.97859	1888.575
1264.52631	1938.475
1268.07163	1982.875
1271.61453	2021.275
1275.15503	2050.375
1278.69312	2056.075
1282.22882	2061.175
1285.76211	2085.575
1289.29301	2151.575
1292.82151	2228.075
1296.34761	2287.975
1299.87133	2396.175
1303.39266	2550.175
1306.9116	2769.875
1310.42815	3026.775
1313.94233	3132.275
1317.45412	3030.275
1320.96354	2805.775
1324.47058	2597.475
1327.97525	2434.075
1331.47754	2323.275
1334.97747	2271.475
1338.47502	2273.675
1341.97022	2324.975
1345.46305	2417.175
1348.95352	2576.475
1352.44163	2797.075
1355.92738	3065.775
1359.41078	3438.675
1362.89183	3835.575
1366.37053	3791.375
1369.84688	3275.675
1373.32088	2789.075
1376.79254	2484.975
1380.26186	2343.775
1383.72883	2241.475
1387.19347	2171.575
1390.65578	2090.175
1394.11575	2030.975
1397.57339	1990.975
1401.0287	1964.275
1404.48168	1949.275
1407.93234	1927.275
1411.38068	1902.075
1414.82669	1891.175
1418.27039	1874.675
1421.71177	1865.875
1425.15083	1853.475
1428.58758	1836.875
1432.02203	1847.275
1435.45416	1869.075
1438.88399	1881.275
1442.31151	1878.575
1445.73673	1887.475
1449.15965	1894.575
1452.58027	1898.875
1455.9986	1900.875
1459.41463	1905.475
1462.82837	1922.175
1466.23982	1945.675
1469.64898	1979.575
1473.05586	1999.375
1476.46045	1999.075
1479.86276	2004.175
1483.26279	2016.675
1486.66054	2031.575
1490.05602	2063.075
1493.44922	2128.475
1496.84016	2247.375
1500.22882	2446.375
1503.61521	2731.575
1506.99934	3089.875
1510.38121	3361.875
1513.76081	3441.675
1517.13816	3213.675
1520.51324	2842.875
1523.88607	2489.075
1527.25665	2274.075
1530.62498	2154.575
1533.99105	2066.675
1537.35488	2037.175
1540.71647	2005.275
1544.07581	1985.575
1547.4329	1980.775
1550.78776	1982.675
1554.14038	1989.675
1557.49077	2023.075
1560.83892	2056.975
1564.18484	2096.575
1567.52853	2170.775
1570.86999	2244.675
1574.20922	2295.675
1577.54624	2303.075
1580.88103	2225.875
1584.2136	2092.975
1587.54395	2002.775
1590.87208	1961.575
1594.19801	1991.975
1597.52172	2069.975
1600.84321	2094.075
1604.16251	2051.375
1607.47959	1968.675
1610.79447	1889.875
1614.10715	1813.075
1617.41763	1762.875
1620.7259	1706.375
1624.03199	1692.675
1627.33587	1686.575
1630.63757	1699.675
1633.93707	1731.475
1637.23439	1811.775
1640.52951	1936.275
1643.82246	2132.775
1647.11321	2385.575
1650.40179	2547.775
1653.68819	2504.875
1656.97241	2260.275
1660.25446	1985.175
1663.53433	1772.375
1666.81203	1656.475
1670.08756	1601.975
1673.36092	1560.175
1676.63211	1528.375
1679.90115	1513.375
1683.16801	1488.375
1686.43272	1468.875
1689.69527	1447.175
1692.95567	1415.475
1696.2139	1392.775
1699.46999	1373.375
1702.72392	1361.575
1705.97571	1339.075
1709.22535	1339.675
1712.47284	1333.675
1715.71819	1325.775
1718.96139	1313.975
1722.20246	1308.275
1725.44139	1282.475
1728.67818	1267.275
1731.91284	1244.375
1735.14537	1238.575
1738.37576	1229.375
1741.60403	1222.575
1744.83017	1212.875
1748.05418	1206.875
1751.27607	1187.075
1754.49584	1177.375
1757.71349	1170.275
1760.92903	1160.875
1764.14244	1162.975
1767.35375	1150.875
1770.56294	1152.075
1773.77002	1144.975
1776.97499	1142.975
1780.17785	1147.375
1783.37861	1153.275
1786.57727	1140.775
1789.77382	1146.575
1792.96828	1137.475
1796.16064	1138.575
1799.3509	1135.375
1802.53907	1131.675
1805.72514	1126.175
1808.90913	1126.375
1812.09102	1119.275
1815.27083	1121.475
1818.44856	1118.875
1821.6242	1107.875
1824.79776	1106.575
1827.96924	1101.075
1831.13864	1104.275
1834.30597	1101.375
1837.47122	1094.875
1840.6344	1092.375
1843.7955	1091.475
1846.95454	1094.175
1850.11151	1089.375
1853.26642	1095.075
1856.41926	1092.775
1859.57004	1094.375
1862.71876	1087.475
1865.86542	1085.175
1869.01003	1081.075
1872.15258	1084.275
1875.29308	1082.375
1878.43152	1060.175
1881.56792	1075.575
1884.70227	1071.875
1887.83457	1077.475
1890.96482	1066.175
1894.09304	1071.375
1897.21921	1060.475
1900.34335	1064.675
1903.46544	1063.775
1906.58551	1064.375
1909.70353	1056.775
1912.81953	1061.075
1915.93349	1063.075
1919.04543	1053.475
1922.15534	1056.075
1925.26322	1049.975
1928.36908	1049.775
1931.47292	1049.575
1934.57473	1044.575
1937.67453	1043.475
1940.77232	1044.675
1943.86808	1035.575
1946.96184	1031.975
1950.05358	1016.275
1953.14331	1023.875
1956.23103	1021.575
1959.31675	1023.275
1962.40046	1014.175
1965.48217	1011.575
1968.56188	1007.075
1971.63959	1012.075
1974.7153	1003.575
1977.78901	1002.075
1980.86073	988.975
1983.93046	989.875
1986.99819	995.675
1990.06394	987.175
1993.1277	980.175
1996.18947	979.775
1999.24925	978.575
2002.30706	975.875
2005.36288	961.775
2008.41672	972.475
2011.46859	961.875
2014.51848	965.775
2017.56639	966.775
2020.61233	964.775
2023.6563	953.275
2026.6983	954.875
2029.73833	950.975
2032.7764	956.275
2035.8125	952.475
2038.84664	939.675
2041.87881	947.775
2044.90903	943.975
2047.93729	940.175
2050.96359	939.275
2053.98794	938.675
2057.01034	944.475
2060.03078	944.275
2063.04927	939.275
2066.06582	945.675
2069.08042	935.275
2072.09307	951.875
2075.10378	940.975
2078.11255	943.075
2081.11938	954.075
2084.12426	944.175
2087.12722	953.775
2090.12824	948.375
2093.12732	947.775
2096.12447	947.975
2099.11969	944.875
2102.11299	951.875
2105.10435	951.075
2108.09379	943.675
2111.08131	946.875
2114.0669	957.775
2117.05057	954.375
2120.03233	949.475
2123.01216	944.475
2125.99008	948.675
2128.96609	942.975
2131.94018	942.275
2134.91236	934.175
2137.88263	946.675
2140.851	944.375
2143.81746	939.475
2146.78201	941.775
2149.74466	944.175
2152.7054	937.575
2155.66425	933.875
2158.6212	939.675
2161.57625	935.975
2164.52941	937.575
2167.48067	935.675
2170.43004	937.075
2173.37752	927.975
2176.32311	929.875
2179.26681	934.875
2182.20863	929.975
2185.14856	935.175
2188.08661	933.475
2191.02278	931.675
2193.95707	933.275
2196.88948	922.575
2199.82001	929.175
2202.74867	918.875
2205.67545	925.575
2208.60037	921.375
2211.52341	928.075
2214.44458	908.475
2217.36388	913.675
2220.28132	913.775
2223.1969	909.775
2226.11061	905.375
2229.02246	909.775
2231.93245	912.575
2234.84058	906.975
2237.74686	901.075
2240.65128	904.175
2243.55385	893.375
2246.45456	892.875
2249.35343	897.575
2252.25044	899.475
2255.14561	894.775
2258.03893	896.575
2260.93041	891.375
2263.82004	886.775
2266.70783	878.975
2269.59378	881.275
2272.4779	879.375
2275.36017	881.775
2278.24061	884.775
2281.11922	875.575
2283.996	878.275
2286.87094	877.575
2289.74405	881.675
2292.61534	879.375
2295.4848	867.775
2298.35243	872.475
2301.21824	866.775
2304.08223	866.775
2306.94439	872.675
2309.80474	865.875
2312.66327	864.475
2315.51999	866.775
2318.37489	865.075
2321.22797	855.475
2324.07925	870.175
2326.92871	857.375
2329.77637	867.375
2332.62222	854.675
2335.46626	861.675
2338.3085	853.575
2341.14893	851.375
2343.98756	857.975
2346.8244	855.175
2349.65943	853.775
2352.49267	849.675
2355.32411	844.075
2358.15376	849.375
2360.98161	851.875
2363.80768	852.575
2366.63195	858.675
2369.45444	862.175
2372.27514	860.275
2375.09405	854.575
2377.91118	852.175
2380.72652	851.175
2383.54009	851.775
2386.35187	843.475
2389.16188	837.675
2391.97011	849.675
2394.77657	837.375
2397.58125	840.875
2400.38416	833.675
2403.18529	833.175
2405.98466	826.975
2408.78226	831.675
2411.57809	827.075
2414.37216	825.675
2417.16446	831.275
2419.955	828.075
2422.74378	827.275
2425.5308	832.175
2428.31606	823.875
2431.09956	824.075
2433.88131	818.275
2436.6613	829.475
2439.43954	825.575
2442.21603	819.875
2444.99077	828.075
2447.76377	825.575
2450.53501	817.675
2453.30451	827.075
2456.07226	819.375
2458.83827	821.075
2461.60254	813.275
2464.36507	814.075
2467.12586	810.775
2469.88492	813.975
2472.64224	819.775
2475.39782	809.375
2478.15167	806.975
2480.90379	813.975
2483.65417	817.075
2486.40283	818.775
2489.14976	823.175
2491.89497	820.275
2494.63845	814.275
2497.3802	811.275
2500.12024	812.075
2502.85855	806.775
2505.59514	817.675
2508.33002	805.775
2511.06318	811.075
2513.79462	804.475
2516.52435	803.875
2519.25237	802.675
2521.97867	802.775
2524.70327	801.975
2527.42616	798.775
2530.14734	788.275
2532.86681	793.375
2535.58458	792.175
2538.30065	794.975
2541.01501	795.875
2543.72768	796.575
2546.43864	792.675
2549.14791	791.275
2551.85548	789.875
2554.56136	793.875
2557.26554	786.775
2559.96803	787.775
2562.66883	786.675
2565.36794	786.575
2568.06536	788.875
2570.7611	783.375
2573.45514	781.575
2576.14751	781.175
2578.83819	769.975
2581.52719	776.975
2584.21451	775.075
2586.90015	767.475
2589.58411	771.475
2592.2664	775.975
2594.94701	775.875
2597.62594	772.375
2600.30321	773.275
2602.9788	773.775
2605.65273	772.975
2608.32498	768.275
2610.99557	766.575
2613.66449	767.075
2616.33175	768.675
2618.99734	764.675
2621.66128	764.775
2624.32355	766.875
2626.98416	769.775
2629.64311	758.075
2632.30041	762.475
2634.95605	757.875
2637.61004	755.675
2640.26238	763.575
2642.91306	759.875
2645.56209	758.975
2648.20948	756.975
2650.85521	751.875
2653.4993	753.975
2656.14175	760.175
2658.78255	753.875
2661.42171	758.375
2664.05923	759.975
2666.6951	754.675
2669.32934	754.375
2671.96194	751.975
2674.59291	755.975
2677.22224	757.075
2679.84993	756.275
2682.476	749.775
2685.10043	759.075
2687.72324	758.875
2690.34441	757.975
2692.96396	755.475
2695.58188	759.875
2698.19818	748.075
2700.81285	753.875
2703.4259	748.775
2706.03733	734.175
2708.64714	742.875
2711.25533	752.275
2713.86191	750.075
2716.46687	762.575
2719.07021	750.375
2721.67194	762.575
2724.27206	758.575
2726.87057	767.575
2729.46747	759.375
2732.06276	768.775
2734.65644	762.075
2737.24852	772.075
2739.83899	762.375
2742.42786	765.575
2745.01513	757.675
2747.60079	760.075
2750.18486	763.175
2752.76733	755.775
2755.3482	753.175
2757.92747	756.575
2760.50515	754.675
2763.08123	746.475
2765.65573	754.275
2768.22863	753.575
2770.79994	758.775
2773.36967	749.375
2775.9378	754.475
2778.50435	750.975
2781.06932	751.875
2783.6327	751.275
2786.1945	749.275
2788.75471	748.875
2791.31335	756.175
2793.87041	756.375
2796.42589	757.875
2798.97979	749.775
2801.53212	743.475
2804.08288	749.875
2806.63206	740.175
2809.17967	739.675
2811.72571	736.475
2814.27018	737.875
2816.81308	743.075
2819.35442	740.875
2821.89419	733.775
2824.43239	739.075
2826.96904	740.375
2829.50412	740.675
2832.03763	731.675
2834.56959	739.075
2837.1	741.075
2839.62884	736.475
2842.15613	732.275
2844.68186	739.075
2847.20604	732.375
2849.72867	738.075
2852.24974	747.875
2854.76927	735.375
2857.28724	741.175
2859.80367	739.475
2862.31855	745.675
2864.83189	746.975
2867.34368	742.875
2869.85393	743.175
2872.36264	743.875
2874.8698	750.175
2877.37543	750.275
2879.87952	751.775
2882.38207	754.575
2884.88308	755.575
2887.38256	749.275
2889.88051	756.375
2892.37692	755.975
2894.8718	752.775
2897.36515	758.875
2899.85698	757.875
2902.34727	758.275
2904.83604	775.375
2907.32328	765.175
2909.809	770.175
2912.29319	768.375
2914.77587	771.375
2917.25702	774.675
2919.73665	769.675
2922.21476	777.675
2924.69136	773.075
2927.16644	780.175
2929.64	773.875
2932.11205	781.775
2934.58258	776.375
2937.05161	773.975
2939.51912	776.375
2941.98513	768.775
2944.44962	769.675
2946.91261	770.575
2949.37409	772.475
2951.83407	772.975
2954.29254	772.775
2956.74951	775.675
2959.20498	776.075
2961.65895	769.975
2964.11142	781.375
2966.56239	774.075
2969.01186	776.675
2971.45984	772.875
2973.90632	774.475
2976.35131	772.375
2978.7948	775.375
2981.23681	769.475
2983.67732	769.575
2986.11635	769.175
2988.55388	765.775
2990.98993	763.475
2993.4245	764.375
2995.85758	770.575
2998.28917	770.775
3000.71928	775.675
3003.14791	770.775
3005.57506	776.275
3008.00073	772.475
3010.42493	777.175
3012.84764	774.375
3015.26888	773.975
3017.68865	778.075
3020.10694	775.175
3022.52376	781.375
3024.9391	780.775
3027.35298	785.575
3029.76539	785.775
3032.17632	788.975
3034.5858	782.775
3036.9938	792.675
3039.40034	800.175
3041.80542	795.675
3044.20903	801.975
3046.61118	802.675
3049.01187	798.375
3051.4111	802.875
3053.80888	808.775
3056.20519	811.475
3058.60005	821.175
3060.99345	818.775
3063.3854	815.375
3065.7759	823.975
3068.16494	824.775
3070.55254	830.875
3072.93868	826.675
3075.32338	829.575
3077.70662	838.475
3080.08842	833.275
3082.46878	841.375
3084.84769	839.175
3087.22515	846.275
3089.60118	850.775
3091.97576	859.675
3094.3489	864.375
3096.72061	867.975
3099.09087	866.375
3101.4597	878.375
3103.82709	884.575
3106.19305	895.975
3108.55757	894.375
3110.92066	905.375
3113.28232	906.475
3115.64255	913.875
3118.00134	911.375
3120.35871	926.175
3122.71466	929.975
3125.06917	930.975
3127.42226	935.975
3129.77393	941.175
3132.12417	947.075
3134.47299	959.775
3136.82039	954.375
3139.16636	962.875
3141.51092	970.775
3143.85406	983.775
3146.19579	986.075
3148.53609	995.275
3150.87499	1000.475
3153.21246	1007.875
3155.54853	1027.075
3157.88318	1017.575
3160.21642	1042.775
3162.54826	1045.575
3164.87868	1045.175
3167.2077	1059.775
3169.5353	1063.875
3171.86151	1073.375
3174.18631	1085.875
3176.5097	1077.575
3178.83169	1096.975
3181.15228	1101.675
3183.47147	1102.375
3185.78926	1109.275
3188.10565	1112.775
3190.42065	1121.175
3192.73424	1127.175
3195.04645	1124.775
3197.35725	1128.875
3199.66667	1143.575
3201.97469	1140.475
3204.28132	1155.775
3206.58656	1157.675
3208.8904	1169.075
3211.19287	1165.675
3213.49394	1175.575
3215.79363	1168.175
3218.09193	1187.275
3220.38884	1177.275
3222.68438	1186.175
3224.97853	1184.375
3227.2713	1189.175
3229.56269	1195.575
3231.8527	1203.875
3234.14133	1199.675
3236.42858	1196.075
3238.71446	1204.175
3240.99896	1196.275
3243.28209	1204.975
3245.56384	1190.075
3247.84423	1203.875
3250.12324	1202.075
3252.40088	1196.075
3254.67715	1202.275
3256.95205	1203.275
3259.22558	1209.675
3261.49775	1204.975
3263.76855	1205.675
3266.03799	1210.575
3268.30606	1211.875
3270.57277	1211.275
3272.83812	1212.575
3275.10211	1206.275
3277.36474	1207.775
3279.62601	1196.775
3281.88593	1208.075
3284.14448	1208.975
3286.40168	1214.275
3288.65753	1208.475
