Data from AgNPs_APTES_FTO_UA_100uM_CRN_0uM_R6G_10uM_Scan_RamanShift__10__10-51-21-240.txt Node

Date: Wed Jun 29 10:51:21 BST 2022
User: TCL
Spectrometer: QEP01345
Trigger mode: 4
Integration Time (sec): 7.000000E0
Scans to average: 10
Electric dark correction enabled: true
Nonlinearity correction enabled: false
Boxcar width: 0
XAxis mode: Raman Shifts
Number of Pixels in Spectrum: 1044
>>>>>Begin Spectral Data<<<<<
46.04893	0.275
50.45542	1.375
54.85868	0.575
59.25871	0.075
63.6555	34.575
68.04907	36.775
72.43941	37.775
76.82654	41.775
81.21044	46.775
85.59113	47.575
89.96862	49.375
94.34289	50.475
98.71396	54.175
103.08183	53.675
107.4465	50.775
111.80798	57.075
116.16626	52.775
120.52136	55.275
124.87327	51.275
129.222	55.075
133.56755	50.775
137.90993	48.475
142.24913	50.175
146.58517	47.075
150.91804	43.575
155.24774	50.475
159.57429	49.375
163.89768	52.375
168.21792	60.575
172.53501	63.675
176.84895	77.575
181.15975	99.975
185.46741	121.675
189.77193	155.775
194.07331	200.875
198.37157	254.675
202.6667	308.175
206.9587	354.275
211.24758	412.075
215.53334	462.275
219.81599	520.475
224.09553	571.675
228.37195	638.575
232.64527	706.375
236.91549	781.175
241.18261	845.075
245.44663	916.175
249.70755	981.475
253.96539	1034.475
258.22014	1073.275
262.4718	1093.475
266.72039	1106.775
270.96589	1098.375
275.20832	1086.775
279.44768	1071.275
283.68397	1033.675
287.91719	1025.175
292.14735	987.175
296.37445	965.875
300.59849	965.175
304.81948	954.275
309.03742	958.675
313.25231	946.775
317.46415	933.375
321.67296	924.875
325.87872	907.175
330.08145	901.975
334.28114	900.975
338.47781	915.275
342.67145	914.375
346.86207	933.275
351.04966	944.375
355.23424	969.875
359.4158	979.075
363.59435	994.975
367.76989	997.075
371.94243	1003.775
376.11196	1004.075
380.27849	1011.775
384.44203	1022.775
388.60257	1016.175
392.76012	1031.375
396.91468	1033.175
401.06626	1040.075
405.21485	1051.375
409.36047	1048.675
413.50311	1045.175
417.64277	1034.275
421.77947	1024.375
425.9132	1023.875
430.04396	1020.075
434.17176	1031.775
438.2966	1034.675
442.41849	1053.575
446.53742	1067.175
450.6534	1079.675
454.76644	1087.175
458.87653	1092.275
462.98368	1097.475
467.08789	1098.975
471.18916	1092.275
475.2875	1106.575
479.38291	1099.175
483.4754	1099.875
487.56496	1105.375
491.6516	1106.475
495.73531	1115.475
499.81612	1107.675
503.89401	1110.175
507.96899	1103.875
512.04106	1099.575
516.11023	1098.875
520.1765	1097.275
524.23987	1098.075
528.30034	1091.975
532.35792	1095.375
536.41261	1083.375
540.46441	1082.975
544.51333	1071.075
548.55936	1070.875
552.60252	1073.275
556.64279	1081.775
560.6802	1073.575
564.71473	1087.975
568.7464	1096.675
572.7752	1113.275
576.80114	1091.575
580.82422	1090.875
584.84444	1091.275
588.86181	1096.775
592.87633	1105.075
596.888	1108.775
600.89682	1112.675
604.9028	1143.375
608.90594	1206.275
612.90624	1321.775
616.90371	1307.475
620.89834	1203.075
624.89015	1165.875
628.87913	1162.675
632.86528	1183.175
636.84862	1196.075
640.82913	1203.775
644.80683	1200.475
648.78172	1180.375
652.75379	1175.775
656.72306	1173.575
660.68952	1182.975
664.65319	1185.075
668.61405	1178.775
672.57211	1186.675
676.52738	1202.075
680.47986	1223.175
684.42955	1254.075
688.37646	1286.075
692.32058	1263.875
696.26192	1230.775
700.20048	1209.575
704.13626	1190.675
708.06928	1188.275
711.99952	1185.475
715.927	1184.375
719.85171	1184.275
723.77365	1180.875
727.69284	1167.675
731.60928	1172.875
735.52295	1167.475
739.43388	1162.175
743.34206	1161.875
747.24749	1157.575
751.15017	1158.675
755.05012	1141.075
758.94733	1167.375
762.8418	1197.275
766.73354	1237.675
770.62254	1290.775
774.50882	1313.075
778.39237	1289.675
782.27321	1253.875
786.15132	1221.175
790.02671	1200.875
793.89938	1196.075
797.76935	1189.975
801.6366	1196.075
805.50115	1199.675
809.36299	1203.175
813.22213	1203.275
817.07857	1201.675
820.93231	1179.475
824.78336	1173.275
828.63172	1159.575
832.47738	1159.975
836.32036	1159.875
840.16066	1155.475
843.99827	1161.875
847.8332	1154.575
851.66546	1148.575
855.49504	1136.775
859.32195	1137.675
863.1462	1142.775
866.96777	1144.075
870.78668	1145.875
874.60293	1154.075
878.41652	1163.575
882.22745	1176.175
886.03573	1186.175
889.84136	1198.775
893.64433	1207.475
897.44466	1194.675
901.24235	1188.675
905.0374	1194.675
908.8298	1186.775
912.61957	1183.475
916.40671	1191.075
920.19121	1208.975
923.97308	1204.175
927.75233	1216.375
931.52895	1218.875
935.30295	1203.075
939.07433	1197.275
942.84309	1177.475
946.60924	1160.775
950.37278	1174.975
954.13371	1170.575
957.89203	1158.975
961.64774	1152.875
965.40086	1148.375
969.15137	1137.175
972.89929	1134.575
976.64461	1131.375
980.38733	1135.375
984.12747	1126.775
987.86502	1134.575
991.59999	1123.975
995.33237	1139.475
999.06217	1136.775
1002.78939	1142.075
1006.51404	1158.775
1010.23611	1158.875
1013.95561	1157.575
1017.67255	1166.775
1021.38692	1169.275
1025.09872	1165.975
1028.80796	1162.975
1032.51465	1155.575
1036.21877	1156.575
1039.92035	1159.175
1043.61937	1152.275
1047.31584	1156.475
1051.00976	1150.275
1054.70114	1148.475
1058.38998	1148.675
1062.07627	1164.175
1065.76003	1155.375
1069.44126	1167.875
1073.11995	1169.975
1076.79611	1171.575
1080.46974	1178.075
1084.14085	1174.475
1087.80943	1177.675
1091.47549	1177.575
1095.13903	1165.375
1098.80005	1157.375
1102.45857	1146.375
1106.11456	1137.475
1109.76805	1136.575
1113.41903	1152.575
1117.06751	1169.775
1120.71348	1196.675
1124.35696	1217.775
1127.99793	1249.575
1131.63641	1271.775
1135.2724	1281.575
1138.90589	1273.875
1142.5369	1258.475
1146.16542	1233.875
1149.79145	1217.175
1153.415	1195.475
1157.03607	1186.475
1160.65467	1171.875
1164.27079	1172.975
1167.88443	1185.375
1171.49561	1200.375
1175.10432	1226.775
1178.71056	1271.475
1182.31434	1305.375
1185.91565	1326.175
1189.51451	1314.575
1193.11091	1285.075
1196.70485	1274.475
1200.29634	1262.175
1203.88538	1256.475
1207.47197	1232.475
1211.05612	1232.275
1214.63782	1208.475
1218.21708	1206.075
1221.79391	1198.975
1225.36829	1194.475
1228.94024	1194.875
1232.50976	1203.075
1236.07685	1204.475
1239.6415	1206.875
1243.20374	1213.075
1246.76355	1225.875
1250.32093	1221.175
1253.8759	1226.875
1257.42845	1225.975
1260.97859	1254.475
1264.52631	1240.675
1268.07163	1260.875
1271.61453	1280.775
1275.15503	1281.875
1278.69312	1284.275
1282.22882	1302.675
1285.76211	1307.475
1289.29301	1326.475
1292.82151	1348.775
1296.34761	1377.475
1299.87133	1412.275
1303.39266	1432.975
1306.9116	1495.775
1310.42815	1542.575
1313.94233	1562.075
1317.45412	1553.475
1320.96354	1503.675
1324.47058	1469.475
1327.97525	1431.875
1331.47754	1411.575
1334.97747	1412.875
1338.47502	1423.875
1341.97022	1438.175
1345.46305	1476.575
1348.95352	1517.175
1352.44163	1561.975
1355.92738	1624.875
1359.41078	1716.975
1362.89183	1799.675
1366.37053	1809.875
1369.84688	1704.975
1373.32088	1611.175
1376.79254	1537.775
1380.26186	1494.075
1383.72883	1469.475
1387.19347	1450.975
1390.65578	1433.375
1394.11575	1415.875
1397.57339	1398.375
1401.0287	1403.975
1404.48168	1383.575
1407.93234	1372.575
1411.38068	1362.175
1414.82669	1350.875
1418.27039	1340.775
1421.71177	1330.075
1425.15083	1320.675
1428.58758	1310.075
1432.02203	1292.075
1435.45416	1287.875
1438.88399	1286.975
1442.31151	1271.475
1445.73673	1260.275
1449.15965	1240.175
1452.58027	1251.275
1455.9986	1254.075
1459.41463	1246.875
1462.82837	1247.075
1466.23982	1251.375
1469.64898	1264.075
1473.05586	1274.275
1476.46045	1273.475
1479.86276	1281.375
1483.26279	1292.675
1486.66054	1299.375
1490.05602	1310.175
1493.44922	1317.375
1496.84016	1343.175
1500.22882	1383.475
1503.61521	1427.575
1506.99934	1506.675
1510.38121	1561.775
1513.76081	1578.475
1517.13816	1526.975
1520.51324	1451.175
1523.88607	1387.175
1527.25665	1326.075
1530.62498	1304.775
1533.99105	1290.975
1537.35488	1272.475
1540.71647	1274.675
1544.07581	1271.175
1547.4329	1266.175
1550.78776	1272.275
1554.14038	1267.375
1557.49077	1278.075
1560.83892	1292.175
1564.18484	1298.675
1567.52853	1294.875
1570.86999	1313.475
1574.20922	1326.775
1577.54624	1316.975
1580.88103	1298.875
1584.2136	1280.975
1587.54395	1260.175
1590.87208	1229.575
1594.19801	1235.375
1597.52172	1227.175
1600.84321	1228.175
1604.16251	1206.175
1607.47959	1194.575
1610.79447	1192.175
1614.10715	1170.875
1617.41763	1168.275
1620.7259	1148.475
1624.03199	1141.975
1627.33587	1138.675
1630.63757	1134.575
1633.93707	1130.175
1637.23439	1133.475
1640.52951	1137.275
1643.82246	1176.375
1647.11321	1200.875
1650.40179	1232.675
1653.68819	1220.475
1656.97241	1170.875
1660.25446	1109.075
1663.53433	1066.175
1666.81203	1046.775
1670.08756	1035.575
1673.36092	1047.475
1676.63211	1047.475
1679.90115	1041.675
1683.16801	1030.375
1686.43272	1025.775
1689.69527	1006.775
1692.95567	985.475
1696.2139	944.075
1699.46999	898.875
1702.72392	889.075
1705.97571	891.475
1709.22535	910.575
1712.47284	925.975
1715.71819	926.075
1718.96139	916.475
1722.20246	913.575
1725.44139	901.275
1728.67818	894.675
1731.91284	880.475
1735.14537	875.475
1738.37576	867.775
1741.60403	859.475
1744.83017	842.075
1748.05418	837.475
1751.27607	833.375
1754.49584	806.675
1757.71349	782.675
1760.92903	788.275
1764.14244	778.875
1767.35375	775.075
1770.56294	776.075
1773.77002	778.875
1776.97499	790.375
1780.17785	801.475
1783.37861	812.275
1786.57727	814.175
1789.77382	814.775
1792.96828	825.375
1796.16064	815.375
1799.3509	820.675
1802.53907	818.075
1805.72514	812.075
1808.90913	804.375
1812.09102	813.775
1815.27083	803.575
1818.44856	808.475
1821.6242	804.175
1824.79776	800.375
1827.96924	800.575
1831.13864	793.275
1834.30597	802.075
1837.47122	798.975
1840.6344	793.675
1843.7955	793.775
1846.95454	809.175
1850.11151	793.175
1853.26642	795.175
1856.41926	787.275
1859.57004	798.875
1862.71876	791.275
1865.86542	793.375
1869.01003	795.875
1872.15258	787.675
1875.29308	787.875
1878.43152	786.675
1881.56792	783.475
1884.70227	788.775
1887.83457	780.675
1890.96482	781.575
1894.09304	781.375
1897.21921	784.075
1900.34335	778.175
1903.46544	774.675
1906.58551	786.075
1909.70353	781.075
1912.81953	780.975
1915.93349	782.075
1919.04543	783.275
1922.15534	773.675
1925.26322	769.275
1928.36908	770.275
1931.47292	769.575
1934.57473	771.475
1937.67453	775.975
1940.77232	764.475
1943.86808	769.675
1946.96184	766.275
1950.05358	758.875
1953.14331	766.675
1956.23103	756.375
1959.31675	762.975
1962.40046	748.975
1965.48217	747.675
1968.56188	749.975
1971.63959	753.475
1974.7153	744.575
1977.78901	745.375
1980.86073	736.475
1983.93046	739.575
1986.99819	739.275
1990.06394	735.475
1993.1277	731.775
1996.18947	726.775
1999.24925	732.775
2002.30706	724.475
2005.36288	727.275
2008.41672	726.275
2011.46859	724.175
2014.51848	718.375
2017.56639	718.975
2020.61233	713.875
2023.6563	718.475
2026.6983	719.075
2029.73833	713.875
2032.7764	709.775
2035.8125	710.475
2038.84664	711.575
2041.87881	706.275
2044.90903	703.275
2047.93729	704.575
2050.96359	708.975
2053.98794	705.875
2057.01034	708.775
2060.03078	711.775
2063.04927	706.375
2066.06582	717.875
2069.08042	710.675
2072.09307	723.975
2075.10378	721.675
2078.11255	723.075
2081.11938	729.175
2084.12426	733.475
2087.12722	737.475
2090.12824	731.775
2093.12732	739.575
2096.12447	740.975
2099.11969	744.175
2102.11299	749.875
2105.10435	744.575
2108.09379	752.575
2111.08131	753.275
2114.0669	755.575
2117.05057	759.275
2120.03233	765.875
2123.01216	754.475
2125.99008	752.775
2128.96609	757.575
2131.94018	759.175
2134.91236	760.075
2137.88263	764.075
2140.851	760.975
2143.81746	754.475
2146.78201	753.175
2149.74466	756.475
2152.7054	752.675
2155.66425	739.775
2158.6212	750.075
2161.57625	749.175
2164.52941	743.375
2167.48067	746.175
2170.43004	749.575
2173.37752	748.275
2176.32311	746.375
2179.26681	742.275
2182.20863	742.875
2185.14856	743.575
2188.08661	746.075
2191.02278	739.475
2193.95707	726.775
2196.88948	717.675
2199.82001	721.675
2202.74867	725.975
2205.67545	724.775
2208.60037	708.375
2211.52341	716.075
2214.44458	710.575
2217.36388	708.275
2220.28132	707.875
2223.1969	702.975
2226.11061	710.275
2229.02246	706.675
2231.93245	701.075
2234.84058	705.075
2237.74686	701.975
2240.65128	693.475
2243.55385	694.975
2246.45456	696.275
2249.35343	693.375
2252.25044	698.775
2255.14561	696.975
2258.03893	694.775
2260.93041	686.075
2263.82004	687.675
2266.70783	687.375
2269.59378	686.775
2272.4779	679.075
2275.36017	686.975
2278.24061	687.075
2281.11922	680.475
2283.996	680.775
2286.87094	679.075
2289.74405	686.975
2292.61534	688.175
2295.4848	685.775
2298.35243	683.975
2301.21824	683.975
2304.08223	686.975
2306.94439	683.375
2309.80474	678.175
2312.66327	681.775
2315.51999	678.775
2318.37489	680.675
2321.22797	676.675
2324.07925	677.075
2326.92871	678.375
2329.77637	681.375
2332.62222	675.075
2335.46626	673.875
2338.3085	663.675
2341.14893	664.975
2343.98756	669.475
2346.8244	663.475
2349.65943	668.675
2352.49267	667.675
2355.32411	659.475
2358.15376	661.775
2360.98161	661.775
2363.80768	673.175
2366.63195	670.075
2369.45444	663.375
2372.27514	667.875
2375.09405	663.175
2377.91118	667.175
2380.72652	667.975
2383.54009	661.675
2386.35187	662.075
2389.16188	666.375
2391.97011	669.075
2394.77657	656.475
2397.58125	660.175
2400.38416	662.275
2403.18529	656.875
2405.98466	658.475
2408.78226	654.275
2411.57809	651.775
2414.37216	656.175
2417.16446	649.275
2419.955	653.875
2422.74378	653.975
2425.5308	653.575
2428.31606	653.075
2431.09956	650.975
2433.88131	648.675
2436.6613	650.175
2439.43954	648.875
2442.21603	646.675
2444.99077	646.175
2447.76377	646.675
2450.53501	650.575
2453.30451	651.575
2456.07226	651.675
2458.83827	648.475
2461.60254	651.975
2464.36507	648.375
2467.12586	644.675
2469.88492	644.475
2472.64224	645.075
2475.39782	635.975
2478.15167	631.075
2480.90379	632.775
2483.65417	647.775
2486.40283	639.775
2489.14976	645.775
2491.89497	644.575
2494.63845	638.675
2497.3802	632.775
2500.12024	640.275
2502.85855	639.075
2505.59514	645.375
2508.33002	637.475
2511.06318	644.275
2513.79462	644.675
2516.52435	645.375
2519.25237	637.875
2521.97867	641.475
2524.70327	640.075
2527.42616	637.275
2530.14734	635.275
2532.86681	640.875
2535.58458	642.775
2538.30065	641.175
2541.01501	632.075
2543.72768	636.075
2546.43864	638.975
2549.14791	633.075
2551.85548	632.075
2554.56136	633.375
2557.26554	626.675
2559.96803	628.175
2562.66883	623.575
2565.36794	625.175
2568.06536	628.875
2570.7611	622.375
2573.45514	621.875
2576.14751	626.375
2578.83819	620.575
2581.52719	622.075
2584.21451	623.875
2586.90015	618.375
2589.58411	616.375
2592.2664	622.475
2594.94701	624.475
2597.62594	615.075
2600.30321	622.975
2602.9788	622.475
2605.65273	621.575
2608.32498	612.175
2610.99557	614.775
2613.66449	610.975
2616.33175	616.575
2618.99734	615.275
2621.66128	616.075
2624.32355	609.775
2626.98416	612.375
2629.64311	616.775
2632.30041	614.075
2634.95605	615.475
2637.61004	612.175
2640.26238	609.375
2642.91306	607.875
2645.56209	608.175
2648.20948	612.775
2650.85521	611.175
2653.4993	614.675
2656.14175	608.875
2658.78255	612.475
2661.42171	610.375
2664.05923	610.175
2666.6951	613.975
2669.32934	616.275
2671.96194	613.075
2674.59291	614.575
2677.22224	611.375
2679.84993	615.475
2682.476	611.575
2685.10043	611.775
2687.72324	616.475
2690.34441	611.975
2692.96396	608.075
2695.58188	618.175
2698.19818	615.275
2700.81285	610.875
2703.4259	598.275
2706.03733	560.775
2708.64714	578.075
2711.25533	596.275
2713.86191	598.475
2716.46687	611.075
2719.07021	610.075
2721.67194	619.075
2724.27206	616.275
2726.87057	625.375
2729.46747	618.675
2732.06276	626.775
2734.65644	628.275
2737.24852	623.775
2739.83899	614.475
2742.42786	624.575
2745.01513	618.275
2747.60079	619.175
2750.18486	618.175
2752.76733	624.475
2755.3482	617.075
2757.92747	619.575
2760.50515	619.975
2763.08123	616.475
2765.65573	618.075
2768.22863	618.075
2770.79994	616.175
2773.36967	616.275
2775.9378	613.475
2778.50435	612.675
2781.06932	614.975
2783.6327	608.575
2786.1945	612.875
2788.75471	608.475
2791.31335	620.575
2793.87041	621.975
2796.42589	616.875
2798.97979	616.575
2801.53212	612.275
2804.08288	611.675
2806.63206	606.975
2809.17967	605.675
2811.72571	604.975
2814.27018	607.575
2816.81308	599.275
2819.35442	611.175
2821.89419	600.975
2824.43239	601.775
2826.96904	601.675
2829.50412	602.675
2832.03763	604.575
2834.56959	602.475
2837.1	605.575
2839.62884	594.875
2842.15613	602.875
2844.68186	601.975
2847.20604	601.475
2849.72867	598.675
2852.24974	607.675
2854.76927	592.475
2857.28724	583.875
2859.80367	601.475
2862.31855	605.575
2864.83189	597.175
2867.34368	607.775
2869.85393	604.475
2872.36264	599.075
2874.8698	607.975
2877.37543	609.475
2879.87952	604.475
2882.38207	608.875
2884.88308	612.175
2887.38256	608.175
2889.88051	610.975
2892.37692	617.675
2894.8718	613.975
2897.36515	617.175
2899.85698	612.675
2902.34727	619.975
2904.83604	616.575
2907.32328	621.875
2909.809	626.775
2912.29319	625.375
2914.77587	626.275
2917.25702	630.475
2919.73665	630.075
2922.21476	631.075
2924.69136	628.675
2927.16644	636.775
2929.64	629.475
2932.11205	641.175
2934.58258	633.675
2937.05161	631.775
2939.51912	639.075
2941.98513	642.775
2944.44962	637.075
2946.91261	646.075
2949.37409	636.875
2951.83407	639.175
2954.29254	642.575
2956.74951	646.075
2959.20498	636.975
2961.65895	641.075
2964.11142	648.175
2966.56239	636.075
2969.01186	646.075
2971.45984	642.075
2973.90632	641.075
2976.35131	639.075
2978.7948	646.975
2981.23681	642.975
2983.67732	643.275
2986.11635	649.575
2988.55388	645.475
2990.98993	642.775
2993.4245	642.175
2995.85758	648.175
2998.28917	646.175
3000.71928	649.875
3003.14791	644.175
3005.57506	649.775
3008.00073	654.375
3010.42493	649.275
3012.84764	647.675
3015.26888	651.375
3017.68865	658.575
3020.10694	658.375
3022.52376	656.675
3024.9391	665.175
3027.35298	662.775
3029.76539	662.975
3032.17632	668.775
3034.5858	667.075
3036.9938	672.675
3039.40034	672.975
3041.80542	677.675
3044.20903	681.475
3046.61118	680.575
3049.01187	687.875
3051.4111	682.975
3053.80888	694.575
3056.20519	698.875
3058.60005	696.475
3060.99345	705.075
3063.3854	696.175
3065.7759	701.275
3068.16494	707.475
3070.55254	710.475
3072.93868	715.075
3075.32338	717.075
3077.70662	716.975
3080.08842	720.375
3082.46878	722.875
3084.84769	729.475
3087.22515	726.375
3089.60118	741.675
3091.97576	744.375
3094.3489	743.475
3096.72061	750.375
3099.09087	756.775
3101.4597	769.575
3103.82709	772.175
3106.19305	777.775
3108.55757	786.275
3110.92066	801.675
3113.28232	792.275
3115.64255	796.375
3118.00134	803.475
3120.35871	813.775
3122.71466	817.075
3125.06917	820.075
3127.42226	817.675
3129.77393	834.875
3132.12417	834.575
3134.47299	836.875
3136.82039	845.075
3139.16636	847.275
3141.51092	869.475
3143.85406	867.875
3146.19579	877.075
3148.53609	880.175
3150.87499	885.575
3153.21246	902.775
3155.54853	905.075
3157.88318	913.275
3160.21642	925.375
3162.54826	934.575
3164.87868	933.575
3167.2077	943.375
3169.5353	949.875
3171.86151	950.475
3174.18631	969.075
3176.5097	971.075
3178.83169	972.675
3181.15228	978.675
3183.47147	982.375
3185.78926	991.275
3188.10565	999.375
3190.42065	1006.975
3192.73424	1005.375
3195.04645	1011.875
3197.35725	1006.675
3199.66667	1028.775
3201.97469	1019.775
3204.28132	1027.575
3206.58656	1038.575
3208.8904	1048.175
3211.19287	1050.475
3213.49394	1048.875
3215.79363	1057.275
3218.09193	1058.175
3220.38884	1058.275
3222.68438	1045.175
3224.97853	1060.775
3227.2713	1070.375
3229.56269	1073.375
3231.8527	1075.375
3234.14133	1075.275
3236.42858	1077.975
3238.71446	1082.075
3240.99896	1076.875
3243.28209	1073.675
3245.56384	1073.775
3247.84423	1065.275
3250.12324	1078.075
3252.40088	1080.775
3254.67715	1072.775
3256.95205	1081.275
3259.22558	1080.175
3261.49775	1088.075
3263.76855	1087.375
3266.03799	1087.875
3268.30606	1085.775
3270.57277	1092.675
3272.83812	1077.175
3275.10211	1085.475
3277.36474	1088.275
3279.62601	1083.875
3281.88593	1083.075
3284.14448	1084.675
3286.40168	1084.575
3288.65753	1092.875
3290.91202	1080.775
3293.16516	1084.775
3295.41695	1088.775
3297.66738	1079.575
3299.91647	1073.275
3302.16421	1062.875
3304.4106	1057.275
