Data from AgNPs_APTES_FTO_UA_100uM_CRN_0uM_R6G_10uM_Scan_RamanShift__34__11-19-21-273.txt Node

Date: Wed Jun 29 11:19:21 BST 2022
User: TCL
Spectrometer: QEP01345
Trigger mode: 4
Integration Time (sec): 7.000000E0
Scans to average: 10
Electric dark correction enabled: true
Nonlinearity correction enabled: false
Boxcar width: 0
XAxis mode: Raman Shifts
Number of Pixels in Spectrum: 1044
>>>>>Begin Spectral Data<<<<<
46.04893	0.225
50.45542	0.725
54.85868	0.825
59.25871	0.625
63.6555	36.525
68.04907	42.525
72.43941	41.025
76.82654	44.825
81.21044	48.025
85.59113	49.125
89.96862	54.225
94.34289	53.325
98.71396	56.325
103.08183	57.325
107.4465	56.025
111.80798	59.925
116.16626	57.325
120.52136	60.125
124.87327	56.025
129.222	57.025
133.56755	52.825
137.90993	51.025
142.24913	53.325
146.58517	50.225
150.91804	48.525
155.24774	52.325
159.57429	57.725
163.89768	59.525
168.21792	67.225
172.53501	80.625
176.84895	98.525
181.15975	123.025
185.46741	157.825
189.77193	199.125
194.07331	258.625
198.37157	328.725
202.6667	396.625
206.9587	465.025
211.24758	540.025
215.53334	601.825
219.81599	682.125
224.09553	762.825
228.37195	853.325
232.64527	941.025
236.91549	1039.925
241.18261	1124.225
245.44663	1214.225
249.70755	1276.525
253.96539	1329.425
258.22014	1371.025
262.4718	1401.225
266.72039	1412.825
270.96589	1417.025
275.20832	1410.825
279.44768	1366.625
283.68397	1338.725
287.91719	1305.525
292.14735	1286.225
296.37445	1291.125
300.59849	1300.325
304.81948	1327.925
309.03742	1353.925
313.25231	1348.925
317.46415	1320.225
321.67296	1273.525
325.87872	1216.125
330.08145	1203.825
334.28114	1213.025
338.47781	1232.225
342.67145	1250.525
346.86207	1282.325
351.04966	1327.425
355.23424	1372.025
359.4158	1411.925
363.59435	1431.225
367.76989	1448.125
371.94243	1457.725
376.11196	1457.625
380.27849	1460.825
384.44203	1463.725
388.60257	1454.725
392.76012	1463.225
396.91468	1471.325
401.06626	1498.025
405.21485	1510.425
409.36047	1503.525
413.50311	1468.325
417.64277	1415.825
421.77947	1395.625
425.9132	1385.725
430.04396	1378.325
434.17176	1383.825
438.2966	1403.425
442.41849	1429.925
446.53742	1453.325
450.6534	1465.525
454.76644	1478.625
458.87653	1487.525
462.98368	1483.125
467.08789	1475.825
471.18916	1476.825
475.2875	1460.325
479.38291	1452.125
483.4754	1452.825
487.56496	1454.825
491.6516	1447.925
495.73531	1463.725
499.81612	1466.125
503.89401	1477.725
507.96899	1465.525
512.04106	1479.425
516.11023	1488.225
520.1765	1500.325
524.23987	1483.025
528.30034	1485.325
532.35792	1478.525
536.41261	1470.625
540.46441	1446.425
544.51333	1439.625
548.55936	1441.225
552.60252	1452.125
556.64279	1463.825
560.6802	1467.725
564.71473	1483.325
568.7464	1507.425
572.7752	1529.125
576.80114	1492.125
580.82422	1464.225
584.84444	1464.325
588.86181	1487.525
592.87633	1512.325
596.888	1521.725
600.89682	1545.025
604.9028	1632.825
608.90594	1896.625
612.90624	2228.825
616.90371	2171.625
620.89834	1754.925
624.89015	1564.125
628.87913	1549.325
632.86528	1581.725
636.84862	1612.025
640.82913	1602.825
644.80683	1575.525
648.78172	1551.525
652.75379	1552.825
656.72306	1579.125
660.68952	1601.525
664.65319	1598.625
668.61405	1570.225
672.57211	1556.425
676.52738	1590.325
680.47986	1634.925
684.42955	1689.925
688.37646	1728.625
692.32058	1718.525
696.26192	1675.925
700.20048	1627.325
704.13626	1598.625
708.06928	1588.925
711.99952	1588.425
715.927	1572.325
719.85171	1557.425
723.77365	1550.525
727.69284	1534.725
731.60928	1549.625
735.52295	1549.025
739.43388	1523.625
743.34206	1536.125
747.24749	1521.325
751.15017	1513.625
755.05012	1484.825
758.94733	1546.525
762.8418	1645.325
766.73354	1801.725
770.62254	1968.125
774.50882	2047.425
778.39237	1986.125
782.27321	1841.725
786.15132	1699.825
790.02671	1606.325
793.89938	1562.325
797.76935	1547.025
801.6366	1543.725
805.50115	1546.325
809.36299	1535.425
813.22213	1541.425
817.07857	1537.925
820.93231	1516.025
824.78336	1503.425
828.63172	1496.725
832.47738	1506.725
836.32036	1485.525
840.16066	1491.225
843.99827	1491.725
847.8332	1486.025
851.66546	1478.325
855.49504	1483.125
859.32195	1484.425
863.1462	1485.225
866.96777	1484.725
870.78668	1494.425
874.60293	1489.325
878.41652	1499.125
882.22745	1503.825
886.03573	1521.025
889.84136	1508.025
893.64433	1509.225
897.44466	1498.225
901.24235	1495.625
905.0374	1486.225
908.8298	1473.025
912.61957	1474.425
916.40671	1460.325
920.19121	1483.825
923.97308	1488.225
927.75233	1500.725
931.52895	1510.425
935.30295	1494.525
939.07433	1483.325
942.84309	1458.625
946.60924	1437.325
950.37278	1446.425
954.13371	1438.325
957.89203	1438.925
961.64774	1440.825
965.40086	1427.225
969.15137	1423.525
972.89929	1421.025
976.64461	1406.925
980.38733	1405.525
984.12747	1403.525
987.86502	1407.025
991.59999	1410.325
995.33237	1414.125
999.06217	1424.525
1002.78939	1434.725
1006.51404	1449.725
1010.23611	1463.225
1013.95561	1485.525
1017.67255	1482.025
1021.38692	1479.925
1025.09872	1470.225
1028.80796	1457.325
1032.51465	1459.525
1036.21877	1447.225
1039.92035	1449.925
1043.61937	1455.225
1047.31584	1470.225
1051.00976	1471.325
1054.70114	1472.425
1058.38998	1472.025
1062.07627	1489.025
1065.76003	1485.825
1069.44126	1512.025
1073.11995	1523.725
1076.79611	1536.725
1080.46974	1557.825
1084.14085	1560.725
1087.80943	1585.225
1091.47549	1573.625
1095.13903	1551.525
1098.80005	1522.525
1102.45857	1499.925
1106.11456	1487.225
1109.76805	1493.325
1113.41903	1514.525
1117.06751	1560.725
1120.71348	1601.725
1124.35696	1654.825
1127.99793	1721.925
1131.63641	1748.725
1135.2724	1733.525
1138.90589	1673.725
1142.5369	1641.025
1146.16542	1604.725
1149.79145	1573.525
1153.415	1554.425
1157.03607	1527.125
1160.65467	1542.925
1164.27079	1569.925
1167.88443	1610.325
1171.49561	1680.725
1175.10432	1785.325
1178.71056	1937.125
1182.31434	2067.025
1185.91565	2104.425
1189.51451	2052.625
1193.11091	1954.125
1196.70485	1880.225
1200.29634	1820.525
1203.88538	1771.525
1207.47197	1706.825
1211.05612	1645.925
1214.63782	1605.925
1218.21708	1582.525
1221.79391	1568.125
1225.36829	1573.725
1228.94024	1584.125
1232.50976	1561.425
1236.07685	1577.325
1239.6415	1585.925
1243.20374	1576.125
1246.76355	1589.225
1250.32093	1589.325
1253.8759	1610.725
1257.42845	1630.125
1260.97859	1660.925
1264.52631	1691.425
1268.07163	1726.725
1271.61453	1759.225
1275.15503	1771.225
1278.69312	1781.825
1282.22882	1784.725
1285.76211	1818.725
1289.29301	1864.025
1292.82151	1931.225
1296.34761	1976.325
1299.87133	2060.925
1303.39266	2169.825
1306.9116	2363.225
1310.42815	2533.725
1313.94233	2634.525
1317.45412	2545.325
1320.96354	2378.425
1324.47058	2216.725
1327.97525	2071.825
1331.47754	1996.925
1334.97747	1968.925
1338.47502	1966.925
1341.97022	1999.325
1345.46305	2085.925
1348.95352	2208.925
1352.44163	2368.025
1355.92738	2572.525
1359.41078	2889.325
1362.89183	3176.025
1366.37053	3154.625
1369.84688	2769.825
1373.32088	2382.925
1376.79254	2141.425
1380.26186	2037.625
1383.72883	1964.225
1387.19347	1886.625
1390.65578	1823.525
1394.11575	1784.025
1397.57339	1742.025
1401.0287	1721.925
1404.48168	1698.125
1407.93234	1673.925
1411.38068	1663.325
1414.82669	1650.525
1418.27039	1645.625
1421.71177	1641.825
1425.15083	1625.625
1428.58758	1605.025
1432.02203	1619.825
1435.45416	1630.225
1438.88399	1639.725
1442.31151	1623.925
1445.73673	1625.125
1449.15965	1634.025
1452.58027	1641.525
1455.9986	1647.325
1459.41463	1644.025
1462.82837	1648.825
1466.23982	1669.325
1469.64898	1696.625
1473.05586	1703.225
1476.46045	1701.725
1479.86276	1722.625
1483.26279	1735.125
1486.66054	1748.425
1490.05602	1755.525
1493.44922	1812.225
1496.84016	1912.325
1500.22882	2065.025
1503.61521	2283.425
1506.99934	2544.925
1510.38121	2779.725
1513.76081	2846.225
1517.13816	2668.625
1520.51324	2381.325
1523.88607	2119.425
1527.25665	1938.325
1530.62498	1842.125
1533.99105	1795.925
1537.35488	1759.125
1540.71647	1735.425
1544.07581	1718.825
1547.4329	1708.825
1550.78776	1716.425
1554.14038	1718.025
1557.49077	1743.125
1560.83892	1765.225
1564.18484	1815.525
1567.52853	1875.925
1570.86999	1930.125
1574.20922	1968.825
1577.54624	1967.025
1580.88103	1919.625
1584.2136	1823.125
1587.54395	1736.225
1590.87208	1696.825
1594.19801	1716.325
1597.52172	1749.025
1600.84321	1768.025
1604.16251	1729.125
1607.47959	1669.525
1610.79447	1626.225
1614.10715	1569.625
1617.41763	1520.925
1620.7259	1490.925
1624.03199	1482.225
1627.33587	1483.625
1630.63757	1490.625
1633.93707	1523.425
1637.23439	1563.725
1640.52951	1653.925
1643.82246	1786.125
1647.11321	1976.225
1650.40179	2113.425
1653.68819	2085.825
1656.97241	1902.925
1660.25446	1706.425
1663.53433	1527.725
1666.81203	1454.025
1670.08756	1403.025
1673.36092	1388.925
1676.63211	1366.625
1679.90115	1343.225
1683.16801	1319.725
1686.43272	1305.025
1689.69527	1289.525
1692.95567	1265.325
1696.2139	1228.725
1699.46999	1210.525
1702.72392	1184.125
1705.97571	1193.525
1709.22535	1188.925
1712.47284	1173.825
1715.71819	1181.425
1718.96139	1167.825
1722.20246	1157.525
1725.44139	1140.625
1728.67818	1125.325
1731.91284	1105.625
1735.14537	1100.225
1738.37576	1088.125
1741.60403	1076.825
1744.83017	1069.925
1748.05418	1050.825
1751.27607	1050.425
1754.49584	1036.125
1757.71349	1013.325
1760.92903	1019.025
1764.14244	1005.525
1767.35375	999.725
1770.56294	999.925
1773.77002	1004.025
1776.97499	999.625
1780.17785	1004.425
1783.37861	1005.825
1786.57727	1007.425
1789.77382	1000.525
1792.96828	1005.325
1796.16064	998.425
1799.3509	993.025
1802.53907	993.325
1805.72514	993.425
1808.90913	990.325
1812.09102	989.825
1815.27083	991.125
1818.44856	979.325
1821.6242	984.325
1824.79776	976.125
1827.96924	973.325
1831.13864	970.525
1834.30597	967.725
1837.47122	975.125
1840.6344	967.525
1843.7955	965.825
1846.95454	965.325
1850.11151	963.125
1853.26642	956.425
1856.41926	952.725
1859.57004	958.025
1862.71876	957.725
1865.86542	952.725
1869.01003	960.425
1872.15258	951.925
1875.29308	954.725
1878.43152	945.825
1881.56792	946.625
1884.70227	942.725
1887.83457	945.425
1890.96482	941.425
1894.09304	944.225
1897.21921	935.925
1900.34335	941.025
1903.46544	940.825
1906.58551	935.325
1909.70353	935.625
1912.81953	936.125
1915.93349	933.725
1919.04543	939.225
1922.15534	924.625
1925.26322	930.425
1928.36908	927.425
1931.47292	924.425
1934.57473	922.125
1937.67453	925.625
1940.77232	918.225
1943.86808	914.025
1946.96184	906.925
1950.05358	907.325
1953.14331	909.225
1956.23103	900.025
1959.31675	904.725
1962.40046	893.225
1965.48217	895.525
1968.56188	893.425
1971.63959	888.725
1974.7153	886.825
1977.78901	889.225
1980.86073	877.525
1983.93046	877.225
1986.99819	880.525
1990.06394	869.725
1993.1277	866.725
1996.18947	866.525
1999.24925	863.925
2002.30706	859.425
2005.36288	855.325
2008.41672	857.925
2011.46859	856.025
2014.51848	849.525
2017.56639	848.425
2020.61233	853.525
2023.6563	847.225
2026.6983	845.425
2029.73833	838.325
2032.7764	840.825
2035.8125	844.425
2038.84664	839.425
2041.87881	839.325
2044.90903	831.425
2047.93729	835.825
2050.96359	833.925
2053.98794	834.825
2057.01034	836.325
2060.03078	825.425
2063.04927	841.325
2066.06582	839.025
2069.08042	836.025
2072.09307	844.425
2075.10378	837.925
2078.11255	844.225
2081.11938	840.625
2084.12426	851.825
2087.12722	851.325
2090.12824	849.225
2093.12732	853.425
2096.12447	845.925
2099.11969	849.225
2102.11299	850.925
2105.10435	847.025
2108.09379	851.925
2111.08131	847.825
2114.0669	857.125
2117.05057	858.425
2120.03233	848.825
2123.01216	850.525
2125.99008	845.625
2128.96609	851.925
2131.94018	850.425
2134.91236	841.925
2137.88263	854.725
2140.851	843.625
2143.81746	843.625
2146.78201	837.025
2149.74466	839.325
2152.7054	833.925
2155.66425	836.125
2158.6212	839.425
2161.57625	841.625
2164.52941	834.825
2167.48067	826.425
2170.43004	838.625
2173.37752	835.825
2176.32311	831.425
2179.26681	828.925
2182.20863	829.125
2185.14856	831.625
2188.08661	836.925
2191.02278	827.925
2193.95707	830.225
2196.88948	817.525
2199.82001	825.025
2202.74867	824.725
2205.67545	820.925
2208.60037	817.025
2211.52341	826.525
2214.44458	814.725
2217.36388	817.725
2220.28132	814.825
2223.1969	814.525
2226.11061	816.025
2229.02246	799.725
2231.93245	805.225
2234.84058	798.225
2237.74686	803.725
2240.65128	804.925
2243.55385	796.725
2246.45456	796.625
2249.35343	795.125
2252.25044	797.325
2255.14561	805.225
2258.03893	796.425
2260.93041	785.125
2263.82004	788.625
2266.70783	784.225
2269.59378	791.025
2272.4779	785.125
2275.36017	789.925
2278.24061	781.325
2281.11922	772.625
2283.996	777.525
2286.87094	781.125
2289.74405	783.225
2292.61534	771.725
2295.4848	775.225
2298.35243	775.525
2301.21824	777.325
2304.08223	771.525
2306.94439	771.025
2309.80474	776.325
2312.66327	772.925
2315.51999	770.825
2318.37489	769.525
2321.22797	757.925
2324.07925	763.325
2326.92871	763.125
2329.77637	772.325
2332.62222	773.325
2335.46626	762.725
2338.3085	757.525
2341.14893	754.825
2343.98756	754.825
2346.8244	755.325
2349.65943	750.625
2352.49267	762.425
2355.32411	752.425
2358.15376	758.125
2360.98161	764.025
2363.80768	759.325
2366.63195	757.225
2369.45444	762.225
2372.27514	761.125
2375.09405	762.525
2377.91118	762.325
2380.72652	758.725
2383.54009	755.225
2386.35187	752.825
2389.16188	752.625
2391.97011	756.025
2394.77657	749.225
2397.58125	747.525
2400.38416	741.925
2403.18529	738.125
2405.98466	735.325
2408.78226	737.025
2411.57809	729.825
2414.37216	741.225
2417.16446	737.925
2419.955	735.125
2422.74378	738.925
2425.5308	739.925
2428.31606	742.325
2431.09956	734.525
2433.88131	727.425
2436.6613	734.525
2439.43954	729.625
2442.21603	733.025
2444.99077	732.825
2447.76377	734.725
2450.53501	732.125
2453.30451	733.825
2456.07226	733.725
2458.83827	734.325
2461.60254	732.125
2464.36507	726.925
2467.12586	729.725
2469.88492	726.625
2472.64224	729.725
2475.39782	727.925
2478.15167	721.425
2480.90379	727.325
2483.65417	726.725
2486.40283	725.225
2489.14976	727.725
2491.89497	728.025
2494.63845	720.125
2497.3802	728.325
2500.12024	725.525
2502.85855	720.325
2505.59514	718.825
2508.33002	722.625
2511.06318	722.825
2513.79462	721.625
2516.52435	720.825
2519.25237	716.125
2521.97867	720.725
2524.70327	713.525
2527.42616	718.025
2530.14734	709.025
2532.86681	713.425
2535.58458	726.725
2538.30065	741.225
2541.01501	710.825
2543.72768	708.725
2546.43864	701.125
2549.14791	706.125
2551.85548	705.925
2554.56136	704.525
2557.26554	704.725
2559.96803	704.325
2562.66883	694.625
2565.36794	703.025
2568.06536	697.625
2570.7611	702.725
2573.45514	697.725
2576.14751	700.925
2578.83819	696.025
2581.52719	693.825
2584.21451	696.725
2586.90015	687.725
2589.58411	690.025
2592.2664	696.625
2594.94701	687.925
2597.62594	684.625
2600.30321	692.725
2602.9788	685.825
2605.65273	687.025
2608.32498	687.025
2610.99557	684.225
2613.66449	688.825
2616.33175	687.225
2618.99734	684.625
2621.66128	684.425
2624.32355	676.425
2626.98416	678.525
2629.64311	680.525
2632.30041	683.325
2634.95605	683.825
2637.61004	680.225
2640.26238	683.725
2642.91306	672.225
2645.56209	676.025
2648.20948	676.725
2650.85521	672.825
2653.4993	674.225
2656.14175	677.125
2658.78255	676.725
2661.42171	676.725
2664.05923	675.225
2666.6951	675.425
2669.32934	682.325
2671.96194	671.025
2674.59291	679.525
2677.22224	676.925
2679.84993	674.625
2682.476	679.525
2685.10043	676.625
2687.72324	679.225
2690.34441	678.925
2692.96396	674.225
2695.58188	676.825
2698.19818	675.125
2700.81285	673.425
2703.4259	672.125
2706.03733	651.425
2708.64714	661.325
2711.25533	667.725
2713.86191	669.125
2716.46687	677.425
2719.07021	681.125
2721.67194	687.025
2724.27206	686.325
2726.87057	681.625
2729.46747	685.525
2732.06276	687.625
2734.65644	675.525
2737.24852	681.925
2739.83899	686.825
2742.42786	684.325
2745.01513	678.325
2747.60079	683.725
2750.18486	677.925
2752.76733	677.025
2755.3482	673.825
2757.92747	679.225
2760.50515	675.025
2763.08123	677.325
2765.65573	679.325
2768.22863	681.325
2770.79994	674.825
2773.36967	676.825
2775.9378	676.325
2778.50435	676.525
2781.06932	684.025
2783.6327	672.625
2786.1945	672.725
2788.75471	674.325
2791.31335	674.525
2793.87041	674.425
2796.42589	673.725
2798.97979	667.225
2801.53212	670.725
2804.08288	666.325
2806.63206	665.325
2809.17967	663.625
2811.72571	664.025
2814.27018	669.725
2816.81308	664.325
2819.35442	661.625
2821.89419	656.825
2824.43239	661.625
2826.96904	659.225
2829.50412	651.825
2832.03763	665.825
2834.56959	666.325
2837.1	663.325
2839.62884	665.625
2842.15613	661.825
2844.68186	660.725
2847.20604	654.225
2849.72867	663.125
2852.24974	665.125
2854.76927	668.225
2857.28724	655.825
2859.80367	661.625
2862.31855	672.825
2864.83189	671.425
2867.34368	677.025
2869.85393	670.625
2872.36264	666.825
2874.8698	673.525
2877.37543	674.325
2879.87952	674.725
2882.38207	673.925
2884.88308	677.025
2887.38256	680.025
2889.88051	676.625
2892.37692	679.825
2894.8718	679.225
2897.36515	687.625
2899.85698	680.925
2902.34727	685.725
2904.83604	691.925
2907.32328	691.925
2909.809	692.825
2912.29319	698.725
2914.77587	691.825
2917.25702	689.925
2919.73665	694.725
2922.21476	694.725
2924.69136	698.225
2927.16644	697.025
2929.64	703.425
2932.11205	698.525
2934.58258	703.225
2937.05161	699.025
2939.51912	698.125
2941.98513	697.825
2944.44962	695.825
2946.91261	698.725
2949.37409	697.525
2951.83407	700.225
2954.29254	709.225
2956.74951	698.425
2959.20498	695.825
2961.65895	702.925
2964.11142	700.625
2966.56239	696.425
2969.01186	699.625
2971.45984	706.325
2973.90632	697.625
2976.35131	699.625
2978.7948	703.725
2981.23681	701.625
2983.67732	696.325
2986.11635	694.425
2988.55388	698.025
2990.98993	697.425
2993.4245	700.925
2995.85758	698.225
2998.28917	703.325
3000.71928	703.825
3003.14791	698.725
3005.57506	705.825
3008.00073	698.825
3010.42493	698.125
3012.84764	706.825
3015.26888	707.925
3017.68865	712.925
3020.10694	713.125
3022.52376	716.125
3024.9391	711.825
3027.35298	718.725
3029.76539	719.325
3032.17632	728.725
3034.5858	720.525
3036.9938	722.325
3039.40034	725.425
3041.80542	728.425
3044.20903	731.025
3046.61118	743.125
3049.01187	735.425
3051.4111	735.525
3053.80888	741.425
3056.20519	752.325
3058.60005	747.325
3060.99345	750.325
3063.3854	752.125
3065.7759	754.425
3068.16494	759.125
3070.55254	758.925
3072.93868	764.125
3075.32338	770.225
3077.70662	771.125
3080.08842	772.725
3082.46878	776.025
3084.84769	771.925
3087.22515	782.625
3089.60118	794.225
3091.97576	801.025
3094.3489	801.025
3096.72061	802.125
3099.09087	806.225
3101.4597	817.125
3103.82709	824.125
3106.19305	831.425
3108.55757	838.925
3110.92066	836.525
3113.28232	848.525
3115.64255	852.525
3118.00134	855.525
3120.35871	860.125
3122.71466	874.725
3125.06917	867.025
3127.42226	870.625
3129.77393	888.025
3132.12417	885.525
3134.47299	899.125
3136.82039	894.425
3139.16636	909.325
3141.51092	915.825
3143.85406	918.725
3146.19579	933.125
3148.53609	936.925
3150.87499	942.425
3153.21246	960.225
3155.54853	960.125
3157.88318	966.425
3160.21642	984.325
3162.54826	988.625
3164.87868	995.725
3167.2077	1000.325
3169.5353	1010.425
3171.86151	1014.725
3174.18631	1023.425
3176.5097	1022.125
3178.83169	1019.725
3181.15228	1040.025
3183.47147	1043.325
3185.78926	1048.125
3188.10565	1054.125
3190.42065	1059.425
3192.73424	1066.225
3195.04645	1065.525
3197.35725	1069.525
3199.66667	1079.325
3201.97469	1091.125
3204.28132	1095.525
3206.58656	1109.125
3208.8904	1095.625
3211.19287	1111.825
3213.49394	1109.625
3215.79363	1118.925
3218.09193	1120.625
3220.38884	1120.225
3222.68438	1120.825
3224.97853	1128.325
3227.2713	1146.125
3229.56269	1143.625
3231.8527	1140.525
3234.14133	1146.225
3236.42858	1135.325
3238.71446	1141.425
3240.99896	1143.725
3243.28209	1138.825
3245.56384	1148.825
3247.84423	1137.925
3250.12324	1145.025
3252.40088	1144.725
3254.67715	1141.625
3256.95205	1144.225
3259.22558	1152.825
3261.49775	1146.525
3263.76855	1154.125
3266.03799	1153.125
3268.30606	1149.725
3270.57277	1160.125
3272.83812	1151.425
3275.10211	1148.825
3277.36474	1151.125
3279.62601	1149.625
3281.88593	1152.325
3284.14448	1151.325
3286.40168	1152.625
3288.65753	1147.125
3290.91202	1151.025
3293.16516	1148.725
3295.41695	1148.725
3297.66738	1143.525
