Data from AgNPs_APTES_FTO_UA_100uM_CRN_0uM_R6G_10uM_Scan_RamanShift__11__10-52-31-241.txt Node

Date: Wed Jun 29 10:52:31 BST 2022
User: TCL
Spectrometer: QEP01345
Trigger mode: 4
Integration Time (sec): 7.000000E0
Scans to average: 10
Electric dark correction enabled: true
Nonlinearity correction enabled: false
Boxcar width: 0
XAxis mode: Raman Shifts
Number of Pixels in Spectrum: 1044
>>>>>Begin Spectral Data<<<<<
46.04893	0.875
50.45542	0.475
54.85868	-0.125
59.25871	0.475
63.6555	35.675
68.04907	37.075
72.43941	40.275
76.82654	40.775
81.21044	44.675
85.59113	45.975
89.96862	49.775
94.34289	54.275
98.71396	54.675
103.08183	55.475
107.4465	58.075
111.80798	58.575
116.16626	55.375
120.52136	59.275
124.87327	50.775
129.222	52.375
133.56755	52.075
137.90993	48.675
142.24913	48.775
146.58517	46.275
150.91804	47.175
155.24774	49.275
159.57429	52.775
163.89768	53.675
168.21792	63.375
172.53501	67.775
176.84895	80.275
181.15975	102.675
185.46741	124.575
189.77193	158.875
194.07331	201.275
198.37157	251.075
202.6667	303.475
206.9587	356.675
211.24758	412.675
215.53334	464.575
219.81599	521.775
224.09553	576.875
228.37195	645.075
232.64527	709.375
236.91549	781.775
241.18261	841.675
245.44663	919.475
249.70755	982.975
253.96539	1030.875
258.22014	1069.175
262.4718	1094.175
266.72039	1101.175
270.96589	1104.875
275.20832	1090.375
279.44768	1064.275
283.68397	1034.975
287.91719	1018.775
292.14735	989.575
296.37445	969.875
300.59849	958.275
304.81948	958.275
309.03742	962.575
313.25231	947.875
317.46415	935.275
321.67296	917.675
325.87872	901.675
330.08145	898.375
334.28114	903.375
338.47781	909.275
342.67145	916.275
346.86207	929.775
351.04966	944.575
355.23424	966.475
359.4158	974.575
363.59435	988.275
367.76989	994.475
371.94243	1000.775
376.11196	1000.575
380.27849	1011.675
384.44203	1017.675
388.60257	1015.775
392.76012	1027.875
396.91468	1024.875
401.06626	1043.475
405.21485	1052.675
409.36047	1046.275
413.50311	1037.775
417.64277	1034.975
421.77947	1026.275
425.9132	1024.275
430.04396	1026.575
434.17176	1025.675
438.2966	1043.875
442.41849	1054.475
446.53742	1067.075
450.6534	1076.875
454.76644	1088.475
458.87653	1084.875
462.98368	1086.975
467.08789	1093.675
471.18916	1094.275
475.2875	1093.175
479.38291	1097.775
483.4754	1099.975
487.56496	1096.475
491.6516	1108.975
495.73531	1109.775
499.81612	1109.075
503.89401	1106.375
507.96899	1107.175
512.04106	1098.275
516.11023	1110.275
520.1765	1096.575
524.23987	1097.175
528.30034	1092.375
532.35792	1082.175
536.41261	1073.675
540.46441	1075.075
544.51333	1067.675
548.55936	1070.675
552.60252	1079.875
556.64279	1080.075
560.6802	1075.375
564.71473	1092.475
568.7464	1093.075
572.7752	1091.675
576.80114	1089.075
580.82422	1088.475
584.84444	1085.175
588.86181	1096.075
592.87633	1102.675
596.888	1107.475
600.89682	1122.175
604.9028	1143.075
608.90594	1213.975
612.90624	1310.075
616.90371	1303.775
620.89834	1203.375
624.89015	1155.775
628.87913	1157.175
632.86528	1178.375
636.84862	1194.875
640.82913	1192.475
644.80683	1187.475
648.78172	1168.475
652.75379	1167.175
656.72306	1164.775
660.68952	1179.275
664.65319	1188.775
668.61405	1172.575
672.57211	1179.075
676.52738	1201.975
680.47986	1225.175
684.42955	1254.875
688.37646	1286.175
692.32058	1260.975
696.26192	1235.575
700.20048	1208.075
704.13626	1197.275
708.06928	1186.875
711.99952	1184.875
715.927	1189.475
719.85171	1178.275
723.77365	1173.675
727.69284	1168.875
731.60928	1159.475
735.52295	1159.275
739.43388	1149.275
743.34206	1158.875
747.24749	1156.375
751.15017	1147.775
755.05012	1130.975
758.94733	1169.075
762.8418	1200.075
766.73354	1242.175
770.62254	1276.275
774.50882	1306.075
778.39237	1286.875
782.27321	1253.275
786.15132	1219.975
790.02671	1199.175
793.89938	1188.175
797.76935	1184.575
801.6366	1190.375
805.50115	1195.275
809.36299	1191.875
813.22213	1200.475
817.07857	1198.175
820.93231	1180.475
824.78336	1163.475
828.63172	1156.775
832.47738	1164.175
836.32036	1158.075
840.16066	1148.875
843.99827	1150.475
847.8332	1156.375
851.66546	1152.575
855.49504	1143.875
859.32195	1141.475
863.1462	1141.075
866.96777	1143.475
870.78668	1146.475
874.60293	1146.975
878.41652	1152.975
882.22745	1174.375
886.03573	1179.875
889.84136	1182.775
893.64433	1192.175
897.44466	1197.475
901.24235	1187.875
905.0374	1182.575
908.8298	1183.275
912.61957	1183.875
916.40671	1183.475
920.19121	1202.975
923.97308	1203.075
927.75233	1202.375
931.52895	1198.575
935.30295	1198.875
939.07433	1188.075
942.84309	1175.275
946.60924	1164.475
950.37278	1166.475
954.13371	1160.775
957.89203	1148.775
961.64774	1147.875
965.40086	1142.975
969.15137	1139.575
972.89929	1134.775
976.64461	1125.575
980.38733	1121.775
984.12747	1114.775
987.86502	1118.475
991.59999	1121.775
995.33237	1124.375
999.06217	1128.975
1002.78939	1134.775
1006.51404	1144.375
1010.23611	1153.775
1013.95561	1162.875
1017.67255	1169.875
1021.38692	1159.775
1025.09872	1162.575
1028.80796	1159.875
1032.51465	1156.675
1036.21877	1148.175
1039.92035	1145.575
1043.61937	1142.175
1047.31584	1148.475
1051.00976	1152.675
1054.70114	1146.975
1058.38998	1158.275
1062.07627	1151.975
1065.76003	1158.975
1069.44126	1159.375
1073.11995	1161.875
1076.79611	1171.275
1080.46974	1176.475
1084.14085	1175.675
1087.80943	1171.375
1091.47549	1161.575
1095.13903	1158.375
1098.80005	1139.775
1102.45857	1139.775
1106.11456	1130.375
1109.76805	1137.175
1113.41903	1151.875
1117.06751	1168.675
1120.71348	1181.675
1124.35696	1213.175
1127.99793	1245.475
1131.63641	1263.675
1135.2724	1281.375
1138.90589	1264.675
1142.5369	1247.975
1146.16542	1231.075
1149.79145	1217.675
1153.415	1194.275
1157.03607	1174.475
1160.65467	1165.475
1164.27079	1173.375
1167.88443	1182.375
1171.49561	1195.475
1175.10432	1220.375
1178.71056	1262.275
1182.31434	1300.275
1185.91565	1318.975
1189.51451	1309.675
1193.11091	1293.375
1196.70485	1272.075
1200.29634	1262.675
1203.88538	1250.475
1207.47197	1241.075
1211.05612	1227.075
1214.63782	1209.475
1218.21708	1200.675
1221.79391	1206.475
1225.36829	1200.675
1228.94024	1200.175
1232.50976	1199.675
1236.07685	1197.175
1239.6415	1200.875
1243.20374	1203.675
1246.76355	1209.275
1250.32093	1212.875
1253.8759	1212.675
1257.42845	1233.075
1260.97859	1236.775
1264.52631	1244.175
1268.07163	1258.175
1271.61453	1271.475
1275.15503	1268.275
1278.69312	1295.175
1282.22882	1283.875
1285.76211	1310.775
1289.29301	1317.775
1292.82151	1348.375
1296.34761	1371.675
1299.87133	1399.675
1303.39266	1430.975
1306.9116	1484.775
1310.42815	1533.075
1313.94233	1571.375
1317.45412	1550.675
1320.96354	1506.975
1324.47058	1466.775
1327.97525	1428.975
1331.47754	1407.675
1334.97747	1405.875
1338.47502	1420.275
1341.97022	1440.775
1345.46305	1458.075
1348.95352	1509.475
1352.44163	1554.675
1355.92738	1613.275
1359.41078	1700.275
1362.89183	1789.975
1366.37053	1802.675
1369.84688	1694.975
1373.32088	1594.075
1376.79254	1523.275
1380.26186	1490.675
1383.72883	1462.075
1387.19347	1435.975
1390.65578	1406.475
1394.11575	1408.575
1397.57339	1387.775
1401.0287	1388.975
1404.48168	1379.775
1407.93234	1353.675
1411.38068	1352.775
1414.82669	1337.475
1418.27039	1332.975
1421.71177	1318.375
1425.15083	1307.575
1428.58758	1284.975
1432.02203	1279.875
1435.45416	1272.175
1438.88399	1261.575
1442.31151	1245.975
1445.73673	1242.575
1449.15965	1234.075
1452.58027	1244.175
1455.9986	1248.075
1459.41463	1234.675
1462.82837	1241.375
1466.23982	1237.275
1469.64898	1260.675
1473.05586	1268.075
1476.46045	1257.975
1479.86276	1275.175
1483.26279	1272.775
1486.66054	1282.075
1490.05602	1292.975
1493.44922	1319.475
1496.84016	1339.375
1500.22882	1374.975
1503.61521	1425.975
1506.99934	1487.575
1510.38121	1551.075
1513.76081	1559.875
1517.13816	1516.775
1520.51324	1446.675
1523.88607	1368.275
1527.25665	1316.875
1530.62498	1295.375
1533.99105	1276.275
1537.35488	1276.675
1540.71647	1262.875
1544.07581	1260.575
1547.4329	1268.875
1550.78776	1266.475
1554.14038	1265.875
1557.49077	1272.175
1560.83892	1281.475
1564.18484	1288.075
1567.52853	1289.675
1570.86999	1306.475
1574.20922	1319.575
1577.54624	1305.975
1580.88103	1304.375
1584.2136	1274.275
1587.54395	1233.175
1590.87208	1233.875
1594.19801	1228.475
1597.52172	1227.375
1600.84321	1221.775
1604.16251	1209.175
1607.47959	1189.875
1610.79447	1185.075
1614.10715	1167.975
1617.41763	1146.075
1620.7259	1141.675
1624.03199	1138.275
1627.33587	1140.875
1630.63757	1129.475
1633.93707	1124.375
1637.23439	1128.975
1640.52951	1147.375
1643.82246	1165.475
1647.11321	1212.375
1650.40179	1231.975
1653.68819	1223.175
1656.97241	1166.375
1660.25446	1109.175
1663.53433	1065.375
1666.81203	1042.275
1670.08756	1032.975
1673.36092	1044.275
1676.63211	1043.775
1679.90115	1040.975
1683.16801	1030.775
1686.43272	1023.075
1689.69527	1006.175
1692.95567	978.375
1696.2139	934.475
1699.46999	896.275
1702.72392	878.475
1705.97571	889.475
1709.22535	900.975
1712.47284	917.075
1715.71819	922.075
1718.96139	918.375
1722.20246	907.075
1725.44139	901.375
1728.67818	884.975
1731.91284	877.675
1735.14537	874.475
1738.37576	863.975
1741.60403	850.475
1744.83017	845.475
1748.05418	839.075
1751.27607	820.875
1754.49584	811.775
1757.71349	791.175
1760.92903	776.975
1764.14244	778.575
1767.35375	769.575
1770.56294	771.175
1773.77002	768.375
1776.97499	778.275
1780.17785	802.275
1783.37861	807.875
1786.57727	809.875
1789.77382	821.875
1792.96828	813.475
1796.16064	810.675
1799.3509	813.475
1802.53907	816.475
1805.72514	812.175
1808.90913	802.075
1812.09102	813.775
1815.27083	813.475
1818.44856	806.475
1821.6242	808.275
1824.79776	802.975
1827.96924	799.575
1831.13864	802.775
1834.30597	796.675
1837.47122	791.475
1840.6344	793.975
1843.7955	798.175
1846.95454	798.575
1850.11151	794.175
1853.26642	794.375
1856.41926	788.875
1859.57004	800.075
1862.71876	791.175
1865.86542	789.175
1869.01003	788.275
1872.15258	792.575
1875.29308	785.975
1878.43152	785.475
1881.56792	782.475
1884.70227	788.275
1887.83457	777.375
1890.96482	784.775
1894.09304	777.175
1897.21921	776.875
1900.34335	780.875
1903.46544	782.875
1906.58551	778.175
1909.70353	773.175
1912.81953	777.675
1915.93349	770.575
1919.04543	779.175
1922.15534	779.675
1925.26322	769.575
1928.36908	765.275
1931.47292	775.575
1934.57473	770.975
1937.67453	767.775
1940.77232	771.975
1943.86808	763.075
1946.96184	760.775
1950.05358	758.075
1953.14331	757.375
1956.23103	753.475
1959.31675	760.775
1962.40046	751.575
1965.48217	755.975
1968.56188	752.075
1971.63959	750.775
1974.7153	742.875
1977.78901	739.475
1980.86073	735.775
1983.93046	732.975
1986.99819	731.975
1990.06394	729.075
1993.1277	729.375
1996.18947	727.175
1999.24925	723.775
2002.30706	721.575
2005.36288	723.675
2008.41672	720.175
2011.46859	721.075
2014.51848	720.675
2017.56639	715.875
2020.61233	714.175
2023.6563	717.475
2026.6983	710.075
2029.73833	710.475
2032.7764	709.275
2035.8125	709.075
2038.84664	711.575
2041.87881	708.775
2044.90903	708.775
2047.93729	702.175
2050.96359	706.875
2053.98794	701.275
2057.01034	710.675
2060.03078	706.975
2063.04927	711.675
2066.06582	717.175
2069.08042	712.575
2072.09307	719.375
2075.10378	714.275
2078.11255	725.975
2081.11938	720.775
2084.12426	725.575
2087.12722	732.275
2090.12824	727.775
2093.12732	735.075
2096.12447	734.675
2099.11969	739.275
2102.11299	743.375
2105.10435	747.675
2108.09379	746.575
2111.08131	751.575
2114.0669	754.575
2117.05057	755.575
2120.03233	755.575
2123.01216	754.975
2125.99008	755.975
2128.96609	756.075
2131.94018	758.875
2134.91236	755.575
2137.88263	754.575
2140.851	753.875
2143.81746	755.175
2146.78201	747.775
2149.74466	754.075
2152.7054	743.975
2155.66425	746.075
2158.6212	751.075
2161.57625	750.575
2164.52941	748.075
2167.48067	742.975
2170.43004	745.375
2173.37752	745.875
2176.32311	747.075
2179.26681	747.275
2182.20863	743.675
2185.14856	733.075
2188.08661	737.875
2191.02278	737.275
2193.95707	728.175
2196.88948	721.375
2199.82001	721.375
2202.74867	720.775
2205.67545	714.375
2208.60037	704.075
2211.52341	711.575
2214.44458	711.975
2217.36388	707.975
2220.28132	705.075
2223.1969	705.675
2226.11061	704.475
2229.02246	701.675
2231.93245	705.075
2234.84058	701.475
2237.74686	696.075
2240.65128	700.175
2243.55385	696.775
2246.45456	702.775
2249.35343	697.075
2252.25044	694.775
2255.14561	689.775
2258.03893	694.275
2260.93041	677.575
2263.82004	681.675
2266.70783	686.475
2269.59378	682.975
2272.4779	678.375
2275.36017	678.175
2278.24061	679.675
2281.11922	683.275
2283.996	676.475
2286.87094	678.275
2289.74405	674.375
2292.61534	679.975
2295.4848	678.675
2298.35243	677.675
2301.21824	682.275
2304.08223	680.775
2306.94439	682.575
2309.80474	678.375
2312.66327	677.275
2315.51999	682.375
2318.37489	674.875
2321.22797	672.075
2324.07925	671.475
2326.92871	668.075
2329.77637	675.375
2332.62222	669.575
2335.46626	665.175
2338.3085	664.775
2341.14893	657.075
2343.98756	664.575
2346.8244	665.275
2349.65943	664.675
2352.49267	664.375
2355.32411	666.075
2358.15376	661.175
2360.98161	663.975
2363.80768	673.975
2366.63195	664.375
2369.45444	668.575
2372.27514	672.475
2375.09405	666.975
2377.91118	667.975
2380.72652	660.075
2383.54009	660.575
2386.35187	663.575
2389.16188	662.175
2391.97011	668.875
2394.77657	667.575
2397.58125	655.775
2400.38416	655.875
2403.18529	657.375
2405.98466	659.375
2408.78226	653.875
2411.57809	648.575
2414.37216	659.075
2417.16446	649.875
2419.955	651.475
2422.74378	651.175
2425.5308	650.375
2428.31606	656.575
2431.09956	651.875
2433.88131	647.275
2436.6613	646.775
2439.43954	647.675
2442.21603	644.775
2444.99077	641.675
2447.76377	652.075
2450.53501	648.775
2453.30451	652.375
2456.07226	653.775
2458.83827	653.075
2461.60254	644.475
2464.36507	644.775
2467.12586	639.375
2469.88492	646.775
2472.64224	643.675
2475.39782	637.875
2478.15167	640.875
2480.90379	638.675
2483.65417	644.575
2486.40283	640.175
2489.14976	642.275
2491.89497	644.575
2494.63845	637.475
2497.3802	628.475
2500.12024	632.975
2502.85855	634.875
2505.59514	635.775
2508.33002	638.375
2511.06318	634.375
2513.79462	644.675
2516.52435	637.775
2519.25237	639.275
2521.97867	639.375
2524.70327	639.475
2527.42616	636.275
2530.14734	637.675
2532.86681	633.375
2535.58458	639.075
2538.30065	628.075
2541.01501	626.675
2543.72768	636.675
2546.43864	630.175
2549.14791	631.475
2551.85548	628.975
2554.56136	625.175
2557.26554	630.275
2559.96803	625.875
2562.66883	624.875
2565.36794	625.075
2568.06536	624.175
2570.7611	629.075
2573.45514	620.175
2576.14751	623.175
2578.83819	612.675
2581.52719	615.275
2584.21451	617.275
2586.90015	615.975
2589.58411	619.375
2592.2664	618.575
2594.94701	620.775
2597.62594	612.175
2600.30321	617.775
2602.9788	619.275
2605.65273	622.575
2608.32498	611.175
2610.99557	613.875
2613.66449	609.775
2616.33175	613.675
2618.99734	609.975
2621.66128	611.675
2624.32355	610.975
2626.98416	607.375
2629.64311	604.675
2632.30041	616.075
2634.95605	603.875
2637.61004	613.975
2640.26238	610.175
2642.91306	604.175
2645.56209	603.475
2648.20948	604.975
2650.85521	605.375
2653.4993	610.075
2656.14175	619.575
2658.78255	608.475
2661.42171	603.475
2664.05923	609.075
2666.6951	614.175
2669.32934	608.175
2671.96194	612.375
2674.59291	606.075
2677.22224	610.075
2679.84993	604.675
2682.476	609.075
2685.10043	613.375
2687.72324	606.175
2690.34441	613.375
2692.96396	610.375
2695.58188	609.775
2698.19818	610.875
2700.81285	612.175
2703.4259	599.775
2706.03733	555.575
2708.64714	574.275
2711.25533	595.475
2713.86191	604.675
2716.46687	605.075
2719.07021	612.975
2721.67194	620.475
2724.27206	616.075
2726.87057	624.075
2729.46747	618.975
2732.06276	621.275
2734.65644	621.475
2737.24852	621.075
2739.83899	619.075
2742.42786	620.375
2745.01513	614.275
2747.60079	616.975
2750.18486	610.875
2752.76733	614.575
2755.3482	616.275
2757.92747	613.875
2760.50515	614.175
2763.08123	607.175
2765.65573	614.275
2768.22863	610.275
2770.79994	613.275
2773.36967	612.275
2775.9378	610.975
2778.50435	608.175
2781.06932	610.675
2783.6327	610.375
2786.1945	608.775
2788.75471	611.875
2791.31335	613.475
2793.87041	606.275
2796.42589	610.875
2798.97979	617.075
2801.53212	613.375
2804.08288	612.975
2806.63206	607.375
2809.17967	599.375
2811.72571	604.975
2814.27018	605.575
2816.81308	598.275
2819.35442	607.875
2821.89419	601.375
2824.43239	596.875
2826.96904	599.675
2829.50412	604.875
2832.03763	598.075
2834.56959	603.175
2837.1	607.375
2839.62884	603.775
2842.15613	594.675
2844.68186	592.675
2847.20604	598.175
2849.72867	595.275
2852.24974	599.375
2854.76927	592.975
2857.28724	578.475
2859.80367	594.275
2862.31855	609.675
2864.83189	592.675
2867.34368	596.075
2869.85393	600.175
2872.36264	600.475
2874.8698	606.475
2877.37543	601.175
2879.87952	607.075
2882.38207	606.275
2884.88308	604.875
2887.38256	604.175
2889.88051	608.875
2892.37692	610.275
2894.8718	603.875
2897.36515	613.675
2899.85698	617.575
2902.34727	614.075
2904.83604	618.975
2907.32328	629.275
2909.809	624.175
2912.29319	623.975
2914.77587	620.375
2917.25702	626.175
2919.73665	632.975
2922.21476	630.075
2924.69136	632.275
2927.16644	628.575
2929.64	626.175
2932.11205	638.275
2934.58258	630.075
2937.05161	638.475
2939.51912	630.675
2941.98513	627.475
2944.44962	631.675
2946.91261	638.975
2949.37409	635.675
2951.83407	643.575
2954.29254	640.875
2956.74951	637.775
2959.20498	638.575
2961.65895	639.875
2964.11142	633.175
2966.56239	634.275
2969.01186	636.375
2971.45984	644.175
2973.90632	642.275
2976.35131	642.675
2978.7948	639.075
2981.23681	641.975
2983.67732	638.875
2986.11635	644.075
2988.55388	632.475
2990.98993	642.075
2993.4245	638.975
2995.85758	641.675
2998.28917	645.875
3000.71928	642.975
3003.14791	644.975
3005.57506	646.275
3008.00073	642.775
3010.42493	645.875
3012.84764	648.775
3015.26888	655.275
3017.68865	658.375
3020.10694	653.775
3022.52376	655.475
3024.9391	660.575
3027.35298	660.575
3029.76539	658.475
3032.17632	665.375
3034.5858	666.675
3036.9938	667.775
3039.40034	675.775
3041.80542	673.375
3044.20903	679.675
3046.61118	686.175
3049.01187	682.175
3051.4111	681.875
3053.80888	687.475
3056.20519	698.075
3058.60005	697.975
3060.99345	701.475
3063.3854	702.375
3065.7759	705.375
3068.16494	709.775
3070.55254	706.575
3072.93868	711.775
3075.32338	711.575
3077.70662	720.775
3080.08842	718.175
3082.46878	723.275
3084.84769	727.075
3087.22515	728.975
3089.60118	737.375
3091.97576	748.375
3094.3489	747.675
3096.72061	747.775
3099.09087	750.775
3101.4597	767.175
3103.82709	768.375
3106.19305	772.875
3108.55757	778.275
3110.92066	791.375
3113.28232	788.575
3115.64255	796.775
3118.00134	805.475
3120.35871	809.975
3122.71466	816.675
3125.06917	817.875
3127.42226	821.075
3129.77393	830.475
3132.12417	839.275
3134.47299	843.575
3136.82039	843.475
3139.16636	851.875
3141.51092	857.875
3143.85406	868.075
3146.19579	862.775
3148.53609	877.575
3150.87499	883.175
3153.21246	891.075
3155.54853	900.575
3157.88318	910.675
3160.21642	924.175
3162.54826	926.875
3164.87868	936.275
3167.2077	948.575
3169.5353	955.775
3171.86151	952.775
3174.18631	961.375
3176.5097	966.175
3178.83169	968.975
3181.15228	985.375
3183.47147	984.075
3185.78926	995.075
3188.10565	1002.775
3190.42065	1002.575
3192.73424	1006.275
3195.04645	1005.575
3197.35725	1002.975
3199.66667	1013.275
3201.97469	1023.275
3204.28132	1036.875
3206.58656	1036.675
3208.8904	1038.375
3211.19287	1041.275
3213.49394	1052.975
3215.79363	1058.675
3218.09193	1067.575
3220.38884	1055.975
3222.68438	1048.775
3224.97853	1062.075
3227.2713	1067.675
3229.56269	1073.175
3231.8527	1077.475
3234.14133	1080.875
3236.42858	1073.375
3238.71446	1070.875
3240.99896	1075.975
3243.28209	1072.575
3245.56384	1069.175
3247.84423	1072.775
3250.12324	1075.375
3252.40088	1080.075
3254.67715	1076.275
3256.95205	1074.575
3259.22558	1085.175
3261.49775	1078.275
3263.76855	1085.875
3266.03799	1084.275
3268.30606	1080.175
3270.57277	1087.775
3272.83812	1088.975
3275.10211	1080.675
3277.36474	1081.675
3279.62601	1089.675
3281.88593	1083.275
3284.14448	1075.675
3286.40168	1084.075
3288.65753	1088.175
3290.91202	1081.375
3293.16516	1077.475
3295.41695	1082.375
3297.66738	1075.375
3299.91647	1068.975
3302.16421	1056.075
3304.4106	1058.875
