Data from AgNPs_APTES_FTO_UA_100uM_CRN_0uM_R6G_10uM_Scan_RamanShift__47__11-34-31-291.txt Node

Date: Wed Jun 29 11:34:31 BST 2022
User: TCL
Spectrometer: QEP01345
Trigger mode: 4
Integration Time (sec): 7.000000E0
Scans to average: 10
Electric dark correction enabled: true
Nonlinearity correction enabled: false
Boxcar width: 0
XAxis mode: Raman Shifts
Number of Pixels in Spectrum: 1044
>>>>>Begin Spectral Data<<<<<
46.04893	1.3875
50.45542	-0.4125
54.85868	0.7875
59.25871	0.8875
63.6555	36.2875
68.04907	37.9875
72.43941	42.1875
76.82654	40.8875
81.21044	47.3875
85.59113	50.9875
89.96862	52.4875
94.34289	55.8875
98.71396	56.2875
103.08183	58.7875
107.4465	56.4875
111.80798	62.1875
116.16626	57.5875
120.52136	58.1875
124.87327	55.5875
129.222	59.0875
133.56755	56.1875
137.90993	53.9875
142.24913	53.8875
146.58517	50.2875
150.91804	52.7875
155.24774	56.6875
159.57429	58.8875
163.89768	60.2875
168.21792	71.1875
172.53501	83.9875
176.84895	103.8875
181.15975	133.6875
185.46741	168.5875
189.77193	215.0875
194.07331	287.8875
198.37157	363.7875
202.6667	435.5875
206.9587	512.9875
211.24758	590.8875
215.53334	666.2875
219.81599	760.9875
224.09553	856.0875
228.37195	960.9875
232.64527	1068.3875
236.91549	1180.0875
241.18261	1273.8875
245.44663	1373.0875
249.70755	1442.1875
253.96539	1500.7875
258.22014	1553.0875
262.4718	1592.2875
266.72039	1620.0875
270.96589	1625.6875
275.20832	1609.2875
279.44768	1576.5875
283.68397	1547.1875
287.91719	1519.7875
292.14735	1514.1875
296.37445	1524.0875
300.59849	1559.8875
304.81948	1605.8875
309.03742	1647.6875
313.25231	1651.5875
317.46415	1613.5875
321.67296	1537.4875
325.87872	1463.1875
330.08145	1437.3875
334.28114	1440.5875
338.47781	1467.0875
342.67145	1498.6875
346.86207	1545.1875
351.04966	1604.9875
355.23424	1695.8875
359.4158	1760.2875
363.59435	1793.7875
367.76989	1822.9875
371.94243	1816.9875
376.11196	1821.2875
380.27849	1809.5875
384.44203	1809.6875
388.60257	1797.9875
392.76012	1805.0875
396.91468	1813.5875
401.06626	1847.3875
405.21485	1871.9875
409.36047	1829.4875
413.50311	1779.0875
417.64277	1721.8875
421.77947	1689.6875
425.9132	1667.9875
430.04396	1663.0875
434.17176	1680.4875
438.2966	1697.6875
442.41849	1729.3875
446.53742	1761.5875
450.6534	1780.3875
454.76644	1803.3875
458.87653	1820.7875
462.98368	1803.0875
467.08789	1793.4875
471.18916	1780.5875
475.2875	1760.7875
479.38291	1749.5875
483.4754	1737.5875
487.56496	1741.1875
491.6516	1750.5875
495.73531	1759.9875
499.81612	1763.5875
503.89401	1756.1875
507.96899	1756.1875
512.04106	1782.9875
516.11023	1799.2875
520.1765	1817.6875
524.23987	1821.3875
528.30034	1822.9875
532.35792	1815.4875
536.41261	1801.6875
540.46441	1776.2875
544.51333	1741.9875
548.55936	1753.4875
552.60252	1756.2875
556.64279	1773.9875
560.6802	1785.7875
564.71473	1807.8875
568.7464	1859.5875
572.7752	1878.7875
576.80114	1810.0875
580.82422	1777.2875
584.84444	1767.3875
588.86181	1783.9875
592.87633	1826.8875
596.888	1843.7875
600.89682	1877.7875
604.9028	2034.2875
608.90594	2450.5875
612.90624	2974.9875
616.90371	2848.4875
620.89834	2252.8875
624.89015	1996.9875
628.87913	2008.6875
632.86528	2058.9875
636.84862	2105.0875
640.82913	2069.1875
644.80683	1990.0875
648.78172	1905.6875
652.75379	1878.0875
656.72306	1901.9875
660.68952	1943.7875
664.65319	1921.1875
668.61405	1869.6875
672.57211	1839.4875
676.52738	1850.2875
680.47986	1863.6875
684.42955	1884.2875
688.37646	1888.1875
692.32058	1889.3875
696.26192	1879.6875
700.20048	1865.8875
704.13626	1862.8875
708.06928	1844.5875
711.99952	1828.7875
715.927	1824.1875
719.85171	1834.9875
723.77365	1842.7875
727.69284	1847.8875
731.60928	1839.6875
735.52295	1838.9875
739.43388	1816.4875
743.34206	1826.4875
747.24749	1829.1875
751.15017	1825.2875
755.05012	1815.1875
758.94733	1888.2875
762.8418	2035.6875
766.73354	2264.6875
770.62254	2493.5875
774.50882	2614.1875
778.39237	2565.9875
782.27321	2332.3875
786.15132	2098.5875
790.02671	1949.2875
793.89938	1874.2875
797.76935	1862.1875
801.6366	1849.4875
805.50115	1866.0875
809.36299	1897.4875
813.22213	1891.3875
817.07857	1877.4875
820.93231	1851.6875
824.78336	1839.3875
828.63172	1821.2875
832.47738	1817.9875
836.32036	1805.0875
840.16066	1804.6875
843.99827	1804.4875
847.8332	1796.1875
851.66546	1798.3875
855.49504	1789.6875
859.32195	1794.8875
863.1462	1809.6875
866.96777	1801.6875
870.78668	1807.8875
874.60293	1816.0875
878.41652	1836.9875
882.22745	1864.2875
886.03573	1871.4875
889.84136	1891.0875
893.64433	1877.3875
897.44466	1849.9875
901.24235	1833.2875
905.0374	1809.0875
908.8298	1790.4875
912.61957	1769.4875
916.40671	1764.4875
920.19121	1762.6875
923.97308	1780.5875
927.75233	1808.8875
931.52895	1824.0875
935.30295	1808.2875
939.07433	1788.2875
942.84309	1756.6875
946.60924	1734.8875
950.37278	1750.1875
954.13371	1739.6875
957.89203	1725.4875
961.64774	1724.8875
965.40086	1714.5875
969.15137	1709.0875
972.89929	1696.7875
976.64461	1703.2875
980.38733	1707.7875
984.12747	1702.1875
987.86502	1708.7875
991.59999	1716.2875
995.33237	1740.4875
999.06217	1762.1875
1002.78939	1806.0875
1006.51404	1842.4875
1010.23611	1858.2875
1013.95561	1875.6875
1017.67255	1890.3875
1021.38692	1869.1875
1025.09872	1868.5875
1028.80796	1860.3875
1032.51465	1864.9875
1036.21877	1872.1875
1039.92035	1873.7875
1043.61937	1869.8875
1047.31584	1849.2875
1051.00976	1819.4875
1054.70114	1830.9875
1058.38998	1826.7875
1062.07627	1836.5875
1065.76003	1848.2875
1069.44126	1850.2875
1073.11995	1879.4875
1076.79611	1899.7875
1080.46974	1934.5875
1084.14085	1962.1875
1087.80943	1975.1875
1091.47549	1973.3875
1095.13903	1936.8875
1098.80005	1908.5875
1102.45857	1863.3875
1106.11456	1873.5875
1109.76805	1887.6875
1113.41903	1925.8875
1117.06751	1988.7875
1120.71348	2063.2875
1124.35696	2176.7875
1127.99793	2272.9875
1131.63641	2301.6875
1135.2724	2263.0875
1138.90589	2201.2875
1142.5369	2127.4875
1146.16542	2064.2875
1149.79145	1983.7875
1153.415	1927.0875
1157.03607	1908.7875
1160.65467	1912.8875
1164.27079	1946.9875
1167.88443	2003.3875
1171.49561	2100.6875
1175.10432	2263.6875
1178.71056	2481.9875
1182.31434	2680.4875
1185.91565	2755.0875
1189.51451	2690.5875
1193.11091	2554.0875
1196.70485	2454.2875
1200.29634	2378.3875
1203.88538	2318.9875
1207.47197	2221.1875
1211.05612	2140.6875
1214.63782	2058.6875
1218.21708	2021.0875
1221.79391	1994.5875
1225.36829	1983.0875
1228.94024	1976.7875
1232.50976	1966.5875
1236.07685	1947.4875
1239.6415	1967.1875
1243.20374	1981.0875
1246.76355	1989.2875
1250.32093	2000.8875
1253.8759	2025.9875
1257.42845	2063.4875
1260.97859	2104.7875
1264.52631	2155.7875
1268.07163	2206.6875
1271.61453	2250.1875
1275.15503	2284.2875
1278.69312	2303.9875
1282.22882	2299.7875
1285.76211	2343.3875
1289.29301	2402.0875
1292.82151	2468.5875
1296.34761	2528.2875
1299.87133	2646.2875
1303.39266	2831.4875
1306.9116	3111.7875
1310.42815	3390.9875
1313.94233	3528.9875
1317.45412	3374.6875
1320.96354	3084.8875
1324.47058	2823.7875
1327.97525	2644.4875
1331.47754	2527.1875
1334.97747	2485.2875
1338.47502	2513.4875
1341.97022	2586.8875
1345.46305	2730.7875
1348.95352	2923.8875
1352.44163	3154.2875
1355.92738	3470.0875
1359.41078	3927.7875
1362.89183	4333.4875
1366.37053	4177.5875
1369.84688	3552.5875
1373.32088	3023.1875
1376.79254	2705.1875
1380.26186	2537.5875
1383.72883	2420.1875
1387.19347	2326.9875
1390.65578	2232.6875
1394.11575	2174.0875
1397.57339	2124.4875
1401.0287	2109.6875
1404.48168	2098.3875
1407.93234	2087.0875
1411.38068	2072.7875
1414.82669	2067.8875
1418.27039	2078.0875
1421.71177	2051.1875
1425.15083	2034.7875
1428.58758	2044.4875
1432.02203	2056.8875
1435.45416	2086.9875
1438.88399	2092.8875
1442.31151	2080.5875
1445.73673	2095.3875
1449.15965	2103.0875
1452.58027	2111.1875
1455.9986	2116.1875
1459.41463	2111.8875
1462.82837	2133.2875
1466.23982	2172.3875
1469.64898	2204.4875
1473.05586	2214.3875
1476.46045	2227.6875
1479.86276	2225.8875
1483.26279	2250.2875
1486.66054	2280.3875
1490.05602	2324.1875
1493.44922	2414.1875
1496.84016	2566.5875
1500.22882	2816.2875
1503.61521	3175.1875
1506.99934	3584.0875
1510.38121	3902.4875
1513.76081	3941.7875
1517.13816	3652.9875
1520.51324	3206.2875
1523.88607	2793.1875
1527.25665	2540.6875
1530.62498	2405.0875
1533.99105	2320.1875
1537.35488	2258.9875
1540.71647	2237.9875
1544.07581	2226.5875
1547.4329	2230.9875
1550.78776	2253.6875
1554.14038	2278.4875
1557.49077	2292.2875
1560.83892	2321.7875
1564.18484	2368.2875
1567.52853	2467.5875
1570.86999	2526.5875
1574.20922	2569.7875
1577.54624	2555.0875
1580.88103	2446.7875
1584.2136	2304.8875
1587.54395	2204.5875
1590.87208	2204.8875
1594.19801	2266.8875
1597.52172	2366.3875
1600.84321	2419.4875
1604.16251	2357.9875
1607.47959	2276.7875
1610.79447	2179.7875
1614.10715	2101.5875
1617.41763	2022.4875
1620.7259	1977.4875
1624.03199	1955.3875
1627.33587	1942.6875
1630.63757	1963.3875
1633.93707	2018.7875
1637.23439	2110.4875
1640.52951	2267.4875
1643.82246	2478.4875
1647.11321	2761.2875
1650.40179	2943.2875
1653.68819	2885.5875
1656.97241	2591.0875
1660.25446	2270.7875
1663.53433	2043.9875
1666.81203	1904.8875
1670.08756	1819.3875
1673.36092	1777.3875
1676.63211	1749.9875
1679.90115	1722.1875
1683.16801	1705.3875
1686.43272	1683.8875
1689.69527	1662.0875
1692.95567	1641.3875
1696.2139	1627.4875
1699.46999	1601.6875
1702.72392	1576.6875
1705.97571	1566.1875
1709.22535	1554.6875
1712.47284	1541.3875
1715.71819	1543.2875
1718.96139	1522.7875
1722.20246	1517.4875
1725.44139	1506.1875
1728.67818	1478.3875
1731.91284	1460.6875
1735.14537	1459.6875
1738.37576	1441.3875
1741.60403	1445.4875
1744.83017	1435.4875
1748.05418	1437.4875
1751.27607	1426.2875
1754.49584	1414.0875
1757.71349	1404.4875
1760.92903	1409.3875
1764.14244	1397.8875
1767.35375	1391.1875
1770.56294	1390.1875
1773.77002	1392.0875
1776.97499	1374.1875
1780.17785	1381.1875
1783.37861	1381.5875
1786.57727	1371.0875
1789.77382	1370.2875
1792.96828	1370.5875
1796.16064	1362.3875
1799.3509	1368.9875
1802.53907	1366.0875
1805.72514	1356.3875
1808.90913	1351.7875
1812.09102	1346.0875
1815.27083	1342.9875
1818.44856	1347.8875
1821.6242	1339.2875
1824.79776	1331.5875
1827.96924	1337.0875
1831.13864	1327.9875
1834.30597	1326.7875
1837.47122	1331.4875
1840.6344	1322.5875
1843.7955	1331.9875
1846.95454	1321.6875
1850.11151	1320.3875
1853.26642	1328.5875
1856.41926	1322.2875
1859.57004	1330.0875
1862.71876	1311.4875
1865.86542	1313.1875
1869.01003	1318.1875
1872.15258	1319.2875
1875.29308	1316.6875
1878.43152	1302.2875
1881.56792	1313.2875
1884.70227	1306.9875
1887.83457	1302.4875
1890.96482	1310.6875
1894.09304	1308.8875
1897.21921	1301.3875
1900.34335	1298.1875
1903.46544	1298.3875
1906.58551	1299.6875
1909.70353	1297.5875
1912.81953	1299.9875
1915.93349	1297.1875
1919.04543	1295.9875
1922.15534	1296.6875
1925.26322	1281.0875
1928.36908	1278.7875
1931.47292	1289.1875
1934.57473	1284.0875
1937.67453	1276.2875
1940.77232	1273.7875
1943.86808	1271.2875
1946.96184	1269.2875
1950.05358	1266.3875
1953.14331	1258.5875
1956.23103	1247.1875
1959.31675	1258.8875
1962.40046	1250.7875
1965.48217	1252.5875
1968.56188	1241.2875
1971.63959	1241.6875
1974.7153	1238.0875
1977.78901	1237.2875
1980.86073	1223.8875
1983.93046	1222.3875
1986.99819	1218.8875
1990.06394	1213.7875
1993.1277	1203.1875
1996.18947	1207.6875
1999.24925	1207.6875
2002.30706	1204.3875
2005.36288	1194.1875
2008.41672	1194.4875
2011.46859	1180.5875
2014.51848	1189.1875
2017.56639	1183.1875
2020.61233	1181.5875
2023.6563	1184.7875
2026.6983	1176.7875
2029.73833	1168.6875
2032.7764	1173.4875
2035.8125	1175.9875
2038.84664	1168.4875
2041.87881	1172.8875
2044.90903	1158.8875
2047.93729	1160.3875
2050.96359	1157.5875
2053.98794	1155.5875
2057.01034	1161.1875
2060.03078	1158.5875
2063.04927	1153.8875
2066.06582	1162.0875
2069.08042	1154.1875
2072.09307	1155.9875
2075.10378	1164.0875
2078.11255	1157.5875
2081.11938	1155.6875
2084.12426	1153.4875
2087.12722	1159.7875
2090.12824	1158.7875
2093.12732	1150.5875
2096.12447	1152.7875
2099.11969	1153.7875
2102.11299	1151.8875
2105.10435	1162.1875
2108.09379	1161.3875
2111.08131	1165.9875
2114.0669	1159.7875
2117.05057	1162.4875
2120.03233	1164.4875
2123.01216	1165.3875
2125.99008	1165.5875
2128.96609	1156.6875
2131.94018	1172.2875
2134.91236	1171.5875
2137.88263	1167.5875
2140.851	1168.9875
2143.81746	1167.2875
2146.78201	1167.5875
2149.74466	1170.1875
2152.7054	1166.8875
2155.66425	1158.7875
2158.6212	1166.3875
2161.57625	1169.4875
2164.52941	1164.8875
2167.48067	1164.2875
2170.43004	1160.2875
2173.37752	1164.4875
2176.32311	1166.0875
2179.26681	1152.8875
2182.20863	1166.1875
2185.14856	1161.4875
2188.08661	1168.1875
2191.02278	1157.4875
2193.95707	1160.7875
2196.88948	1154.6875
2199.82001	1166.6875
2202.74867	1153.5875
2205.67545	1150.2875
2208.60037	1150.5875
2211.52341	1154.6875
2214.44458	1146.8875
2217.36388	1151.6875
2220.28132	1142.9875
2223.1969	1152.5875
2226.11061	1140.8875
2229.02246	1147.7875
2231.93245	1141.1875
2234.84058	1139.1875
2237.74686	1134.9875
2240.65128	1128.2875
2243.55385	1132.6875
2246.45456	1129.0875
2249.35343	1129.5875
2252.25044	1134.4875
2255.14561	1125.0875
2258.03893	1133.3875
2260.93041	1130.1875
2263.82004	1121.2875
2266.70783	1127.2875
2269.59378	1113.0875
2272.4779	1114.7875
2275.36017	1114.6875
2278.24061	1113.3875
2281.11922	1112.6875
2283.996	1103.2875
2286.87094	1102.7875
2289.74405	1095.2875
2292.61534	1104.0875
2295.4848	1104.0875
2298.35243	1099.5875
2301.21824	1099.8875
2304.08223	1093.2875
2306.94439	1103.1875
2309.80474	1106.5875
2312.66327	1096.3875
2315.51999	1107.9875
2318.37489	1096.1875
2321.22797	1095.2875
2324.07925	1092.3875
2326.92871	1106.3875
2329.77637	1103.5875
2332.62222	1093.1875
2335.46626	1090.7875
2338.3085	1088.1875
2341.14893	1090.0875
2343.98756	1092.5875
2346.8244	1086.9875
2349.65943	1088.3875
2352.49267	1092.1875
2355.32411	1090.1875
2358.15376	1092.6875
2360.98161	1091.9875
2363.80768	1094.4875
2366.63195	1101.0875
2369.45444	1091.4875
2372.27514	1092.0875
2375.09405	1090.0875
2377.91118	1092.5875
2380.72652	1084.5875
2383.54009	1082.2875
2386.35187	1084.8875
2389.16188	1080.7875
2391.97011	1079.5875
2394.77657	1082.5875
2397.58125	1061.9875
2400.38416	1069.9875
2403.18529	1064.9875
2405.98466	1054.2875
2408.78226	1057.8875
2411.57809	1064.6875
2414.37216	1066.4875
2417.16446	1050.5875
2419.955	1061.3875
2422.74378	1059.6875
2425.5308	1056.1875
2428.31606	1053.3875
2431.09956	1064.7875
2433.88131	1056.7875
2436.6613	1059.6875
2439.43954	1054.5875
2442.21603	1053.2875
2444.99077	1052.0875
2447.76377	1056.9875
2450.53501	1054.8875
2453.30451	1059.6875
2456.07226	1056.6875
2458.83827	1057.8875
2461.60254	1039.5875
2464.36507	1053.5875
2467.12586	1047.2875
2469.88492	1053.0875
2472.64224	1051.5875
2475.39782	1053.8875
2478.15167	1046.0875
2480.90379	1044.5875
2483.65417	1058.9875
2486.40283	1057.9875
2489.14976	1059.8875
2491.89497	1053.7875
2494.63845	1047.6875
2497.3802	1057.5875
2500.12024	1055.6875
2502.85855	1049.3875
2505.59514	1048.8875
2508.33002	1043.8875
2511.06318	1046.1875
2513.79462	1045.9875
2516.52435	1035.7875
2519.25237	1032.3875
2521.97867	1033.7875
2524.70327	1033.8875
2527.42616	1038.8875
2530.14734	1027.9875
2532.86681	1028.7875
2535.58458	1031.8875
2538.30065	1032.3875
2541.01501	1025.4875
2543.72768	1026.2875
2546.43864	1025.1875
2549.14791	1035.3875
2551.85548	1028.2875
2554.56136	1034.5875
2557.26554	1027.1875
2559.96803	1023.9875
2562.66883	1026.8875
2565.36794	1025.7875
2568.06536	1019.7875
2570.7611	1023.3875
2573.45514	1017.2875
2576.14751	1017.2875
2578.83819	1011.4875
2581.52719	1009.2875
2584.21451	1013.3875
2586.90015	992.5875
2589.58411	1006.2875
2592.2664	1001.0875
2594.94701	1009.2875
2597.62594	1009.6875
2600.30321	1010.4875
2602.9788	1009.7875
2605.65273	1005.3875
2608.32498	997.3875
2610.99557	1007.8875
2613.66449	1002.8875
2616.33175	1003.8875
2618.99734	1004.3875
2621.66128	1008.3875
2624.32355	998.7875
2626.98416	1002.4875
2629.64311	994.8875
2632.30041	997.1875
2634.95605	998.4875
2637.61004	996.6875
2640.26238	993.9875
2642.91306	986.3875
2645.56209	986.7875
2648.20948	990.7875
2650.85521	989.1875
2653.4993	983.3875
2656.14175	989.8875
2658.78255	995.7875
2661.42171	986.6875
2664.05923	991.3875
2666.6951	991.3875
2669.32934	993.8875
2671.96194	995.7875
2674.59291	998.4875
2677.22224	995.1875
2679.84993	992.8875
2682.476	989.9875
2685.10043	998.4875
2687.72324	996.6875
2690.34441	992.7875
2692.96396	993.3875
2695.58188	996.2875
2698.19818	991.2875
2700.81285	989.5875
2703.4259	992.1875
2706.03733	978.5875
2708.64714	978.2875
2711.25533	992.8875
2713.86191	991.8875
2716.46687	1000.9875
2719.07021	988.5875
2721.67194	998.6875
2724.27206	999.4875
2726.87057	993.4875
2729.46747	1003.1875
2732.06276	1003.5875
2734.65644	998.5875
2737.24852	1006.7875
2739.83899	995.5875
2742.42786	999.5875
2745.01513	987.8875
2747.60079	996.7875
2750.18486	1001.0875
2752.76733	994.2875
2755.3482	993.4875
2757.92747	989.2875
2760.50515	984.5875
2763.08123	995.2875
2765.65573	982.6875
2768.22863	990.3875
2770.79994	979.9875
2773.36967	990.2875
2775.9378	989.9875
2778.50435	989.1875
2781.06932	993.0875
2783.6327	984.2875
2786.1945	986.9875
2788.75471	989.0875
2791.31335	991.2875
2793.87041	987.9875
2796.42589	981.9875
2798.97979	984.7875
2801.53212	988.6875
2804.08288	985.3875
2806.63206	974.5875
2809.17967	983.0875
2811.72571	971.5875
2814.27018	979.1875
2816.81308	975.5875
2819.35442	973.9875
2821.89419	978.2875
2824.43239	974.6875
2826.96904	979.8875
2829.50412	975.4875
2832.03763	971.1875
2834.56959	974.8875
2837.1	973.0875
2839.62884	974.7875
2842.15613	972.0875
2844.68186	963.1875
2847.20604	974.0875
2849.72867	966.5875
2852.24974	975.5875
2854.76927	974.4875
2857.28724	973.5875
2859.80367	975.3875
2862.31855	978.3875
2864.83189	981.7875
2867.34368	979.0875
2869.85393	976.0875
2872.36264	971.0875
2874.8698	986.9875
2877.37543	981.4875
2879.87952	977.3875
2882.38207	981.4875
2884.88308	980.0875
2887.38256	984.3875
2889.88051	985.2875
2892.37692	996.5875
2894.8718	990.8875
2897.36515	995.3875
2899.85698	988.5875
2902.34727	990.8875
2904.83604	994.9875
2907.32328	1008.0875
2909.809	990.3875
2912.29319	1002.6875
2914.77587	998.7875
2917.25702	1005.2875
2919.73665	1000.2875
2922.21476	1001.0875
2924.69136	1002.0875
2927.16644	1006.2875
2929.64	1001.4875
2932.11205	1008.0875
2934.58258	1006.5875
2937.05161	999.4875
2939.51912	998.6875
2941.98513	997.6875
2944.44962	999.3875
2946.91261	1006.7875
2949.37409	999.5875
2951.83407	1010.8875
2954.29254	1003.3875
2956.74951	1005.8875
2959.20498	1003.0875
2961.65895	1000.4875
2964.11142	1007.6875
2966.56239	1001.7875
2969.01186	1005.2875
2971.45984	1008.2875
2973.90632	1000.2875
2976.35131	1000.8875
2978.7948	999.9875
2981.23681	997.4875
2983.67732	998.9875
2986.11635	997.5875
2988.55388	999.6875
2990.98993	995.9875
2993.4245	997.6875
2995.85758	998.8875
2998.28917	1001.7875
3000.71928	1004.2875
3003.14791	994.9875
3005.57506	1002.4875
3008.00073	999.1875
3010.42493	1002.8875
3012.84764	1001.6875
3015.26888	1002.5875
3017.68865	1000.8875
3020.10694	1012.9875
3022.52376	1009.2875
3024.9391	1004.4875
3027.35298	1010.5875
3029.76539	1005.8875
3032.17632	1010.5875
3034.5858	1012.8875
3036.9938	1014.2875
3039.40034	1019.3875
3041.80542	1024.0875
3044.20903	1030.1875
3046.61118	1028.3875
3049.01187	1023.6875
3051.4111	1026.1875
3053.80888	1033.8875
3056.20519	1034.8875
3058.60005	1031.1875
3060.99345	1040.2875
3063.3854	1040.1875
3065.7759	1038.8875
3068.16494	1041.6875
3070.55254	1043.4875
3072.93868	1045.3875
3075.32338	1042.5875
3077.70662	1047.6875
3080.08842	1047.7875
3082.46878	1050.8875
3084.84769	1058.7875
3087.22515	1065.2875
3089.60118	1064.1875
3091.97576	1078.8875
3094.3489	1083.1875
3096.72061	1083.3875
3099.09087	1088.4875
3101.4597	1092.8875
3103.82709	1092.2875
3106.19305	1115.0875
3108.55757	1122.5875
3110.92066	1111.0875
3113.28232	1114.0875
3115.64255	1128.5875
3118.00134	1132.8875
3120.35871	1137.2875
3122.71466	1145.1875
3125.06917	1150.0875
3127.42226	1145.1875
3129.77393	1150.4875
3132.12417	1156.8875
3134.47299	1166.3875
3136.82039	1170.1875
3139.16636	1177.2875
3141.51092	1183.3875
