Data from AgNPs_APTES_FTO_UA_100uM_CRN_0uM_R6G_10uM_Scan_RamanShift__64__11-54-21-315.txt Node

Date: Wed Jun 29 11:54:21 BST 2022
User: TCL
Spectrometer: QEP01345
Trigger mode: 4
Integration Time (sec): 7.000000E0
Scans to average: 10
Electric dark correction enabled: true
Nonlinearity correction enabled: false
Boxcar width: 0
XAxis mode: Raman Shifts
Number of Pixels in Spectrum: 1044
>>>>>Begin Spectral Data<<<<<
46.04893	0.3625
50.45542	-0.5375
54.85868	0.6625
59.25871	1.4625
63.6555	40.6625
68.04907	43.5625
72.43941	46.5625
76.82654	50.3625
81.21044	53.5625
85.59113	55.0625
89.96862	62.1625
94.34289	63.2625
98.71396	62.0625
103.08183	62.7625
107.4465	63.1625
111.80798	64.5625
116.16626	61.0625
120.52136	63.7625
124.87327	60.4625
129.222	62.3625
133.56755	62.5625
137.90993	61.3625
142.24913	59.1625
146.58517	58.5625
150.91804	55.6625
155.24774	63.7625
159.57429	66.5625
163.89768	71.9625
168.21792	85.1625
172.53501	97.5625
176.84895	121.5625
181.15975	162.0625
185.46741	207.7625
189.77193	278.2625
194.07331	359.9625
198.37157	461.9625
202.6667	569.1625
206.9587	663.7625
211.24758	772.0625
215.53334	894.2625
219.81599	1027.9625
224.09553	1181.5625
228.37195	1348.6625
232.64527	1526.2625
236.91549	1682.3625
241.18261	1817.7625
245.44663	1927.1625
249.70755	2019.7625
253.96539	2081.7625
258.22014	2136.3625
262.4718	2166.8625
266.72039	2169.0625
270.96589	2140.5625
275.20832	2089.0625
279.44768	2015.6625
283.68397	1952.2625
287.91719	1930.2625
292.14735	1927.9625
296.37445	2011.7625
300.59849	2148.5625
304.81948	2334.5625
309.03742	2490.3625
313.25231	2549.6625
317.46415	2424.4625
321.67296	2173.6625
325.87872	1963.9625
330.08145	1872.6625
334.28114	1880.0625
338.47781	1943.9625
342.67145	2021.8625
346.86207	2154.5625
351.04966	2355.3625
355.23424	2575.8625
359.4158	2704.0625
363.59435	2740.6625
367.76989	2712.0625
371.94243	2642.4625
376.11196	2572.4625
380.27849	2532.9625
384.44203	2464.8625
388.60257	2413.5625
392.76012	2390.3625
396.91468	2416.6625
401.06626	2502.0625
405.21485	2518.0625
409.36047	2437.2625
413.50311	2266.5625
417.64277	2087.5625
421.77947	1993.4625
425.9132	1953.2625
430.04396	1939.4625
434.17176	1958.5625
438.2966	1995.3625
442.41849	2039.5625
446.53742	2109.3625
450.6534	2146.4625
454.76644	2172.5625
458.87653	2152.4625
462.98368	2119.0625
467.08789	2087.0625
471.18916	2047.3625
475.2875	2001.6625
479.38291	1953.2625
483.4754	1943.7625
487.56496	1924.2625
491.6516	1929.5625
495.73531	1939.6625
499.81612	1935.5625
503.89401	1950.7625
507.96899	1992.5625
512.04106	2044.2625
516.11023	2099.1625
520.1765	2144.6625
524.23987	2173.8625
528.30034	2157.1625
532.35792	2115.7625
536.41261	2081.6625
540.46441	2011.5625
544.51333	1989.6625
548.55936	1984.1625
552.60252	2023.0625
556.64279	2072.7625
560.6802	2114.9625
564.71473	2239.0625
568.7464	2428.8625
572.7752	2431.5625
576.80114	2218.2625
580.82422	2025.7625
584.84444	1954.1625
588.86181	1930.4625
592.87633	1957.9625
596.888	1996.4625
600.89682	2137.5625
604.9028	2599.3625
608.90594	3719.7625
612.90624	5055.3625
616.90371	4732.6625
620.89834	3079.9625
624.89015	2359.4625
628.87913	2284.3625
632.86528	2361.2625
636.84862	2417.3625
640.82913	2316.6625
644.80683	2139.3625
648.78172	2021.4625
652.75379	2022.7625
656.72306	2137.1625
660.68952	2245.9625
664.65319	2186.7625
668.61405	2016.9625
672.57211	1940.7625
676.52738	1945.6625
680.47986	1924.5625
684.42955	1908.1625
688.37646	1904.5625
692.32058	1903.1625
696.26192	1938.4625
700.20048	1970.6625
704.13626	1982.3625
708.06928	1963.6625
711.99952	1951.2625
715.927	1965.3625
719.85171	1992.7625
723.77365	2008.4625
727.69284	2003.0625
731.60928	1979.3625
735.52295	1961.8625
739.43388	1982.2625
743.34206	1982.2625
747.24749	1984.1625
751.15017	1989.2625
755.05012	2019.0625
758.94733	2230.1625
762.8418	2698.1625
766.73354	3311.6625
770.62254	3776.4625
774.50882	3968.1625
778.39237	3804.5625
782.27321	3213.8625
786.15132	2585.9625
790.02671	2224.9625
793.89938	2084.0625
797.76935	2023.0625
801.6366	2014.4625
805.50115	2014.6625
809.36299	2032.0625
813.22213	2029.3625
817.07857	2021.0625
820.93231	2000.5625
824.78336	2017.8625
828.63172	2013.2625
832.47738	2010.5625
836.32036	1995.4625
840.16066	1965.4625
843.99827	1945.3625
847.8332	1936.5625
851.66546	1937.7625
855.49504	1930.3625
859.32195	1931.4625
863.1462	1920.6625
866.96777	1928.6625
870.78668	1936.7625
874.60293	1949.4625
878.41652	1989.7625
882.22745	2034.7625
886.03573	2059.2625
889.84136	2055.4625
893.64433	2046.9625
897.44466	2031.4625
901.24235	2015.5625
905.0374	1993.3625
908.8298	1937.0625
912.61957	1910.4625
916.40671	1906.4625
920.19121	1907.0625
923.97308	1938.1625
927.75233	1999.6625
931.52895	2067.2625
935.30295	2032.2625
939.07433	1931.3625
942.84309	1873.9625
946.60924	1822.8625
950.37278	1819.0625
954.13371	1808.5625
957.89203	1810.2625
961.64774	1799.3625
965.40086	1798.3625
969.15137	1802.4625
972.89929	1783.4625
976.64461	1792.2625
980.38733	1797.7625
984.12747	1792.1625
987.86502	1800.9625
991.59999	1820.1625
995.33237	1843.0625
999.06217	1887.4625
1002.78939	1939.8625
1006.51404	2003.7625
1010.23611	2023.2625
1013.95561	2025.9625
1017.67255	2019.0625
1021.38692	1985.7625
1025.09872	1971.4625
1028.80796	1969.9625
1032.51465	1973.2625
1036.21877	1999.2625
1039.92035	2011.7625
1043.61937	2006.1625
1047.31584	1999.8625
1051.00976	1989.7625
1054.70114	1973.9625
1058.38998	1957.8625
1062.07627	1961.3625
1065.76003	1965.0625
1069.44126	1967.5625
1073.11995	1996.2625
1076.79611	2054.3625
1080.46974	2152.6625
1084.14085	2267.0625
1087.80943	2365.7625
1091.47549	2348.2625
1095.13903	2256.4625
1098.80005	2141.3625
1102.45857	2072.0625
1106.11456	2072.9625
1109.76805	2135.4625
1113.41903	2251.2625
1117.06751	2413.4625
1120.71348	2683.3625
1124.35696	2973.7625
1127.99793	3106.7625
1131.63641	2954.5625
1135.2724	2672.9625
1138.90589	2471.7625
1142.5369	2345.5625
1146.16542	2228.7625
1149.79145	2154.0625
1153.415	2116.6625
1157.03607	2111.8625
1160.65467	2150.1625
1164.27079	2233.7625
1167.88443	2378.4625
1171.49561	2600.5625
1175.10432	3005.7625
1178.71056	3515.4625
1182.31434	3867.5625
1185.91565	3915.5625
1189.51451	3697.7625
1193.11091	3372.3625
1196.70485	3103.3625
1200.29634	2950.3625
1203.88538	2803.6625
1207.47197	2585.5625
1211.05612	2382.9625
1214.63782	2242.5625
1218.21708	2182.1625
1221.79391	2138.1625
1225.36829	2126.9625
1228.94024	2126.7625
1232.50976	2116.3625
1236.07685	2118.3625
1239.6415	2144.9625
1243.20374	2179.7625
1246.76355	2181.8625
1250.32093	2230.9625
1253.8759	2298.8625
1257.42845	2377.9625
1260.97859	2491.4625
1264.52631	2601.6625
1268.07163	2695.7625
1271.61453	2737.3625
1275.15503	2752.2625
1278.69312	2748.0625
1282.22882	2779.3625
1285.76211	2918.5625
1289.29301	3046.1625
1292.82151	3151.3625
1296.34761	3261.6625
1299.87133	3538.4625
1303.39266	4031.3625
1306.9116	4825.8625
1310.42815	5619.6625
1313.94233	5802.5625
1317.45412	5217.8625
1320.96354	4363.6625
1324.47058	3654.0625
1327.97525	3148.7625
1331.47754	2908.6625
1334.97747	2832.5625
1338.47502	2923.2625
1341.97022	3194.7625
1345.46305	3601.8625
1348.95352	4103.5625
1352.44163	4688.5625
1355.92738	5573.8625
1359.41078	6977.4625
1362.89183	7967.1625
1366.37053	7147.6625
1369.84688	5365.3625
1373.32088	4136.4625
1376.79254	3501.7625
1380.26186	3142.3625
1383.72883	2859.2625
1387.19347	2630.7625
1390.65578	2440.8625
1394.11575	2312.3625
1397.57339	2238.6625
1401.0287	2222.6625
1404.48168	2187.0625
1407.93234	2183.3625
1411.38068	2224.8625
1414.82669	2289.0625
1418.27039	2294.3625
1421.71177	2282.9625
1425.15083	2269.5625
1428.58758	2334.7625
1432.02203	2430.4625
1435.45416	2438.5625
1438.88399	2393.4625
1442.31151	2352.2625
1445.73673	2351.2625
1449.15965	2358.3625
1452.58027	2343.7625
1455.9986	2303.8625
1459.41463	2279.5625
1462.82837	2319.0625
1466.23982	2380.5625
1469.64898	2429.0625
1473.05586	2442.2625
1476.46045	2444.0625
1479.86276	2489.0625
1483.26279	2552.2625
1486.66054	2703.4625
1490.05602	2903.5625
1493.44922	3235.1625
1496.84016	3733.5625
1500.22882	4495.4625
1503.61521	5550.0625
1506.99934	6845.2625
1510.38121	7811.6625
1513.76081	7925.5625
1517.13816	6963.6625
1520.51324	5579.0625
1523.88607	4345.7625
1527.25665	3558.7625
1530.62498	3143.9625
1533.99105	2880.2625
1537.35488	2719.9625
1540.71647	2652.4625
1544.07581	2669.7625
1547.4329	2692.2625
1550.78776	2767.2625
1554.14038	2801.0625
1557.49077	2882.0625
1560.83892	2999.1625
1564.18484	3189.7625
1567.52853	3401.9625
1570.86999	3532.8625
1574.20922	3554.1625
1577.54624	3465.2625
1580.88103	3151.2625
1584.2136	2765.0625
1587.54395	2538.7625
1590.87208	2516.9625
1594.19801	2653.1625
1597.52172	2874.6625
1600.84321	2972.5625
1604.16251	2861.2625
1607.47959	2692.0625
1610.79447	2508.3625
1614.10715	2346.1625
1617.41763	2229.9625
1620.7259	2151.9625
1624.03199	2145.9625
1627.33587	2172.3625
1630.63757	2252.7625
1633.93707	2406.7625
1637.23439	2669.7625
1640.52951	3118.7625
1643.82246	3816.1625
1647.11321	4676.3625
1650.40179	5177.5625
1653.68819	4880.3625
1656.97241	3990.8625
1660.25446	3132.3625
1663.53433	2546.1625
1666.81203	2236.8625
1670.08756	2057.8625
1673.36092	1957.8625
1676.63211	1883.6625
1679.90115	1843.1625
1683.16801	1803.0625
1686.43272	1782.5625
1689.69527	1775.7625
1692.95567	1752.0625
1696.2139	1742.9625
1699.46999	1735.9625
1702.72392	1724.2625
1705.97571	1705.3625
1709.22535	1696.1625
1712.47284	1707.8625
1715.71819	1705.5625
1718.96139	1697.5625
1722.20246	1686.3625
1725.44139	1665.2625
1728.67818	1641.6625
1731.91284	1618.5625
1735.14537	1618.1625
1738.37576	1610.1625
1741.60403	1600.7625
1744.83017	1589.5625
1748.05418	1596.4625
1751.27607	1577.3625
1754.49584	1580.1625
1757.71349	1573.4625
1760.92903	1576.8625
1764.14244	1567.4625
1767.35375	1549.1625
1770.56294	1552.8625
1773.77002	1534.4625
1776.97499	1514.8625
1780.17785	1522.5625
1783.37861	1510.5625
1786.57727	1504.3625
1789.77382	1505.3625
1792.96828	1493.1625
1796.16064	1498.4625
1799.3509	1488.3625
1802.53907	1486.9625
1805.72514	1480.7625
1808.90913	1488.3625
1812.09102	1483.9625
1815.27083	1474.8625
1818.44856	1472.7625
1821.6242	1467.4625
1824.79776	1465.0625
1827.96924	1454.4625
1831.13864	1456.7625
1834.30597	1440.2625
1837.47122	1446.3625
1840.6344	1430.8625
1843.7955	1438.0625
1846.95454	1436.8625
1850.11151	1434.5625
1853.26642	1433.9625
1856.41926	1426.1625
1859.57004	1433.8625
1862.71876	1436.9625
1865.86542	1437.7625
1869.01003	1438.9625
1872.15258	1430.8625
1875.29308	1436.1625
1878.43152	1430.6625
1881.56792	1433.7625
1884.70227	1424.6625
1887.83457	1418.6625
1890.96482	1427.8625
1894.09304	1418.3625
1897.21921	1416.9625
1900.34335	1420.7625
1903.46544	1416.0625
1906.58551	1420.1625
1909.70353	1414.7625
1912.81953	1414.8625
1915.93349	1421.8625
1919.04543	1411.6625
1922.15534	1409.4625
1925.26322	1405.5625
1928.36908	1389.8625
1931.47292	1387.9625
1934.57473	1388.6625
1937.67453	1384.8625
1940.77232	1382.2625
1943.86808	1373.2625
1946.96184	1373.5625
1950.05358	1363.8625
1953.14331	1364.2625
1956.23103	1364.5625
1959.31675	1359.3625
1962.40046	1360.8625
1965.48217	1353.3625
1968.56188	1356.8625
1971.63959	1356.5625
1974.7153	1340.7625
1977.78901	1343.8625
1980.86073	1334.3625
1983.93046	1328.2625
1986.99819	1325.1625
1990.06394	1317.8625
1993.1277	1307.3625
1996.18947	1307.7625
1999.24925	1301.9625
2002.30706	1291.0625
2005.36288	1284.6625
2008.41672	1292.7625
2011.46859	1290.9625
2014.51848	1283.4625
2017.56639	1273.8625
2020.61233	1273.5625
2023.6563	1267.1625
2026.6983	1267.3625
2029.73833	1264.2625
2032.7764	1267.1625
2035.8125	1257.5625
2038.84664	1267.5625
2041.87881	1262.0625
2044.90903	1252.8625
2047.93729	1259.7625
2050.96359	1247.6625
2053.98794	1256.4625
2057.01034	1248.7625
2060.03078	1246.6625
2063.04927	1240.5625
2066.06582	1245.8625
2069.08042	1244.1625
2072.09307	1246.2625
2075.10378	1240.6625
2078.11255	1240.4625
2081.11938	1235.1625
2084.12426	1238.1625
2087.12722	1253.1625
2090.12824	1237.9625
2093.12732	1234.2625
2096.12447	1236.7625
2099.11969	1238.8625
2102.11299	1238.1625
2105.10435	1247.5625
2108.09379	1232.9625
2111.08131	1243.3625
2114.0669	1243.5625
2117.05057	1252.4625
2120.03233	1260.9625
2123.01216	1261.4625
2125.99008	1256.8625
2128.96609	1261.5625
2131.94018	1262.7625
2134.91236	1256.5625
2137.88263	1266.2625
2140.851	1261.4625
2143.81746	1254.2625
2146.78201	1252.3625
2149.74466	1254.0625
2152.7054	1246.7625
2155.66425	1252.5625
2158.6212	1254.4625
2161.57625	1245.0625
2164.52941	1247.5625
2167.48067	1240.9625
2170.43004	1248.8625
2173.37752	1248.2625
2176.32311	1254.8625
2179.26681	1252.1625
2182.20863	1250.1625
2185.14856	1247.2625
2188.08661	1250.3625
2191.02278	1250.1625
2193.95707	1253.1625
2196.88948	1239.3625
2199.82001	1253.5625
2202.74867	1242.9625
2205.67545	1243.2625
2208.60037	1229.7625
2211.52341	1240.2625
2214.44458	1227.6625
2217.36388	1230.5625
2220.28132	1230.1625
2223.1969	1230.6625
2226.11061	1231.2625
2229.02246	1225.5625
2231.93245	1216.8625
2234.84058	1219.7625
2237.74686	1216.1625
2240.65128	1223.0625
2243.55385	1216.6625
2246.45456	1214.8625
2249.35343	1219.4625
2252.25044	1226.9625
2255.14561	1220.7625
2258.03893	1234.2625
2260.93041	1226.9625
2263.82004	1228.0625
2266.70783	1224.8625
2269.59378	1219.2625
2272.4779	1222.6625
2275.36017	1214.3625
2278.24061	1209.5625
2281.11922	1212.4625
2283.996	1200.9625
2286.87094	1203.3625
2289.74405	1201.2625
2292.61534	1206.3625
2295.4848	1196.7625
2298.35243	1193.4625
2301.21824	1187.3625
2304.08223	1188.5625
2306.94439	1186.0625
2309.80474	1192.4625
2312.66327	1193.6625
2315.51999	1193.5625
2318.37489	1183.1625
2321.22797	1185.7625
2324.07925	1187.0625
2326.92871	1188.0625
2329.77637	1190.2625
2332.62222	1185.4625
2335.46626	1184.4625
2338.3085	1191.1625
2341.14893	1178.6625
2343.98756	1186.5625
2346.8244	1189.9625
2349.65943	1177.4625
2352.49267	1186.7625
2355.32411	1183.0625
2358.15376	1194.4625
2360.98161	1189.0625
2363.80768	1196.0625
2366.63195	1203.9625
2369.45444	1203.4625
2372.27514	1196.5625
2375.09405	1205.4625
2377.91118	1191.0625
2380.72652	1196.2625
2383.54009	1183.4625
2386.35187	1185.2625
2389.16188	1179.6625
2391.97011	1177.4625
2394.77657	1176.3625
2397.58125	1162.9625
2400.38416	1164.8625
2403.18529	1155.2625
2405.98466	1155.0625
2408.78226	1154.2625
2411.57809	1156.6625
2414.37216	1161.1625
2417.16446	1148.0625
2419.955	1153.5625
2422.74378	1159.5625
2425.5308	1153.2625
2428.31606	1160.9625
2431.09956	1159.3625
2433.88131	1156.4625
2436.6613	1150.4625
2439.43954	1148.1625
2442.21603	1153.1625
2444.99077	1160.0625
2447.76377	1159.0625
2450.53501	1156.1625
2453.30451	1158.7625
2456.07226	1159.7625
2458.83827	1157.4625
2461.60254	1148.5625
2464.36507	1155.0625
2467.12586	1150.9625
2469.88492	1146.1625
2472.64224	1154.5625
2475.39782	1156.9625
2478.15167	1160.1625
2480.90379	1167.0625
2483.65417	1167.9625
2486.40283	1172.6625
2489.14976	1172.5625
2491.89497	1173.9625
2494.63845	1174.3625
2497.3802	1180.1625
2500.12024	1173.0625
2502.85855	1160.5625
2505.59514	1169.9625
2508.33002	1156.1625
2511.06318	1147.3625
2513.79462	1144.3625
2516.52435	1133.6625
2519.25237	1132.8625
2521.97867	1127.9625
2524.70327	1128.0625
2527.42616	1121.8625
2530.14734	1124.4625
2532.86681	1125.2625
2535.58458	1129.5625
2538.30065	1124.4625
2541.01501	1119.5625
2543.72768	1132.0625
2546.43864	1124.1625
2549.14791	1126.3625
2551.85548	1127.6625
2554.56136	1124.8625
2557.26554	1125.5625
2559.96803	1123.9625
2562.66883	1124.9625
2565.36794	1120.4625
2568.06536	1136.4625
2570.7611	1121.0625
2573.45514	1115.8625
2576.14751	1110.7625
2578.83819	1109.2625
2581.52719	1108.2625
2584.21451	1095.0625
2586.90015	1107.2625
2589.58411	1099.9625
2592.2664	1108.5625
2594.94701	1107.4625
2597.62594	1094.8625
2600.30321	1101.8625
2602.9788	1104.5625
2605.65273	1107.0625
2608.32498	1100.8625
2610.99557	1102.8625
2613.66449	1099.3625
2616.33175	1099.8625
2618.99734	1101.8625
2621.66128	1097.8625
2624.32355	1104.7625
2626.98416	1089.7625
2629.64311	1095.9625
2632.30041	1100.7625
2634.95605	1096.1625
2637.61004	1088.5625
2640.26238	1089.6625
2642.91306	1088.8625
2645.56209	1086.2625
2648.20948	1084.0625
2650.85521	1084.2625
2653.4993	1090.7625
2656.14175	1089.8625
2658.78255	1089.8625
2661.42171	1082.1625
2664.05923	1093.3625
2666.6951	1099.7625
2669.32934	1095.6625
2671.96194	1093.6625
2674.59291	1105.7625
2677.22224	1101.5625
2679.84993	1093.5625
2682.476	1097.5625
2685.10043	1095.4625
2687.72324	1104.1625
2690.34441	1102.4625
2692.96396	1092.9625
2695.58188	1099.1625
2698.19818	1099.4625
2700.81285	1097.3625
2703.4259	1100.3625
2706.03733	1105.6625
2708.64714	1099.5625
2711.25533	1102.9625
2713.86191	1105.2625
2716.46687	1101.8625
2719.07021	1099.2625
2721.67194	1109.1625
2724.27206	1096.3625
2726.87057	1100.4625
2729.46747	1106.7625
2732.06276	1106.4625
2734.65644	1104.7625
2737.24852	1107.7625
2739.83899	1108.4625
2742.42786	1107.3625
2745.01513	1089.1625
2747.60079	1095.5625
2750.18486	1089.0625
2752.76733	1086.7625
2755.3482	1087.8625
2757.92747	1084.3625
2760.50515	1083.8625
2763.08123	1081.8625
2765.65573	1086.0625
2768.22863	1080.4625
2770.79994	1082.3625
2773.36967	1084.8625
2775.9378	1082.6625
2778.50435	1084.4625
2781.06932	1087.9625
2783.6327	1084.4625
2786.1945	1082.5625
2788.75471	1077.5625
2791.31335	1087.8625
2793.87041	1088.4625
2796.42589	1084.1625
2798.97979	1090.4625
2801.53212	1091.4625
2804.08288	1095.2625
2806.63206	1087.3625
2809.17967	1079.9625
2811.72571	1088.1625
2814.27018	1088.2625
2816.81308	1087.5625
2819.35442	1094.6625
2821.89419	1085.3625
2824.43239	1088.2625
2826.96904	1095.4625
2829.50412	1096.9625
2832.03763	1081.1625
2834.56959	1086.7625
2837.1	1085.5625
2839.62884	1088.7625
2842.15613	1079.9625
2844.68186	1090.8625
2847.20604	1092.1625
2849.72867	1088.3625
2852.24974	1102.1625
2854.76927	1108.6625
2857.28724	1104.9625
2859.80367	1112.0625
2862.31855	1115.7625
2864.83189	1111.3625
2867.34368	1117.2625
2869.85393	1114.5625
2872.36264	1110.5625
2874.8698	1119.8625
2877.37543	1106.7625
2879.87952	1106.5625
2882.38207	1111.0625
2884.88308	1113.9625
2887.38256	1110.3625
2889.88051	1107.6625
2892.37692	1112.1625
2894.8718	1110.2625
2897.36515	1120.6625
2899.85698	1117.3625
2902.34727	1115.9625
2904.83604	1117.5625
2907.32328	1124.4625
2909.809	1110.3625
2912.29319	1119.3625
2914.77587	1117.2625
2917.25702	1122.0625
2919.73665	1115.0625
2922.21476	1113.0625
2924.69136	1103.2625
2927.16644	1103.2625
2929.64	1103.3625
2932.11205	1113.7625
2934.58258	1097.7625
2937.05161	1102.6625
2939.51912	1104.9625
2941.98513	1099.5625
2944.44962	1113.3625
2946.91261	1103.5625
2949.37409	1102.5625
2951.83407	1107.9625
2954.29254	1110.0625
2956.74951	1112.5625
2959.20498	1116.7625
2961.65895	1111.1625
2964.11142	1121.4625
2966.56239	1112.4625
2969.01186	1114.1625
2971.45984	1124.8625
2973.90632	1106.7625
2976.35131	1110.1625
2978.7948	1112.2625
2981.23681	1107.2625
2983.67732	1105.5625
2986.11635	1108.3625
2988.55388	1100.4625
2990.98993	1106.1625
2993.4245	1103.9625
2995.85758	1107.2625
2998.28917	1112.0625
3000.71928	1112.1625
3003.14791	1104.8625
3005.57506	1113.1625
3008.00073	1117.2625
3010.42493	1122.9625
3012.84764	1118.4625
3015.26888	1120.5625
3017.68865	1114.8625
3020.10694	1115.0625
3022.52376	1120.4625
3024.9391	1122.5625
3027.35298	1121.3625
3029.76539	1123.7625
3032.17632	1121.8625
3034.5858	1115.5625
3036.9938	1112.8625
3039.40034	1123.1625
3041.80542	1125.5625
3044.20903	1130.1625
3046.61118	1121.4625
3049.01187	1125.4625
3051.4111	1129.2625
3053.80888	1132.3625
3056.20519	1132.6625
3058.60005	1138.1625
3060.99345	1138.4625
3063.3854	1141.6625
3065.7759	1142.7625
3068.16494	1141.1625
3070.55254	1131.2625
3072.93868	1146.9625
3075.32338	1137.3625
3077.70662	1145.9625
3080.08842	1144.3625
3082.46878	1146.5625
3084.84769	1149.6625
3087.22515	1154.2625
3089.60118	1168.3625
3091.97576	1165.3625
3094.3489	1167.9625
3096.72061	1175.9625
3099.09087	1182.5625
3101.4597	1189.7625
3103.82709	1192.2625
3106.19305	1209.4625
3108.55757	1205.1625
3110.92066	1219.2625
3113.28232	1216.8625
3115.64255	1224.2625
3118.00134	1226.8625
3120.35871	1238.9625
3122.71466	1235.4625
3125.06917	1237.8625
3127.42226	1243.4625
