Data from AgNPs_APTES_FTO_UA_100uM_CRN_0uM_R6G_10uM_Scan_RamanShift__41__11-27-31-283.txt Node

Date: Wed Jun 29 11:27:31 BST 2022
User: TCL
Spectrometer: QEP01345
Trigger mode: 4
Integration Time (sec): 7.000000E0
Scans to average: 10
Electric dark correction enabled: true
Nonlinearity correction enabled: false
Boxcar width: 0
XAxis mode: Raman Shifts
Number of Pixels in Spectrum: 1044
>>>>>Begin Spectral Data<<<<<
46.04893	1.3875
50.45542	0.6875
54.85868	0.5875
59.25871	0.5875
63.6555	38.4875
68.04907	41.0875
72.43941	45.1875
76.82654	46.6875
81.21044	50.9875
85.59113	51.0875
89.96862	53.7875
94.34289	56.8875
98.71396	60.2875
103.08183	60.7875
107.4465	59.4875
111.80798	61.3875
116.16626	58.6875
120.52136	58.8875
124.87327	59.2875
129.222	60.8875
133.56755	54.5875
137.90993	54.1875
142.24913	57.9875
146.58517	54.8875
150.91804	53.8875
155.24774	59.5875
159.57429	61.1875
163.89768	63.4875
168.21792	73.3875
172.53501	86.4875
176.84895	106.4875
181.15975	139.1875
185.46741	176.9875
189.77193	227.7875
194.07331	297.8875
198.37157	378.5875
202.6667	457.8875
206.9587	534.2875
211.24758	620.0875
215.53334	695.2875
219.81599	786.7875
224.09553	879.0875
228.37195	987.9875
232.64527	1098.7875
236.91549	1218.9875
241.18261	1318.5875
245.44663	1416.2875
249.70755	1492.8875
253.96539	1550.9875
258.22014	1608.3875
262.4718	1651.1875
266.72039	1672.6875
270.96589	1681.5875
275.20832	1664.8875
279.44768	1635.1875
283.68397	1597.6875
287.91719	1574.5875
292.14735	1558.0875
296.37445	1574.6875
300.59849	1609.7875
304.81948	1657.1875
309.03742	1676.7875
313.25231	1682.9875
317.46415	1641.3875
321.67296	1573.9875
325.87872	1518.6875
330.08145	1488.8875
334.28114	1498.1875
338.47781	1522.6875
342.67145	1546.2875
346.86207	1594.7875
351.04966	1661.5875
355.23424	1724.3875
359.4158	1782.8875
363.59435	1816.1875
367.76989	1840.9875
371.94243	1849.5875
376.11196	1848.2875
380.27849	1852.9875
384.44203	1855.0875
388.60257	1856.7875
392.76012	1851.1875
396.91468	1868.6875
401.06626	1894.4875
405.21485	1912.6875
409.36047	1895.5875
413.50311	1850.8875
417.64277	1775.3875
421.77947	1751.6875
425.9132	1734.0875
430.04396	1728.2875
434.17176	1740.8875
438.2966	1762.6875
442.41849	1785.7875
446.53742	1823.2875
450.6534	1858.4875
454.76644	1870.2875
458.87653	1882.0875
462.98368	1876.2875
467.08789	1868.4875
471.18916	1834.6875
475.2875	1825.0875
479.38291	1812.7875
483.4754	1800.4875
487.56496	1798.3875
491.6516	1809.2875
495.73531	1822.0875
499.81612	1813.3875
503.89401	1818.8875
507.96899	1821.1875
512.04106	1830.9875
516.11023	1853.8875
520.1765	1871.4875
524.23987	1875.3875
528.30034	1878.2875
532.35792	1867.1875
536.41261	1845.7875
540.46441	1816.2875
544.51333	1801.9875
548.55936	1799.3875
552.60252	1815.9875
556.64279	1840.2875
560.6802	1859.9875
564.71473	1874.1875
568.7464	1901.3875
572.7752	1926.6875
576.80114	1887.3875
580.82422	1841.9875
584.84444	1827.6875
588.86181	1875.8875
592.87633	1900.9875
596.888	1931.3875
600.89682	1959.5875
604.9028	2099.0875
608.90594	2486.4875
612.90624	2959.5875
616.90371	2855.5875
620.89834	2284.7875
624.89015	2025.2875
628.87913	2008.5875
632.86528	2071.8875
636.84862	2105.5875
640.82913	2081.1875
644.80683	2015.9875
648.78172	1945.1875
652.75379	1932.9875
656.72306	1960.6875
660.68952	1996.9875
664.65319	1979.6875
668.61405	1927.0875
672.57211	1918.7875
676.52738	1930.1875
680.47986	1952.0875
684.42955	1988.5875
688.37646	1998.2875
692.32058	2005.1875
696.26192	1984.0875
700.20048	1962.5875
704.13626	1954.4875
708.06928	1929.0875
711.99952	1909.9875
715.927	1904.9875
719.85171	1908.9875
723.77365	1912.3875
727.69284	1918.1875
731.60928	1904.0875
735.52295	1898.5875
739.43388	1897.7875
743.34206	1893.4875
747.24749	1885.5875
751.15017	1895.0875
755.05012	1871.3875
758.94733	1943.5875
762.8418	2080.1875
766.73354	2302.1875
770.62254	2527.2875
774.50882	2660.2875
778.39237	2593.1875
782.27321	2364.4875
786.15132	2136.6875
790.02671	2007.3875
793.89938	1942.9875
797.76935	1916.1875
801.6366	1909.1875
805.50115	1920.2875
809.36299	1925.9875
813.22213	1931.1875
817.07857	1924.8875
820.93231	1903.8875
824.78336	1874.6875
828.63172	1869.5875
832.47738	1859.6875
836.32036	1859.7875
840.16066	1867.2875
843.99827	1855.1875
847.8332	1863.0875
851.66546	1853.3875
855.49504	1857.9875
859.32195	1859.1875
863.1462	1855.3875
866.96777	1866.2875
870.78668	1866.9875
874.60293	1866.9875
878.41652	1872.3875
882.22745	1908.7875
886.03573	1919.1875
889.84136	1915.2875
893.64433	1907.8875
897.44466	1897.2875
901.24235	1882.4875
905.0374	1852.8875
908.8298	1834.3875
912.61957	1830.5875
916.40671	1818.7875
920.19121	1828.0875
923.97308	1849.2875
927.75233	1864.4875
931.52895	1867.3875
935.30295	1873.0875
939.07433	1844.7875
942.84309	1811.4875
946.60924	1805.9875
950.37278	1807.2875
954.13371	1788.5875
957.89203	1796.5875
961.64774	1780.8875
965.40086	1781.3875
969.15137	1768.7875
972.89929	1764.8875
976.64461	1761.6875
980.38733	1765.1875
984.12747	1760.8875
987.86502	1763.1875
991.59999	1768.6875
995.33237	1775.7875
999.06217	1807.1875
1002.78939	1838.6875
1006.51404	1869.0875
1010.23611	1891.0875
1013.95561	1905.5875
1017.67255	1916.4875
1021.38692	1912.7875
1025.09872	1893.1875
1028.80796	1882.4875
1032.51465	1880.6875
1036.21877	1879.9875
1039.92035	1892.0875
1043.61937	1883.2875
1047.31584	1885.9875
1051.00976	1867.3875
1054.70114	1863.0875
1058.38998	1863.3875
1062.07627	1884.5875
1065.76003	1885.0875
1069.44126	1899.5875
1073.11995	1924.4875
1076.79611	1950.4875
1080.46974	1974.1875
1084.14085	1996.5875
1087.80943	2014.5875
1091.47549	1998.8875
1095.13903	1976.9875
1098.80005	1944.5875
1102.45857	1914.7875
1106.11456	1913.4875
1109.76805	1921.4875
1113.41903	1955.4875
1117.06751	2006.0875
1120.71348	2086.0875
1124.35696	2174.0875
1127.99793	2251.4875
1131.63641	2284.2875
1135.2724	2256.0875
1138.90589	2197.0875
1142.5369	2125.6875
1146.16542	2074.4875
1149.79145	2008.9875
1153.415	1965.4875
1157.03607	1948.9875
1160.65467	1953.9875
1164.27079	1974.5875
1167.88443	2047.6875
1171.49561	2147.2875
1175.10432	2302.1875
1178.71056	2522.0875
1182.31434	2717.5875
1185.91565	2785.5875
1189.51451	2726.4875
1193.11091	2605.5875
1196.70485	2488.6875
1200.29634	2413.2875
1203.88538	2336.3875
1207.47197	2242.3875
1211.05612	2155.9875
1214.63782	2083.4875
1218.21708	2058.8875
1221.79391	2039.3875
1225.36829	2032.3875
1228.94024	2031.9875
1232.50976	2021.8875
1236.07685	2004.8875
1239.6415	2007.9875
1243.20374	2017.2875
1246.76355	2014.8875
1250.32093	2038.9875
1253.8759	2054.3875
1257.42845	2097.5875
1260.97859	2137.1875
1264.52631	2201.7875
1268.07163	2253.0875
1271.61453	2293.4875
1275.15503	2325.9875
1278.69312	2340.5875
1282.22882	2344.9875
1285.76211	2372.8875
1289.29301	2445.9875
1292.82151	2511.9875
1296.34761	2585.4875
1299.87133	2682.0875
1303.39266	2850.6875
1306.9116	3130.3875
1310.42815	3389.1875
1313.94233	3516.0875
1317.45412	3384.2875
1320.96354	3152.6875
1324.47058	2913.6875
1327.97525	2709.1875
1331.47754	2608.9875
1334.97747	2561.9875
1338.47502	2580.1875
1341.97022	2631.4875
1345.46305	2740.2875
1348.95352	2930.4875
1352.44163	3152.6875
1355.92738	3442.5875
1359.41078	3862.8875
1362.89183	4270.6875
1366.37053	4162.2875
1369.84688	3602.7875
1373.32088	3056.9875
1376.79254	2742.5875
1380.26186	2585.4875
1383.72883	2471.6875
1387.19347	2392.3875
1390.65578	2309.9875
1394.11575	2243.2875
1397.57339	2197.3875
1401.0287	2174.5875
1404.48168	2166.3875
1407.93234	2140.4875
1411.38068	2132.3875
1414.82669	2122.8875
1418.27039	2116.7875
1421.71177	2092.4875
1425.15083	2077.6875
1428.58758	2073.9875
1432.02203	2082.8875
1435.45416	2128.9875
1438.88399	2135.9875
1442.31151	2125.0875
1445.73673	2139.9875
1449.15965	2143.8875
1452.58027	2156.5875
1455.9986	2157.3875
1459.41463	2164.3875
1462.82837	2186.0875
1466.23982	2222.7875
1469.64898	2255.5875
1473.05586	2275.1875
1476.46045	2276.3875
1479.86276	2284.3875
1483.26279	2299.7875
1486.66054	2312.9875
1490.05602	2350.3875
1493.44922	2418.3875
1496.84016	2568.3875
1500.22882	2792.6875
1503.61521	3095.1875
1506.99934	3466.0875
1510.38121	3765.1875
1513.76081	3815.4875
1517.13816	3570.0875
1520.51324	3161.9875
1523.88607	2787.0875
1527.25665	2544.0875
1530.62498	2419.1875
1533.99105	2350.3875
1537.35488	2298.3875
1540.71647	2263.8875
1544.07581	2258.0875
1547.4329	2252.0875
1550.78776	2250.8875
1554.14038	2261.6875
1557.49077	2290.2875
1560.83892	2325.6875
1564.18484	2376.0875
1567.52853	2457.6875
1570.86999	2521.1875
1574.20922	2565.1875
1577.54624	2560.5875
1580.88103	2468.8875
1584.2136	2333.4875
1587.54395	2236.6875
1590.87208	2225.5875
1594.19801	2269.4875
1597.52172	2380.1875
1600.84321	2440.8875
1604.16251	2385.4875
1607.47959	2295.6875
1610.79447	2193.4875
1614.10715	2081.5875
1617.41763	2017.2875
1620.7259	1962.1875
1624.03199	1935.5875
1627.33587	1922.8875
1630.63757	1948.8875
1633.93707	1991.4875
1637.23439	2079.3875
1640.52951	2239.6875
1643.82246	2443.1875
1647.11321	2723.7875
1650.40179	2881.4875
1653.68819	2828.6875
1656.97241	2548.4875
1660.25446	2237.3875
1663.53433	2018.6875
1666.81203	1896.6875
1670.08756	1815.0875
1673.36092	1768.4875
1676.63211	1750.7875
1679.90115	1718.0875
1683.16801	1697.7875
1686.43272	1674.6875
1689.69527	1656.6875
1692.95567	1642.9875
1696.2139	1614.5875
1699.46999	1584.1875
1702.72392	1567.3875
1705.97571	1558.6875
1709.22535	1550.4875
1712.47284	1536.6875
1715.71819	1526.3875
1718.96139	1511.9875
1722.20246	1500.1875
1725.44139	1495.2875
1728.67818	1474.0875
1731.91284	1454.6875
1735.14537	1444.6875
1738.37576	1443.8875
1741.60403	1424.4875
1744.83017	1413.1875
1748.05418	1400.5875
1751.27607	1400.5875
1754.49584	1389.8875
1757.71349	1376.3875
1760.92903	1377.9875
1764.14244	1372.6875
1767.35375	1358.2875
1770.56294	1363.7875
1773.77002	1361.8875
1776.97499	1354.8875
1780.17785	1355.3875
1783.37861	1354.0875
1786.57727	1348.8875
1789.77382	1346.9875
1792.96828	1351.9875
1796.16064	1346.9875
1799.3509	1337.5875
1802.53907	1346.2875
1805.72514	1339.8875
1808.90913	1339.5875
1812.09102	1318.7875
1815.27083	1328.8875
1818.44856	1321.7875
1821.6242	1318.7875
1824.79776	1305.7875
1827.96924	1310.6875
1831.13864	1306.4875
1834.30597	1295.9875
1837.47122	1302.3875
1840.6344	1290.6875
1843.7955	1301.5875
1846.95454	1294.7875
1850.11151	1299.6875
1853.26642	1294.8875
1856.41926	1283.5875
1859.57004	1293.2875
1862.71876	1285.0875
1865.86542	1285.3875
1869.01003	1288.9875
1872.15258	1295.4875
1875.29308	1280.3875
1878.43152	1273.8875
1881.56792	1280.9875
1884.70227	1272.7875
1887.83457	1276.2875
1890.96482	1275.1875
1894.09304	1267.7875
1897.21921	1272.4875
1900.34335	1260.6875
1903.46544	1259.8875
1906.58551	1259.8875
1909.70353	1264.9875
1912.81953	1260.3875
1915.93349	1261.4875
1919.04543	1270.4875
1922.15534	1258.4875
1925.26322	1254.0875
1928.36908	1253.1875
1931.47292	1253.3875
1934.57473	1245.4875
1937.67453	1242.5875
1940.77232	1237.9875
1943.86808	1231.5875
1946.96184	1231.4875
1950.05358	1224.9875
1953.14331	1220.6875
1956.23103	1222.3875
1959.31675	1211.2875
1962.40046	1209.0875
1965.48217	1210.4875
1968.56188	1197.1875
1971.63959	1205.9875
1974.7153	1202.4875
1977.78901	1196.6875
1980.86073	1193.7875
1983.93046	1187.3875
1986.99819	1185.5875
1990.06394	1174.8875
1993.1277	1175.9875
1996.18947	1170.9875
1999.24925	1160.8875
2002.30706	1158.0875
2005.36288	1157.5875
2008.41672	1155.3875
2011.46859	1156.5875
2014.51848	1149.9875
2017.56639	1147.6875
2020.61233	1145.9875
2023.6563	1143.8875
2026.6983	1138.9875
2029.73833	1136.6875
2032.7764	1127.4875
2035.8125	1129.1875
2038.84664	1127.1875
2041.87881	1127.6875
2044.90903	1127.6875
2047.93729	1128.2875
2050.96359	1120.9875
2053.98794	1117.2875
2057.01034	1131.1875
2060.03078	1115.3875
2063.04927	1113.3875
2066.06582	1122.5875
2069.08042	1111.9875
2072.09307	1116.8875
2075.10378	1120.4875
2078.11255	1118.2875
2081.11938	1115.8875
2084.12426	1114.2875
2087.12722	1124.7875
2090.12824	1116.0875
2093.12732	1121.5875
2096.12447	1112.7875
2099.11969	1113.4875
2102.11299	1115.4875
2105.10435	1125.2875
2108.09379	1111.2875
2111.08131	1128.0875
2114.0669	1122.8875
2117.05057	1127.2875
2120.03233	1127.4875
2123.01216	1125.1875
2125.99008	1114.5875
2128.96609	1123.6875
2131.94018	1123.9875
2134.91236	1117.6875
2137.88263	1123.7875
2140.851	1118.4875
2143.81746	1126.0875
2146.78201	1116.7875
2149.74466	1121.7875
2152.7054	1111.2875
2155.66425	1122.5875
2158.6212	1119.4875
2161.57625	1113.2875
2164.52941	1113.5875
2167.48067	1105.6875
2170.43004	1107.5875
2173.37752	1113.6875
2176.32311	1106.0875
2179.26681	1114.2875
2182.20863	1109.2875
2185.14856	1116.8875
2188.08661	1122.4875
2191.02278	1118.2875
2193.95707	1131.6875
2196.88948	1115.1875
2199.82001	1107.0875
2202.74867	1101.5875
2205.67545	1097.6875
2208.60037	1102.8875
2211.52341	1102.1875
2214.44458	1097.4875
2217.36388	1092.8875
2220.28132	1085.2875
2223.1969	1090.3875
2226.11061	1085.9875
2229.02246	1080.2875
2231.93245	1091.6875
2234.84058	1082.3875
2237.74686	1083.5875
2240.65128	1079.8875
2243.55385	1076.7875
2246.45456	1074.9875
2249.35343	1080.5875
2252.25044	1066.8875
2255.14561	1075.9875
2258.03893	1071.9875
2260.93041	1061.8875
2263.82004	1062.8875
2266.70783	1061.1875
2269.59378	1063.7875
2272.4779	1060.0875
2275.36017	1051.8875
2278.24061	1054.8875
2281.11922	1051.2875
2283.996	1046.1875
2286.87094	1047.3875
2289.74405	1049.7875
2292.61534	1054.4875
2295.4848	1042.9875
2298.35243	1040.5875
2301.21824	1043.6875
2304.08223	1046.0875
2306.94439	1038.2875
2309.80474	1039.6875
2312.66327	1040.8875
2315.51999	1039.1875
2318.37489	1038.4875
2321.22797	1028.1875
2324.07925	1031.5875
2326.92871	1039.5875
2329.77637	1044.3875
2332.62222	1047.3875
2335.46626	1033.7875
2338.3085	1026.2875
2341.14893	1017.3875
2343.98756	1028.2875
2346.8244	1023.8875
2349.65943	1018.2875
2352.49267	1030.7875
2355.32411	1019.0875
2358.15376	1019.4875
2360.98161	1020.8875
2363.80768	1029.6875
2366.63195	1024.4875
2369.45444	1031.5875
2372.27514	1025.1875
2375.09405	1025.7875
2377.91118	1032.1875
2380.72652	1021.6875
2383.54009	1017.1875
2386.35187	1021.4875
2389.16188	1016.4875
2391.97011	1005.5875
2394.77657	1001.1875
2397.58125	993.3875
2400.38416	1008.9875
2403.18529	995.2875
2405.98466	994.8875
2408.78226	995.3875
2411.57809	993.1875
2414.37216	999.8875
2417.16446	994.6875
2419.955	994.0875
2422.74378	988.6875
2425.5308	990.4875
2428.31606	1000.3875
2431.09956	992.7875
2433.88131	987.6875
2436.6613	990.6875
2439.43954	988.4875
2442.21603	983.7875
2444.99077	981.4875
2447.76377	991.5875
2450.53501	989.5875
2453.30451	987.2875
2456.07226	985.3875
2458.83827	984.2875
2461.60254	985.1875
2464.36507	976.8875
2467.12586	984.0875
2469.88492	984.7875
2472.64224	978.1875
2475.39782	971.4875
2478.15167	975.9875
2480.90379	986.6875
2483.65417	983.9875
2486.40283	979.8875
2489.14976	981.5875
2491.89497	986.3875
2494.63845	981.9875
2497.3802	980.9875
2500.12024	971.8875
2502.85855	973.8875
2505.59514	979.7875
2508.33002	978.0875
2511.06318	968.7875
2513.79462	971.8875
2516.52435	963.8875
2519.25237	961.1875
2521.97867	959.2875
2524.70327	964.0875
2527.42616	961.3875
2530.14734	964.7875
2532.86681	955.4875
2535.58458	960.0875
2538.30065	953.7875
2541.01501	959.9875
2543.72768	961.2875
2546.43864	949.5875
2549.14791	948.0875
2551.85548	959.2875
2554.56136	951.0875
2557.26554	949.5875
2559.96803	948.2875
2562.66883	944.0875
2565.36794	950.2875
2568.06536	942.4875
2570.7611	934.9875
2573.45514	941.4875
2576.14751	945.8875
2578.83819	939.0875
2581.52719	933.2875
2584.21451	933.0875
2586.90015	933.6875
2589.58411	929.5875
2592.2664	938.6875
2594.94701	933.5875
2597.62594	931.8875
2600.30321	927.5875
2602.9788	928.1875
2605.65273	925.6875
2608.32498	920.9875
2610.99557	922.7875
2613.66449	926.5875
2616.33175	921.6875
2618.99734	924.8875
2621.66128	916.8875
2624.32355	913.8875
2626.98416	923.3875
2629.64311	914.8875
2632.30041	923.9875
2634.95605	915.5875
2637.61004	909.0875
2640.26238	914.7875
2642.91306	911.9875
2645.56209	908.3875
2648.20948	908.4875
2650.85521	909.3875
2653.4993	909.1875
2656.14175	913.2875
2658.78255	917.0875
2661.42171	911.4875
2664.05923	909.8875
2666.6951	908.3875
2669.32934	918.2875
2671.96194	909.6875
2674.59291	919.2875
2677.22224	910.8875
2679.84993	909.3875
2682.476	911.2875
2685.10043	908.5875
2687.72324	911.8875
2690.34441	912.9875
2692.96396	913.7875
2695.58188	908.6875
2698.19818	913.9875
2700.81285	912.3875
2703.4259	903.6875
2706.03733	885.6875
2708.64714	895.4875
2711.25533	898.8875
2713.86191	905.0875
2716.46687	914.5875
2719.07021	915.6875
2721.67194	908.8875
2724.27206	909.1875
2726.87057	912.7875
2729.46747	916.1875
2732.06276	916.5875
2734.65644	916.0875
2737.24852	914.2875
2739.83899	914.7875
2742.42786	917.6875
2745.01513	902.9875
2747.60079	919.2875
2750.18486	910.0875
2752.76733	905.9875
2755.3482	910.9875
2757.92747	902.9875
2760.50515	906.2875
2763.08123	895.6875
2765.65573	897.5875
2768.22863	906.0875
2770.79994	900.1875
2773.36967	900.5875
2775.9378	902.1875
2778.50435	907.1875
2781.06932	904.8875
2783.6327	891.6875
2786.1945	903.1875
2788.75471	900.4875
2791.31335	901.3875
2793.87041	903.5875
2796.42589	905.5875
2798.97979	909.7875
2801.53212	902.5875
2804.08288	893.8875
2806.63206	896.2875
2809.17967	893.0875
2811.72571	880.3875
2814.27018	885.1875
2816.81308	885.3875
2819.35442	887.2875
2821.89419	881.8875
2824.43239	888.1875
2826.96904	883.8875
2829.50412	885.1875
2832.03763	886.4875
2834.56959	887.0875
2837.1	887.5875
2839.62884	883.3875
2842.15613	879.5875
2844.68186	885.3875
2847.20604	882.4875
2849.72867	889.2875
2852.24974	893.8875
2854.76927	882.8875
2857.28724	886.3875
2859.80367	887.3875
2862.31855	887.6875
2864.83189	891.6875
2867.34368	896.7875
2869.85393	885.4875
2872.36264	894.9875
2874.8698	896.0875
2877.37543	892.6875
2879.87952	891.7875
2882.38207	887.3875
2884.88308	899.4875
2887.38256	897.1875
2889.88051	892.6875
2892.37692	899.1875
2894.8718	901.4875
2897.36515	906.5875
2899.85698	901.1875
2902.34727	902.8875
2904.83604	895.9875
2907.32328	907.3875
2909.809	912.2875
2912.29319	915.0875
2914.77587	918.9875
2917.25702	920.2875
2919.73665	910.3875
2922.21476	911.8875
2924.69136	914.5875
2927.16644	921.1875
2929.64	916.2875
2932.11205	916.4875
2934.58258	914.4875
2937.05161	916.1875
2939.51912	908.6875
2941.98513	915.0875
2944.44962	914.4875
2946.91261	906.6875
2949.37409	911.4875
2951.83407	909.3875
2954.29254	915.5875
2956.74951	916.3875
2959.20498	908.2875
2961.65895	911.5875
2964.11142	915.3875
2966.56239	910.4875
2969.01186	913.4875
2971.45984	913.2875
2973.90632	901.6875
2976.35131	912.5875
2978.7948	907.3875
2981.23681	915.9875
2983.67732	905.3875
2986.11635	902.6875
2988.55388	904.1875
2990.98993	905.6875
2993.4245	897.3875
2995.85758	902.0875
2998.28917	911.1875
3000.71928	903.8875
3003.14791	908.7875
3005.57506	906.1875
3008.00073	910.6875
3010.42493	908.5875
3012.84764	903.9875
3015.26888	911.3875
3017.68865	913.2875
3020.10694	914.1875
3022.52376	913.5875
3024.9391	915.3875
3027.35298	918.0875
3029.76539	921.8875
3032.17632	919.6875
3034.5858	914.4875
3036.9938	926.6875
3039.40034	926.3875
3041.80542	932.4875
3044.20903	926.4875
3046.61118	933.5875
3049.01187	930.1875
3051.4111	930.6875
3053.80888	941.9875
3056.20519	947.8875
3058.60005	951.6875
3060.99345	950.0875
3063.3854	935.2875
3065.7759	951.0875
3068.16494	949.5875
3070.55254	944.4875
3072.93868	952.5875
3075.32338	953.3875
3077.70662	956.0875
3080.08842	957.6875
3082.46878	965.9875
3084.84769	969.5875
3087.22515	971.8875
3089.60118	982.8875
3091.97576	988.2875
3094.3489	982.0875
3096.72061	990.4875
3099.09087	993.5875
3101.4597	999.1875
3103.82709	1000.1875
3106.19305	1013.0875
3108.55757	1015.7875
3110.92066	1020.7875
3113.28232	1032.2875
3115.64255	1032.4875
3118.00134	1045.6875
3120.35871	1040.8875
3122.71466	1044.3875
3125.06917	1048.3875
3127.42226	1055.0875
3129.77393	1067.0875
3132.12417	1066.5875
3134.47299	1069.1875
3136.82039	1080.6875
3139.16636	1089.8875
3141.51092	1093.0875
3143.85406	1100.4875
3146.19579	1104.0875
3148.53609	1116.0875
3150.87499	1120.4875
3153.21246	1130.7875
3155.54853	1145.8875
3157.88318	1142.5875
