Data from AgNPs_APTES_FTO_UA_100uM_CRN_0uM_R6G_10uM_Scan_RamanShift__30__11-14-41-267.txt Node

Date: Wed Jun 29 11:14:41 BST 2022
User: TCL
Spectrometer: QEP01345
Trigger mode: 4
Integration Time (sec): 7.000000E0
Scans to average: 10
Electric dark correction enabled: true
Nonlinearity correction enabled: false
Boxcar width: 0
XAxis mode: Raman Shifts
Number of Pixels in Spectrum: 1044
>>>>>Begin Spectral Data<<<<<
46.04893	-0.4625
50.45542	1.1375
54.85868	0.3375
59.25871	1.8375
63.6555	33.8375
68.04907	36.2375
72.43941	39.2375
76.82654	40.2375
81.21044	43.1375
85.59113	46.1375
89.96862	48.9375
94.34289	48.9375
98.71396	52.3375
103.08183	53.9375
107.4465	51.0375
111.80798	55.6375
116.16626	52.8375
120.52136	52.1375
124.87327	50.0375
129.222	50.2375
133.56755	49.2375
137.90993	52.1375
142.24913	46.6375
146.58517	48.8375
150.91804	46.1375
155.24774	50.9375
159.57429	50.6375
163.89768	52.4375
168.21792	55.6375
172.53501	66.9375
176.84895	77.2375
181.15975	96.9375
185.46741	124.4375
189.77193	160.4375
194.07331	206.4375
198.37157	256.7375
202.6667	309.9375
206.9587	364.4375
211.24758	415.3375
215.53334	473.9375
219.81599	530.7375
224.09553	593.4375
228.37195	657.5375
232.64527	732.1375
236.91549	815.5375
241.18261	894.1375
245.44663	977.3375
249.70755	1050.2375
253.96539	1099.5375
258.22014	1141.6375
262.4718	1170.4375
266.72039	1171.5375
270.96589	1161.1375
275.20832	1134.5375
279.44768	1101.1375
283.68397	1067.7375
287.91719	1028.2375
292.14735	997.5375
296.37445	961.4375
300.59849	942.0375
304.81948	932.6375
309.03742	920.2375
313.25231	907.0375
317.46415	902.0375
321.67296	886.3375
325.87872	881.0375
330.08145	883.3375
334.28114	874.4375
338.47781	889.1375
342.67145	887.7375
346.86207	900.8375
351.04966	910.3375
355.23424	922.6375
359.4158	935.9375
363.59435	942.3375
367.76989	956.8375
371.94243	949.9375
376.11196	968.6375
380.27849	971.2375
384.44203	974.1375
388.60257	975.6375
392.76012	986.0375
396.91468	988.8375
401.06626	1003.9375
405.21485	1007.2375
409.36047	1013.7375
413.50311	1011.2375
417.64277	1000.5375
421.77947	1007.7375
425.9132	1002.4375
430.04396	1001.1375
434.17176	1001.3375
438.2966	1023.6375
442.41849	1032.4375
446.53742	1032.1375
450.6534	1043.4375
454.76644	1051.6375
458.87653	1056.8375
462.98368	1059.9375
467.08789	1065.9375
471.18916	1071.0375
475.2875	1069.5375
479.38291	1070.4375
483.4754	1078.3375
487.56496	1079.2375
491.6516	1082.0375
495.73531	1088.3375
499.81612	1080.8375
503.89401	1084.5375
507.96899	1077.5375
512.04106	1076.9375
516.11023	1068.5375
520.1765	1067.2375
524.23987	1061.0375
528.30034	1052.6375
532.35792	1063.6375
536.41261	1052.9375
540.46441	1050.2375
544.51333	1049.1375
548.55936	1053.5375
552.60252	1056.6375
556.64279	1057.9375
560.6802	1060.5375
564.71473	1062.7375
568.7464	1061.9375
572.7752	1076.2375
576.80114	1065.4375
580.82422	1069.1375
584.84444	1058.0375
588.86181	1060.0375
592.87633	1072.7375
596.888	1072.1375
600.89682	1076.1375
604.9028	1103.1375
608.90594	1145.6375
612.90624	1194.5375
616.90371	1192.4375
620.89834	1137.7375
624.89015	1110.2375
628.87913	1108.7375
632.86528	1114.0375
636.84862	1114.5375
640.82913	1113.1375
644.80683	1119.1375
648.78172	1110.7375
652.75379	1118.7375
656.72306	1133.5375
660.68952	1127.2375
664.65319	1144.9375
668.61405	1145.8375
672.57211	1161.1375
676.52738	1184.1375
680.47986	1199.8375
684.42955	1226.8375
688.37646	1244.5375
692.32058	1243.2375
696.26192	1223.3375
700.20048	1210.0375
704.13626	1182.4375
708.06928	1171.9375
711.99952	1174.8375
715.927	1169.9375
719.85171	1157.7375
723.77365	1143.9375
727.69284	1148.1375
731.60928	1143.3375
735.52295	1135.5375
739.43388	1130.4375
743.34206	1139.2375
747.24749	1134.5375
751.15017	1142.6375
755.05012	1103.8375
758.94733	1130.8375
762.8418	1156.2375
766.73354	1183.8375
770.62254	1200.4375
774.50882	1224.0375
778.39237	1217.2375
782.27321	1195.2375
786.15132	1179.0375
790.02671	1160.5375
793.89938	1154.7375
797.76935	1148.2375
801.6366	1155.5375
805.50115	1148.7375
809.36299	1157.9375
813.22213	1153.2375
817.07857	1148.8375
820.93231	1138.9375
824.78336	1136.1375
828.63172	1131.2375
832.47738	1122.0375
836.32036	1114.6375
840.16066	1123.0375
843.99827	1126.0375
847.8332	1123.7375
851.66546	1121.8375
855.49504	1124.5375
859.32195	1127.2375
863.1462	1123.8375
866.96777	1113.9375
870.78668	1115.5375
874.60293	1111.8375
878.41652	1120.5375
882.22745	1118.8375
886.03573	1120.9375
889.84136	1129.8375
893.64433	1137.2375
897.44466	1137.2375
901.24235	1140.4375
905.0374	1149.9375
908.8298	1150.1375
912.61957	1149.6375
916.40671	1158.3375
920.19121	1173.3375
923.97308	1163.5375
927.75233	1166.4375
931.52895	1161.8375
935.30295	1147.5375
939.07433	1153.9375
942.84309	1138.2375
946.60924	1136.6375
950.37278	1135.3375
954.13371	1131.0375
957.89203	1134.4375
961.64774	1124.6375
965.40086	1116.7375
969.15137	1109.7375
972.89929	1117.8375
976.64461	1113.3375
980.38733	1116.9375
984.12747	1105.2375
987.86502	1099.0375
991.59999	1108.8375
995.33237	1109.3375
999.06217	1116.6375
1002.78939	1114.8375
1006.51404	1119.2375
1010.23611	1120.7375
1013.95561	1123.8375
1017.67255	1124.6375
1021.38692	1126.9375
1025.09872	1133.1375
1028.80796	1131.5375
1032.51465	1125.6375
1036.21877	1123.9375
1039.92035	1133.5375
1043.61937	1131.9375
1047.31584	1137.6375
1051.00976	1137.1375
1054.70114	1136.8375
1058.38998	1136.2375
1062.07627	1134.3375
1065.76003	1133.5375
1069.44126	1136.5375
1073.11995	1139.9375
1076.79611	1139.2375
1080.46974	1135.0375
1084.14085	1130.1375
1087.80943	1133.4375
1091.47549	1135.9375
1095.13903	1125.9375
1098.80005	1121.9375
1102.45857	1110.3375
1106.11456	1109.4375
1109.76805	1120.7375
1113.41903	1116.3375
1117.06751	1128.0375
1120.71348	1134.6375
1124.35696	1144.6375
1127.99793	1157.3375
1131.63641	1168.9375
1135.2724	1175.1375
1138.90589	1175.1375
1142.5369	1174.0375
1146.16542	1167.5375
1149.79145	1159.5375
1153.415	1154.2375
1157.03607	1153.4375
1160.65467	1145.0375
1164.27079	1138.3375
1167.88443	1147.7375
1171.49561	1155.0375
1175.10432	1193.6375
1178.71056	1200.1375
1182.31434	1211.5375
1185.91565	1217.1375
1189.51451	1218.4375
1193.11091	1206.6375
1196.70485	1196.9375
1200.29634	1191.0375
1203.88538	1178.7375
1207.47197	1170.8375
1211.05612	1178.3375
1214.63782	1169.2375
1218.21708	1170.1375
1221.79391	1169.0375
1225.36829	1171.3375
1228.94024	1167.7375
1232.50976	1173.6375
1236.07685	1172.5375
1239.6415	1171.5375
1243.20374	1171.9375
1246.76355	1174.8375
1250.32093	1175.7375
1253.8759	1170.0375
1257.42845	1171.8375
1260.97859	1172.3375
1264.52631	1180.1375
1268.07163	1200.3375
1271.61453	1205.6375
1275.15503	1210.1375
1278.69312	1213.4375
1282.22882	1213.9375
1285.76211	1226.5375
1289.29301	1238.6375
1292.82151	1253.3375
1296.34761	1261.7375
1299.87133	1284.6375
1303.39266	1311.8375
1306.9116	1344.1375
1310.42815	1368.0375
1313.94233	1388.7375
1317.45412	1374.7375
1320.96354	1354.3375
1324.47058	1334.0375
1327.97525	1320.7375
1331.47754	1324.0375
1334.97747	1319.2375
1338.47502	1328.7375
1341.97022	1344.0375
1345.46305	1362.1375
1348.95352	1383.3375
1352.44163	1410.1375
1355.92738	1437.0375
1359.41078	1466.5375
1362.89183	1508.4375
1366.37053	1509.4375
1369.84688	1450.9375
1373.32088	1390.4375
1376.79254	1349.3375
1380.26186	1319.3375
1383.72883	1300.7375
1387.19347	1288.2375
1390.65578	1268.4375
1394.11575	1260.6375
1397.57339	1243.9375
1401.0287	1248.1375
1404.48168	1232.5375
1407.93234	1230.7375
1411.38068	1216.0375
1414.82669	1207.0375
1418.27039	1201.3375
1421.71177	1205.3375
1425.15083	1180.1375
1428.58758	1174.5375
1432.02203	1161.5375
1435.45416	1162.9375
1438.88399	1161.3375
1442.31151	1149.1375
1445.73673	1142.3375
1449.15965	1139.7375
1452.58027	1145.3375
1455.9986	1148.7375
1459.41463	1138.0375
1462.82837	1149.9375
1466.23982	1152.3375
1469.64898	1148.4375
1473.05586	1163.0375
1476.46045	1162.4375
1479.86276	1167.0375
1483.26279	1171.4375
1486.66054	1179.2375
1490.05602	1184.7375
1493.44922	1188.7375
1496.84016	1204.9375
1500.22882	1237.4375
1503.61521	1261.2375
1506.99934	1289.9375
1510.38121	1330.8375
1513.76081	1335.1375
1517.13816	1303.1375
1520.51324	1268.9375
1523.88607	1235.9375
1527.25665	1220.0375
1530.62498	1206.2375
1533.99105	1206.7375
1537.35488	1201.1375
1540.71647	1200.8375
1544.07581	1209.4375
1547.4329	1208.8375
1550.78776	1219.5375
1554.14038	1229.4375
1557.49077	1231.1375
1560.83892	1240.6375
1564.18484	1237.1375
1567.52853	1248.7375
1570.86999	1250.8375
1574.20922	1258.3375
1577.54624	1262.0375
1580.88103	1244.5375
1584.2136	1233.4375
1587.54395	1219.9375
1590.87208	1214.3375
1594.19801	1207.4375
1597.52172	1198.4375
1600.84321	1201.0375
1604.16251	1184.2375
1607.47959	1181.6375
1610.79447	1170.2375
1614.10715	1156.6375
1617.41763	1150.9375
1620.7259	1135.7375
1624.03199	1129.1375
1627.33587	1129.0375
1630.63757	1108.4375
1633.93707	1106.7375
1637.23439	1103.4375
1640.52951	1112.9375
1643.82246	1111.9375
1647.11321	1119.7375
1650.40179	1123.3375
1653.68819	1120.9375
1656.97241	1081.4375
1660.25446	1046.0375
1663.53433	1016.6375
1666.81203	1003.0375
1670.08756	997.0375
1673.36092	996.9375
1676.63211	998.4375
1679.90115	993.4375
1683.16801	985.2375
1686.43272	981.0375
1689.69527	965.5375
1692.95567	935.6375
1696.2139	908.8375
1699.46999	876.2375
1702.72392	871.0375
1705.97571	886.4375
1709.22535	904.2375
1712.47284	916.0375
1715.71819	924.8375
1718.96139	925.7375
1722.20246	919.7375
1725.44139	918.1375
1728.67818	902.8375
1731.91284	893.8375
1735.14537	883.7375
1738.37576	885.0375
1741.60403	874.4375
1744.83017	854.2375
1748.05418	857.1375
1751.27607	843.3375
1754.49584	819.0375
1757.71349	803.3375
1760.92903	797.1375
1764.14244	789.4375
1767.35375	780.4375
1770.56294	789.1375
1773.77002	799.0375
1776.97499	792.8375
1780.17785	816.2375
1783.37861	825.4375
1786.57727	825.3375
1789.77382	823.5375
1792.96828	831.0375
1796.16064	827.5375
1799.3509	826.9375
1802.53907	824.1375
1805.72514	824.5375
1808.90913	822.1375
1812.09102	817.3375
1815.27083	821.6375
1818.44856	822.7375
1821.6242	824.6375
1824.79776	820.1375
1827.96924	813.4375
1831.13864	816.0375
1834.30597	820.9375
1837.47122	812.5375
1840.6344	804.8375
1843.7955	811.3375
1846.95454	812.3375
1850.11151	814.5375
1853.26642	807.9375
1856.41926	808.9375
1859.57004	800.6375
1862.71876	803.7375
1865.86542	799.5375
1869.01003	810.4375
1872.15258	807.7375
1875.29308	799.7375
1878.43152	798.9375
1881.56792	800.3375
1884.70227	796.4375
1887.83457	794.4375
1890.96482	800.2375
1894.09304	794.8375
1897.21921	796.9375
1900.34335	794.0375
1903.46544	792.7375
1906.58551	791.4375
1909.70353	788.2375
1912.81953	785.2375
1915.93349	787.6375
1919.04543	798.0375
1922.15534	786.5375
1925.26322	788.4375
1928.36908	784.2375
1931.47292	783.5375
1934.57473	786.1375
1937.67453	783.0375
1940.77232	778.5375
1943.86808	777.5375
1946.96184	779.9375
1950.05358	772.6375
1953.14331	770.9375
1956.23103	769.3375
1959.31675	762.2375
1962.40046	767.0375
1965.48217	769.8375
1968.56188	758.2375
1971.63959	760.6375
1974.7153	760.8375
1977.78901	754.7375
1980.86073	755.9375
1983.93046	749.9375
1986.99819	749.8375
1990.06394	743.3375
1993.1277	739.5375
1996.18947	745.0375
1999.24925	741.5375
2002.30706	743.4375
2005.36288	735.2375
2008.41672	732.8375
2011.46859	736.4375
2014.51848	737.1375
2017.56639	727.3375
2020.61233	726.0375
2023.6563	729.7375
2026.6983	725.1375
2029.73833	728.4375
2032.7764	722.0375
2035.8125	724.7375
2038.84664	722.8375
2041.87881	716.0375
2044.90903	717.7375
2047.93729	716.0375
2050.96359	718.9375
2053.98794	717.5375
2057.01034	721.3375
2060.03078	714.2375
2063.04927	718.3375
2066.06582	721.9375
2069.08042	723.0375
2072.09307	725.1375
2075.10378	730.5375
2078.11255	726.3375
2081.11938	720.7375
2084.12426	733.1375
2087.12722	738.3375
2090.12824	729.6375
2093.12732	736.7375
2096.12447	735.6375
2099.11969	733.4375
2102.11299	739.3375
2105.10435	743.9375
2108.09379	739.5375
2111.08131	743.8375
2114.0669	745.5375
2117.05057	748.3375
2120.03233	737.6375
2123.01216	746.3375
2125.99008	741.7375
2128.96609	740.3375
2131.94018	742.2375
2134.91236	740.6375
2137.88263	749.6375
2140.851	746.7375
2143.81746	747.2375
2146.78201	741.9375
2149.74466	745.4375
2152.7054	741.4375
2155.66425	746.5375
2158.6212	747.7375
2161.57625	743.2375
2164.52941	739.8375
2167.48067	739.0375
2170.43004	741.4375
2173.37752	738.3375
2176.32311	731.3375
2179.26681	738.5375
2182.20863	740.8375
2185.14856	738.1375
2188.08661	743.2375
2191.02278	739.0375
2193.95707	732.2375
2196.88948	722.1375
2199.82001	727.8375
2202.74867	725.6375
2205.67545	722.9375
2208.60037	721.9375
2211.52341	727.3375
2214.44458	717.8375
2217.36388	716.4375
2220.28132	719.7375
2223.1969	720.9375
2226.11061	715.5375
2229.02246	709.6375
2231.93245	712.4375
2234.84058	710.3375
2237.74686	715.2375
2240.65128	705.0375
2243.55385	710.3375
2246.45456	709.3375
2249.35343	712.5375
2252.25044	707.2375
2255.14561	710.0375
2258.03893	699.1375
2260.93041	689.9375
2263.82004	684.8375
2266.70783	696.0375
2269.59378	700.0375
2272.4779	694.0375
2275.36017	697.0375
2278.24061	691.4375
2281.11922	692.3375
2283.996	683.4375
2286.87094	694.3375
2289.74405	682.5375
2292.61534	698.1375
2295.4848	686.1375
2298.35243	688.9375
2301.21824	683.6375
2304.08223	685.5375
2306.94439	686.3375
2309.80474	688.8375
2312.66327	684.3375
2315.51999	690.1375
2318.37489	688.3375
2321.22797	684.2375
2324.07925	681.6375
2326.92871	678.6375
2329.77637	688.4375
2332.62222	680.3375
2335.46626	680.3375
2338.3085	677.4375
2341.14893	672.0375
2343.98756	669.2375
2346.8244	672.6375
2349.65943	675.2375
2352.49267	673.9375
2355.32411	672.4375
2358.15376	675.0375
2360.98161	674.2375
2363.80768	674.9375
2366.63195	682.2375
2369.45444	671.6375
2372.27514	669.9375
2375.09405	670.0375
2377.91118	674.5375
2380.72652	669.5375
2383.54009	667.7375
2386.35187	674.3375
2389.16188	661.5375
2391.97011	676.3375
2394.77657	675.1375
2397.58125	660.6375
2400.38416	660.2375
2403.18529	659.0375
2405.98466	656.7375
2408.78226	652.4375
2411.57809	661.2375
2414.37216	659.7375
2417.16446	662.2375
2419.955	661.2375
2422.74378	659.6375
2425.5308	663.6375
2428.31606	661.9375
2431.09956	663.4375
2433.88131	657.8375
2436.6613	652.6375
2439.43954	656.3375
2442.21603	653.6375
2444.99077	652.8375
2447.76377	652.2375
2450.53501	655.5375
2453.30451	651.4375
2456.07226	654.3375
2458.83827	653.0375
2461.60254	653.8375
2464.36507	650.1375
2467.12586	653.8375
2469.88492	652.1375
2472.64224	646.7375
2475.39782	642.9375
2478.15167	635.3375
2480.90379	641.3375
2483.65417	650.9375
2486.40283	647.5375
2489.14976	652.9375
2491.89497	653.4375
2494.63845	639.9375
2497.3802	636.2375
2500.12024	638.0375
2502.85855	645.8375
2505.59514	639.4375
2508.33002	644.0375
2511.06318	646.8375
2513.79462	646.9375
2516.52435	641.0375
2519.25237	643.8375
2521.97867	645.7375
2524.70327	643.1375
2527.42616	647.0375
2530.14734	634.2375
2532.86681	645.9375
2535.58458	642.6375
2538.30065	642.2375
2541.01501	639.5375
2543.72768	644.0375
2546.43864	635.6375
2549.14791	637.9375
2551.85548	629.8375
2554.56136	635.4375
2557.26554	632.0375
2559.96803	630.9375
2562.66883	638.6375
2565.36794	631.9375
2568.06536	629.8375
2570.7611	626.6375
2573.45514	629.4375
2576.14751	623.0375
2578.83819	625.3375
2581.52719	627.6375
2584.21451	623.1375
2586.90015	619.8375
2589.58411	615.8375
2592.2664	623.9375
2594.94701	624.7375
2597.62594	625.8375
2600.30321	625.3375
2602.9788	621.9375
2605.65273	624.4375
2608.32498	613.9375
2610.99557	620.6375
2613.66449	614.4375
2616.33175	622.2375
2618.99734	620.8375
2621.66128	617.7375
2624.32355	615.1375
2626.98416	618.6375
2629.64311	613.0375
2632.30041	620.5375
2634.95605	611.0375
2637.61004	613.9375
2640.26238	614.4375
2642.91306	616.1375
2645.56209	612.8375
2648.20948	613.1375
2650.85521	610.0375
2653.4993	613.0375
2656.14175	610.1375
2658.78255	612.9375
2661.42171	612.4375
2664.05923	609.7375
2666.6951	612.6375
2669.32934	615.5375
2671.96194	609.2375
2674.59291	610.5375
2677.22224	615.1375
2679.84993	613.6375
2682.476	610.1375
2685.10043	614.5375
2687.72324	618.2375
2690.34441	609.2375
2692.96396	614.8375
2695.58188	618.3375
2698.19818	616.1375
2700.81285	616.6375
2703.4259	598.0375
2706.03733	562.6375
2708.64714	579.2375
2711.25533	596.8375
2713.86191	605.2375
2716.46687	609.6375
2719.07021	609.5375
2721.67194	617.3375
2724.27206	615.2375
2726.87057	615.0375
2729.46747	616.2375
2732.06276	625.6375
2734.65644	621.7375
2737.24852	622.1375
2739.83899	621.4375
2742.42786	622.3375
2745.01513	618.7375
2747.60079	618.8375
2750.18486	615.0375
2752.76733	620.5375
2755.3482	616.6375
2757.92747	613.8375
2760.50515	617.9375
2763.08123	615.6375
2765.65573	617.7375
2768.22863	606.8375
2770.79994	614.9375
2773.36967	620.5375
2775.9378	616.8375
2778.50435	614.6375
2781.06932	614.6375
2783.6327	613.2375
2786.1945	612.0375
2788.75471	611.4375
2791.31335	612.8375
2793.87041	611.6375
2796.42589	609.1375
2798.97979	611.7375
2801.53212	609.0375
2804.08288	605.8375
2806.63206	600.3375
2809.17967	599.3375
2811.72571	601.0375
2814.27018	611.0375
2816.81308	601.0375
2819.35442	602.7375
2821.89419	595.9375
2824.43239	596.1375
2826.96904	600.6375
2829.50412	599.2375
2832.03763	601.1375
2834.56959	595.7375
2837.1	600.6375
2839.62884	594.4375
2842.15613	596.4375
2844.68186	591.6375
2847.20604	588.9375
2849.72867	597.1375
2852.24974	603.8375
2854.76927	597.1375
2857.28724	582.4375
2859.80367	588.5375
2862.31855	598.6375
2864.83189	595.3375
2867.34368	594.2375
2869.85393	594.4375
2872.36264	605.1375
2874.8698	595.0375
2877.37543	595.1375
2879.87952	596.6375
2882.38207	598.0375
2884.88308	599.7375
2887.38256	604.9375
2889.88051	599.2375
2892.37692	609.0375
2894.8718	605.3375
2897.36515	610.5375
2899.85698	606.7375
2902.34727	611.4375
2904.83604	617.6375
2907.32328	615.2375
2909.809	617.0375
2912.29319	621.1375
2914.77587	619.6375
2917.25702	620.1375
2919.73665	617.4375
2922.21476	613.1375
2924.69136	621.0375
2927.16644	621.1375
2929.64	629.9375
2932.11205	629.1375
2934.58258	627.1375
2937.05161	624.2375
2939.51912	621.2375
2941.98513	628.9375
2944.44962	626.5375
2946.91261	628.4375
2949.37409	621.9375
2951.83407	631.8375
2954.29254	623.3375
2956.74951	632.2375
2959.20498	632.2375
2961.65895	630.7375
2964.11142	634.1375
2966.56239	632.9375
2969.01186	628.7375
2971.45984	632.6375
2973.90632	634.6375
2976.35131	636.9375
2978.7948	636.4375
2981.23681	635.1375
2983.67732	637.9375
2986.11635	635.0375
2988.55388	636.0375
2990.98993	637.1375
2993.4245	634.6375
2995.85758	640.2375
2998.28917	639.4375
3000.71928	644.4375
3003.14791	641.0375
3005.57506	642.7375
3008.00073	639.8375
3010.42493	649.3375
3012.84764	651.5375
3015.26888	657.1375
3017.68865	650.8375
3020.10694	648.3375
3022.52376	659.3375
3024.9391	654.1375
3027.35298	660.8375
3029.76539	662.0375
3032.17632	669.9375
3034.5858	665.1375
3036.9938	664.5375
3039.40034	673.6375
3041.80542	672.7375
3044.20903	679.7375
3046.61118	680.7375
3049.01187	675.3375
3051.4111	682.8375
3053.80888	686.1375
3056.20519	692.7375
3058.60005	688.9375
3060.99345	698.8375
3063.3854	692.5375
3065.7759	696.6375
3068.16494	700.4375
3070.55254	703.7375
3072.93868	709.1375
3075.32338	710.3375
3077.70662	718.5375
3080.08842	714.2375
3082.46878	714.0375
3084.84769	720.8375
3087.22515	724.7375
3089.60118	730.0375
3091.97576	736.4375
3094.3489	740.9375
3096.72061	742.1375
3099.09087	750.7375
3101.4597	769.9375
3103.82709	766.4375
3106.19305	777.0375
3108.55757	772.9375
3110.92066	778.0375
3113.28232	786.2375
3115.64255	792.7375
3118.00134	796.1375
3120.35871	807.8375
3122.71466	804.7375
3125.06917	811.0375
3127.42226	816.0375
3129.77393	823.3375
3132.12417	825.5375
3134.47299	833.6375
3136.82039	840.5375
3139.16636	839.8375
3141.51092	851.6375
3143.85406	862.9375
3146.19579	868.7375
3148.53609	870.5375
3150.87499	883.2375
3153.21246	885.8375
3155.54853	888.1375
3157.88318	907.6375
3160.21642	915.5375
3162.54826	924.5375
3164.87868	926.1375
3167.2077	937.8375
3169.5353	942.7375
3171.86151	942.7375
3174.18631	953.8375
3176.5097	958.5375
3178.83169	962.0375
3181.15228	973.0375
3183.47147	973.5375
3185.78926	984.9375
3188.10565	990.9375
3190.42065	993.2375
3192.73424	989.0375
