Data from AgNPs_APTES_FTO_UA_100uM_CRN_0uM_R6G_10uM_Scan_RamanShift__67__11-57-51-319.txt Node

Date: Wed Jun 29 11:57:51 BST 2022
User: TCL
Spectrometer: QEP01345
Trigger mode: 4
Integration Time (sec): 7.000000E0
Scans to average: 10
Electric dark correction enabled: true
Nonlinearity correction enabled: false
Boxcar width: 0
XAxis mode: Raman Shifts
Number of Pixels in Spectrum: 1044
>>>>>Begin Spectral Data<<<<<
46.04893	0.0375
50.45542	0.4375
54.85868	1.0375
59.25871	1.5375
63.6555	41.6375
68.04907	45.5375
72.43941	45.3375
76.82654	50.9375
81.21044	50.7375
85.59113	54.1375
89.96862	58.7375
94.34289	59.7375
98.71396	61.3375
103.08183	65.0375
107.4465	59.4375
111.80798	64.3375
116.16626	62.4375
120.52136	64.1375
124.87327	61.5375
129.222	63.2375
133.56755	60.6375
137.90993	58.0375
142.24913	56.7375
146.58517	56.3375
150.91804	56.1375
155.24774	63.6375
159.57429	64.8375
163.89768	68.8375
168.21792	80.4375
172.53501	100.4375
176.84895	113.6375
181.15975	153.5375
185.46741	193.4375
189.77193	260.1375
194.07331	333.0375
198.37157	429.5375
202.6667	514.4375
206.9587	613.1375
211.24758	714.9375
215.53334	819.7375
219.81599	942.0375
224.09553	1067.4375
228.37195	1213.6375
232.64527	1369.8375
236.91549	1519.5375
241.18261	1644.6375
245.44663	1750.8375
249.70755	1832.6375
253.96539	1894.0375
258.22014	1937.5375
262.4718	1972.6375
266.72039	1965.2375
270.96589	1953.7375
275.20832	1903.5375
279.44768	1844.6375
283.68397	1784.7375
287.91719	1772.7375
292.14735	1790.6375
296.37445	1846.7375
300.59849	1972.5375
304.81948	2125.4375
309.03742	2257.9375
313.25231	2277.0375
317.46415	2157.8375
321.67296	1947.0375
325.87872	1746.8375
330.08145	1677.5375
334.28114	1701.6375
338.47781	1747.7375
342.67145	1830.9375
346.86207	1945.1375
351.04966	2128.8375
355.23424	2329.1375
359.4158	2468.0375
363.59435	2498.6375
367.76989	2493.6375
371.94243	2446.5375
376.11196	2391.7375
380.27849	2343.6375
384.44203	2300.6375
388.60257	2238.5375
392.76012	2205.4375
396.91468	2228.9375
401.06626	2272.4375
405.21485	2313.4375
409.36047	2227.4375
413.50311	2064.4375
417.64277	1899.0375
421.77947	1814.7375
425.9132	1781.0375
430.04396	1767.6375
434.17176	1783.8375
438.2966	1816.7375
442.41849	1872.1375
446.53742	1935.0375
450.6534	1987.7375
454.76644	2001.9375
458.87653	1974.9375
462.98368	1948.6375
467.08789	1903.1375
471.18916	1865.6375
475.2875	1808.9375
479.38291	1777.5375
483.4754	1755.2375
487.56496	1754.0375
491.6516	1747.7375
495.73531	1750.8375
499.81612	1763.1375
503.89401	1790.6375
507.96899	1817.9375
512.04106	1871.4375
516.11023	1938.1375
520.1765	1979.4375
524.23987	1990.5375
528.30034	1950.8375
532.35792	1921.5375
536.41261	1874.0375
540.46441	1813.0375
544.51333	1760.0375
548.55936	1767.4375
552.60252	1806.5375
556.64279	1854.4375
560.6802	1884.7375
564.71473	1985.5375
568.7464	2128.7375
572.7752	2141.4375
576.80114	1958.3375
580.82422	1810.5375
584.84444	1742.0375
588.86181	1729.4375
592.87633	1744.2375
596.888	1791.5375
600.89682	1919.9375
604.9028	2318.3375
608.90594	3328.2375
612.90624	4516.6375
616.90371	4227.8375
620.89834	2762.6375
624.89015	2085.0375
628.87913	2002.1375
632.86528	2039.3375
636.84862	2097.6375
640.82913	2032.9375
644.80683	1883.3375
648.78172	1793.6375
652.75379	1805.9375
656.72306	1905.4375
660.68952	2033.2375
664.65319	1963.4375
668.61405	1795.5375
672.57211	1722.0375
676.52738	1728.8375
680.47986	1718.1375
684.42955	1702.1375
688.37646	1697.0375
692.32058	1710.8375
696.26192	1729.7375
700.20048	1769.0375
704.13626	1795.0375
708.06928	1770.7375
711.99952	1750.2375
715.927	1748.4375
719.85171	1770.4375
723.77365	1790.1375
727.69284	1783.8375
731.60928	1762.3375
735.52295	1755.5375
739.43388	1762.8375
743.34206	1751.4375
747.24749	1759.2375
751.15017	1766.3375
755.05012	1795.8375
758.94733	1987.4375
762.8418	2364.3375
766.73354	2891.2375
770.62254	3343.4375
774.50882	3563.4375
778.39237	3458.5375
782.27321	2934.8375
786.15132	2349.7375
790.02671	1994.8375
793.89938	1861.7375
797.76935	1814.0375
801.6366	1805.6375
805.50115	1805.4375
809.36299	1805.7375
813.22213	1811.2375
817.07857	1794.9375
820.93231	1787.4375
824.78336	1773.2375
828.63172	1783.8375
832.47738	1797.8375
836.32036	1774.3375
840.16066	1742.2375
843.99827	1733.8375
847.8332	1729.1375
851.66546	1720.6375
855.49504	1730.2375
859.32195	1728.0375
863.1462	1720.0375
866.96777	1708.9375
870.78668	1722.7375
874.60293	1745.6375
878.41652	1771.7375
882.22745	1794.7375
886.03573	1827.1375
889.84136	1818.0375
893.64433	1815.1375
897.44466	1805.6375
901.24235	1796.1375
905.0374	1756.4375
908.8298	1729.6375
912.61957	1706.8375
916.40671	1690.9375
920.19121	1686.6375
923.97308	1708.1375
927.75233	1768.3375
931.52895	1816.0375
935.30295	1782.1375
939.07433	1708.8375
942.84309	1658.4375
946.60924	1613.7375
950.37278	1607.3375
954.13371	1595.2375
957.89203	1594.4375
961.64774	1596.8375
965.40086	1584.0375
969.15137	1586.0375
972.89929	1577.9375
976.64461	1579.6375
980.38733	1587.5375
984.12747	1581.9375
987.86502	1586.8375
991.59999	1596.9375
995.33237	1612.5375
999.06217	1631.3375
1002.78939	1673.8375
1006.51404	1715.6375
1010.23611	1750.1375
1013.95561	1746.9375
1017.67255	1747.8375
1021.38692	1730.3375
1025.09872	1707.1375
1028.80796	1689.9375
1032.51465	1687.2375
1036.21877	1715.5375
1039.92035	1736.8375
1043.61937	1754.6375
1047.31584	1744.1375
1051.00976	1726.4375
1054.70114	1724.4375
1058.38998	1699.1375
1062.07627	1705.5375
1065.76003	1720.6375
1069.44126	1731.1375
1073.11995	1754.0375
1076.79611	1802.3375
1080.46974	1896.4375
1084.14085	1987.3375
1087.80943	2062.4375
1091.47549	2058.0375
1095.13903	1976.7375
1098.80005	1879.8375
1102.45857	1820.2375
1106.11456	1815.0375
1109.76805	1859.1375
1113.41903	1955.5375
1117.06751	2112.5375
1120.71348	2317.0375
1124.35696	2566.3375
1127.99793	2706.7375
1131.63641	2538.2375
1135.2724	2317.3375
1138.90589	2123.8375
1142.5369	2019.6375
1146.16542	1923.6375
1149.79145	1870.8375
1153.415	1844.4375
1157.03607	1834.1375
1160.65467	1882.2375
1164.27079	1951.8375
1167.88443	2063.2375
1171.49561	2259.6375
1175.10432	2595.0375
1178.71056	3052.1375
1182.31434	3402.1375
1185.91565	3427.5375
1189.51451	3291.0375
1193.11091	3030.1375
1196.70485	2776.1375
1200.29634	2603.4375
1203.88538	2461.1375
1207.47197	2249.3375
1211.05612	2069.2375
1214.63782	1933.4375
1218.21708	1880.8375
1221.79391	1852.4375
1225.36829	1824.8375
1228.94024	1822.6375
1232.50976	1830.2375
1236.07685	1831.5375
1239.6415	1860.0375
1243.20374	1880.9375
1246.76355	1897.4375
1250.32093	1922.3375
1253.8759	1965.9375
1257.42845	2038.6375
1260.97859	2126.6375
1264.52631	2232.0375
1268.07163	2325.1375
1271.61453	2346.2375
1275.15503	2349.0375
1278.69312	2322.8375
1282.22882	2349.6375
1285.76211	2449.1375
1289.29301	2567.5375
1292.82151	2674.3375
1296.34761	2781.1375
1299.87133	3005.7375
1303.39266	3397.2375
1306.9116	4060.1375
1310.42815	4667.6375
1313.94233	4757.4375
1317.45412	4261.9375
1320.96354	3601.5375
1324.47058	3029.8375
1327.97525	2650.3375
1331.47754	2442.0375
1334.97747	2398.1375
1338.47502	2482.8375
1341.97022	2691.4375
1345.46305	3056.8375
1348.95352	3476.5375
1352.44163	3989.5375
1355.92738	4754.7375
1359.41078	5856.3375
1362.89183	6486.1375
1366.37053	5782.6375
1369.84688	4515.9375
1373.32088	3588.8375
1376.79254	3046.5375
1380.26186	2735.0375
1383.72883	2479.2375
1387.19347	2261.4375
1390.65578	2074.3375
1394.11575	1963.8375
1397.57339	1889.3375
1401.0287	1861.5375
1404.48168	1835.6375
1407.93234	1848.2375
1411.38068	1867.8375
1414.82669	1908.0375
1418.27039	1923.4375
1421.71177	1914.4375
1425.15083	1900.6375
1428.58758	1938.4375
1432.02203	1993.0375
1435.45416	1999.7375
1438.88399	1978.3375
1442.31151	1956.5375
1445.73673	1967.6375
1449.15965	1962.7375
1452.58027	1959.9375
1455.9986	1929.3375
1459.41463	1917.7375
1462.82837	1953.5375
1466.23982	2008.8375
1469.64898	2062.8375
1473.05586	2057.5375
1476.46045	2063.3375
1479.86276	2107.8375
1483.26279	2179.2375
1486.66054	2307.2375
1490.05602	2470.6375
1493.44922	2751.5375
1496.84016	3189.0375
1500.22882	3845.9375
1503.61521	4737.9375
1506.99934	5749.8375
1510.38121	6450.7375
1513.76081	6411.1375
1517.13816	5551.0375
1520.51324	4396.0375
1523.88607	3457.0375
1527.25665	2893.9375
1530.62498	2584.8375
1533.99105	2416.1375
1537.35488	2323.4375
1540.71647	2300.5375
1544.07581	2308.0375
1547.4329	2346.8375
1550.78776	2397.1375
1554.14038	2425.6375
1557.49077	2462.0375
1560.83892	2535.8375
1564.18484	2674.9375
1567.52853	2866.1375
1570.86999	2993.2375
1574.20922	3051.8375
1577.54624	2970.3375
1580.88103	2706.6375
1584.2136	2367.3375
1587.54395	2163.6375
1590.87208	2134.4375
1594.19801	2234.1375
1597.52172	2403.8375
1600.84321	2461.6375
1604.16251	2386.1375
1607.47959	2245.8375
1610.79447	2110.1375
1614.10715	1962.5375
1617.41763	1871.6375
1620.7259	1799.4375
1624.03199	1802.7375
1627.33587	1813.2375
1630.63757	1875.7375
1633.93707	1982.6375
1637.23439	2171.3375
1640.52951	2514.8375
1643.82246	3032.5375
1647.11321	3659.1375
1650.40179	4003.7375
1653.68819	3774.5375
1656.97241	3138.6375
1660.25446	2512.1375
1663.53433	2098.3375
1666.81203	1875.5375
1670.08756	1741.5375
1673.36092	1668.3375
1676.63211	1615.9375
1679.90115	1570.3375
1683.16801	1544.1375
1686.43272	1532.6375
1689.69527	1512.2375
1692.95567	1502.4375
1696.2139	1508.7375
1699.46999	1505.8375
1702.72392	1497.9375
1705.97571	1488.8375
1709.22535	1484.3375
1712.47284	1473.4375
1715.71819	1481.2375
1718.96139	1467.3375
1722.20246	1461.3375
1725.44139	1444.5375
1728.67818	1428.7375
1731.91284	1415.3375
1735.14537	1401.7375
1738.37576	1386.2375
1741.60403	1394.7375
1744.83017	1377.1375
1748.05418	1374.5375
1751.27607	1371.5375
1754.49584	1367.1375
1757.71349	1368.1375
1760.92903	1365.6375
1764.14244	1357.9375
1767.35375	1351.5375
1770.56294	1351.1375
1773.77002	1338.7375
1776.97499	1328.6375
1780.17785	1316.9375
1783.37861	1304.5375
1786.57727	1307.3375
1789.77382	1300.1375
1792.96828	1301.1375
1796.16064	1294.7375
1799.3509	1292.5375
1802.53907	1300.5375
1805.72514	1286.5375
1808.90913	1283.5375
1812.09102	1290.1375
1815.27083	1275.9375
1818.44856	1272.8375
1821.6242	1265.8375
1824.79776	1262.6375
1827.96924	1256.9375
1831.13864	1260.8375
1834.30597	1261.9375
1837.47122	1248.6375
1840.6344	1249.4375
1843.7955	1242.6375
1846.95454	1244.7375
1850.11151	1248.1375
1853.26642	1254.2375
1856.41926	1245.2375
1859.57004	1243.8375
1862.71876	1248.5375
1865.86542	1248.3375
1869.01003	1245.1375
1872.15258	1241.0375
1875.29308	1241.3375
1878.43152	1235.9375
1881.56792	1239.5375
1884.70227	1231.5375
1887.83457	1232.6375
1890.96482	1241.0375
1894.09304	1230.0375
1897.21921	1224.4375
1900.34335	1222.5375
1903.46544	1224.5375
1906.58551	1230.1375
1909.70353	1226.7375
1912.81953	1225.7375
1915.93349	1225.0375
1919.04543	1224.2375
1922.15534	1225.4375
1925.26322	1219.7375
1928.36908	1216.4375
1931.47292	1216.6375
1934.57473	1205.9375
1937.67453	1206.6375
1940.77232	1197.1375
1943.86808	1201.0375
1946.96184	1194.7375
1950.05358	1187.8375
1953.14331	1190.9375
1956.23103	1183.7375
1959.31675	1186.3375
1962.40046	1178.9375
1965.48217	1176.2375
1968.56188	1180.8375
1971.63959	1182.1375
1974.7153	1170.7375
1977.78901	1163.7375
1980.86073	1162.9375
1983.93046	1160.1375
1986.99819	1160.2375
1990.06394	1145.5375
1993.1277	1147.1375
1996.18947	1139.6375
1999.24925	1136.8375
2002.30706	1133.2375
2005.36288	1130.1375
2008.41672	1125.0375
2011.46859	1119.1375
2014.51848	1125.0375
2017.56639	1116.1375
2020.61233	1116.7375
2023.6563	1108.0375
2026.6983	1103.9375
2029.73833	1110.1375
2032.7764	1098.8375
2035.8125	1103.7375
2038.84664	1102.3375
2041.87881	1100.9375
2044.90903	1096.7375
2047.93729	1093.0375
2050.96359	1088.3375
2053.98794	1086.9375
2057.01034	1090.8375
2060.03078	1084.1375
2063.04927	1092.0375
2066.06582	1087.2375
2069.08042	1086.1375
2072.09307	1094.1375
2075.10378	1082.0375
2078.11255	1086.7375
2081.11938	1085.1375
2084.12426	1088.0375
2087.12722	1091.1375
2090.12824	1086.4375
2093.12732	1090.1375
2096.12447	1081.7375
2099.11969	1087.7375
2102.11299	1085.4375
2105.10435	1086.2375
2108.09379	1085.6375
2111.08131	1089.5375
2114.0669	1091.7375
2117.05057	1101.2375
2120.03233	1100.1375
2123.01216	1096.9375
2125.99008	1107.2375
2128.96609	1102.8375
2131.94018	1104.2375
2134.91236	1107.0375
2137.88263	1104.8375
2140.851	1107.0375
2143.81746	1100.7375
2146.78201	1100.0375
2149.74466	1102.3375
2152.7054	1102.1375
2155.66425	1094.7375
2158.6212	1107.5375
2161.57625	1098.4375
2164.52941	1110.5375
2167.48067	1094.8375
2170.43004	1093.9375
2173.37752	1097.6375
2176.32311	1103.2375
2179.26681	1102.1375
2182.20863	1102.1375
2185.14856	1106.9375
2188.08661	1103.1375
2191.02278	1104.1375
2193.95707	1095.8375
2196.88948	1097.6375
2199.82001	1086.2375
2202.74867	1093.2375
2205.67545	1094.0375
2208.60037	1090.7375
2211.52341	1092.3375
2214.44458	1084.5375
2217.36388	1077.7375
2220.28132	1078.8375
2223.1969	1078.2375
2226.11061	1084.6375
2229.02246	1072.5375
2231.93245	1071.9375
2234.84058	1076.4375
2237.74686	1085.2375
2240.65128	1076.2375
2243.55385	1081.7375
2246.45456	1071.3375
2249.35343	1072.1375
2252.25044	1077.8375
2255.14561	1083.7375
2258.03893	1084.6375
2260.93041	1085.0375
2263.82004	1080.4375
2266.70783	1077.3375
2269.59378	1065.5375
2272.4779	1068.4375
2275.36017	1064.5375
2278.24061	1063.8375
2281.11922	1057.9375
2283.996	1059.4375
2286.87094	1064.7375
2289.74405	1057.4375
2292.61534	1057.5375
2295.4848	1059.6375
2298.35243	1050.0375
2301.21824	1046.8375
2304.08223	1057.6375
2306.94439	1051.5375
2309.80474	1051.0375
2312.66327	1051.7375
2315.51999	1055.2375
2318.37489	1052.1375
2321.22797	1042.2375
2324.07925	1046.9375
2326.92871	1047.1375
2329.77637	1055.3375
2332.62222	1047.5375
2335.46626	1039.1375
2338.3085	1048.2375
2341.14893	1040.0375
2343.98756	1042.5375
2346.8244	1037.5375
2349.65943	1040.3375
2352.49267	1048.5375
2355.32411	1042.0375
2358.15376	1042.0375
2360.98161	1051.3375
2363.80768	1054.4375
2366.63195	1058.0375
2369.45444	1060.2375
2372.27514	1057.7375
2375.09405	1059.8375
2377.91118	1055.2375
2380.72652	1055.9375
2383.54009	1045.2375
2386.35187	1049.0375
2389.16188	1043.5375
2391.97011	1043.4375
2394.77657	1034.1375
2397.58125	1034.5375
2400.38416	1028.8375
2403.18529	1020.0375
2405.98466	1021.7375
2408.78226	1030.2375
2411.57809	1015.7375
2414.37216	1029.2375
2417.16446	1014.9375
2419.955	1021.5375
2422.74378	1023.0375
2425.5308	1022.9375
2428.31606	1024.7375
2431.09956	1012.3375
2433.88131	1021.4375
2436.6613	1020.8375
2439.43954	1017.9375
2442.21603	1020.8375
2444.99077	1021.4375
2447.76377	1024.5375
2450.53501	1031.1375
2453.30451	1035.0375
2456.07226	1018.1375
2458.83827	1020.8375
2461.60254	1017.4375
2464.36507	1019.0375
2467.12586	1021.4375
2469.88492	1015.9375
2472.64224	1019.6375
2475.39782	1019.7375
2478.15167	1024.5375
2480.90379	1029.5375
2483.65417	1038.7375
2486.40283	1041.7375
2489.14976	1045.2375
2491.89497	1038.8375
2494.63845	1042.6375
2497.3802	1037.3375
2500.12024	1039.7375
2502.85855	1033.4375
2505.59514	1029.8375
2508.33002	1024.9375
2511.06318	1026.9375
2513.79462	1018.1375
2516.52435	1016.1375
2519.25237	1011.5375
2521.97867	1003.6375
2524.70327	1005.4375
2527.42616	1003.1375
2530.14734	994.3375
2532.86681	1004.8375
2535.58458	1004.8375
2538.30065	1007.9375
2541.01501	1004.8375
2543.72768	1010.8375
2546.43864	1005.3375
2549.14791	1002.4375
2551.85548	1008.7375
2554.56136	1004.7375
2557.26554	1000.8375
2559.96803	994.9375
2562.66883	1005.1375
2565.36794	991.7375
2568.06536	995.4375
2570.7611	999.8375
2573.45514	995.0375
2576.14751	992.1375
2578.83819	987.5375
2581.52719	985.5375
2584.21451	985.5375
2586.90015	980.6375
2589.58411	977.4375
2592.2664	983.9375
2594.94701	987.7375
2597.62594	978.7375
2600.30321	990.8375
2602.9788	986.0375
2605.65273	986.0375
2608.32498	971.4375
2610.99557	983.0375
2613.66449	981.2375
2616.33175	986.7375
2618.99734	978.9375
2621.66128	967.9375
2624.32355	968.1375
2626.98416	974.0375
2629.64311	969.6375
2632.30041	975.1375
2634.95605	965.8375
2637.61004	966.9375
2640.26238	965.8375
2642.91306	960.6375
2645.56209	962.9375
2648.20948	960.3375
2650.85521	959.6375
2653.4993	964.9375
2656.14175	971.5375
2658.78255	968.3375
2661.42171	967.7375
2664.05923	964.9375
2666.6951	973.3375
2669.32934	973.7375
2671.96194	972.2375
2674.59291	973.9375
2677.22224	980.0375
2679.84993	976.5375
2682.476	980.6375
2685.10043	979.0375
2687.72324	977.3375
2690.34441	983.2375
2692.96396	970.5375
2695.58188	976.8375
2698.19818	977.1375
2700.81285	971.2375
2703.4259	985.3375
2706.03733	984.7375
2708.64714	981.8375
2711.25533	971.4375
2713.86191	982.7375
2716.46687	977.2375
2719.07021	981.3375
2721.67194	985.9375
2724.27206	983.8375
2726.87057	995.0375
2729.46747	993.9375
2732.06276	989.5375
2734.65644	990.1375
2737.24852	994.3375
2739.83899	992.4375
2742.42786	994.2375
2745.01513	985.0375
2747.60079	983.8375
2750.18486	978.2375
2752.76733	982.6375
2755.3482	971.7375
2757.92747	968.8375
2760.50515	972.2375
2763.08123	974.5375
2765.65573	977.5375
2768.22863	973.0375
2770.79994	973.4375
2773.36967	971.6375
2775.9378	974.6375
2778.50435	982.9375
2781.06932	978.7375
2783.6327	984.7375
2786.1945	979.9375
2788.75471	978.7375
2791.31335	979.7375
2793.87041	983.7375
2796.42589	979.7375
2798.97979	983.5375
2801.53212	981.0375
2804.08288	971.4375
2806.63206	974.5375
2809.17967	982.8375
2811.72571	968.9375
2814.27018	976.3375
2816.81308	981.8375
2819.35442	978.1375
2821.89419	988.3375
2824.43239	978.6375
2826.96904	993.8375
2829.50412	995.3375
2832.03763	985.6375
2834.56959	992.7375
2837.1	990.2375
2839.62884	992.4375
2842.15613	991.0375
2844.68186	992.4375
2847.20604	994.8375
2849.72867	991.0375
2852.24974	1004.9375
2854.76927	1008.6375
2857.28724	1007.6375
2859.80367	1015.4375
2862.31855	1019.8375
2864.83189	1021.1375
2867.34368	1018.5375
2869.85393	1009.5375
2872.36264	1021.6375
2874.8698	1016.1375
2877.37543	1017.1375
2879.87952	1010.0375
2882.38207	1015.2375
2884.88308	1013.6375
2887.38256	1013.3375
2889.88051	1013.3375
2892.37692	1020.9375
2894.8718	1020.4375
2897.36515	1023.0375
2899.85698	1025.0375
2902.34727	1017.8375
2904.83604	1028.0375
2907.32328	1024.8375
2909.809	1026.7375
2912.29319	1029.2375
2914.77587	1024.8375
2917.25702	1027.0375
2919.73665	1023.3375
2922.21476	1015.6375
2924.69136	1013.3375
2927.16644	1013.8375
2929.64	1020.3375
2932.11205	1020.7375
2934.58258	1020.1375
2937.05161	1017.5375
2939.51912	1012.0375
2941.98513	1024.0375
2944.44962	1019.0375
2946.91261	1016.8375
2949.37409	1018.8375
2951.83407	1014.7375
2954.29254	1014.3375
2956.74951	1014.4375
2959.20498	1017.1375
2961.65895	1018.1375
2964.11142	1030.5375
2966.56239	1018.3375
2969.01186	1015.3375
2971.45984	1019.9375
2973.90632	1014.2375
2976.35131	1015.3375
2978.7948	1017.9375
2981.23681	1018.9375
2983.67732	1012.0375
2986.11635	1013.7375
2988.55388	1011.6375
2990.98993	1011.6375
2993.4245	1006.7375
2995.85758	1009.8375
2998.28917	1008.8375
3000.71928	1014.8375
3003.14791	1008.3375
3005.57506	1013.7375
3008.00073	1007.8375
3010.42493	1021.0375
3012.84764	1017.3375
3015.26888	1013.9375
3017.68865	1020.7375
3020.10694	1020.8375
3022.52376	1020.7375
3024.9391	1025.5375
3027.35298	1021.6375
3029.76539	1028.9375
3032.17632	1022.5375
3034.5858	1022.8375
3036.9938	1025.8375
3039.40034	1031.4375
3041.80542	1032.7375
3044.20903	1035.6375
3046.61118	1032.3375
3049.01187	1031.2375
3051.4111	1035.8375
3053.80888	1042.1375
3056.20519	1048.4375
3058.60005	1048.0375
3060.99345	1046.8375
3063.3854	1046.5375
3065.7759	1048.7375
3068.16494	1078.1375
3070.55254	1062.5375
3072.93868	1058.5375
3075.32338	1049.5375
3077.70662	1060.9375
3080.08842	1064.6375
3082.46878	1061.9375
3084.84769	1064.1375
3087.22515	1072.2375
3089.60118	1077.2375
3091.97576	1077.0375
3094.3489	1085.0375
3096.72061	1089.8375
3099.09087	1091.6375
3101.4597	1103.6375
3103.82709	1115.6375
3106.19305	1120.0375
3108.55757	1127.2375
3110.92066	1132.8375
3113.28232	1137.9375
3115.64255	1137.9375
3118.00134	1152.3375
3120.35871	1144.4375
3122.71466	1153.7375
3125.06917	1156.0375
3127.42226	1157.7375
3129.77393	1165.0375
3132.12417	1166.4375
3134.47299	1170.8375
3136.82039	1187.2375
3139.16636	1190.3375
