Data from AgNPs_APTES_FTO_UA_100uM_CRN_0uM_R6G_10uM_Scan_RamanShift__72__12-03-41-325.txt Node

Date: Wed Jun 29 12:03:41 BST 2022
User: TCL
Spectrometer: QEP01345
Trigger mode: 4
Integration Time (sec): 7.000000E0
Scans to average: 10
Electric dark correction enabled: true
Nonlinearity correction enabled: false
Boxcar width: 0
XAxis mode: Raman Shifts
Number of Pixels in Spectrum: 1044
>>>>>Begin Spectral Data<<<<<
46.04893	0.4
50.45542	-0.4
54.85868	0.8
59.25871	2.1
63.6555	42.4
68.04907	48.1
72.43941	47.4
76.82654	49.1
81.21044	55.5
85.59113	59.5
89.96862	61
94.34289	61.9
98.71396	63.9
103.08183	65.6
107.4465	69.7
111.80798	68.1
116.16626	67.1
120.52136	64.3
124.87327	65.4
129.222	67.7
133.56755	63.8
137.90993	65.1
142.24913	63.5
146.58517	59.7
150.91804	64.1
155.24774	66.2
159.57429	75
163.89768	85.5
168.21792	96.6
172.53501	118.6
176.84895	155.7
181.15975	198.7
185.46741	265
189.77193	348.9
194.07331	459.4
198.37157	586.5
202.6667	713.6
206.9587	843.6
211.24758	977.9
215.53334	1113.7
219.81599	1265.5
224.09553	1432.7
228.37195	1602.6
232.64527	1808.1
236.91549	2005.9
241.18261	2196
245.44663	2363.1
249.70755	2500.9
253.96539	2619
258.22014	2732.5
262.4718	2812.9
266.72039	2874
270.96589	2890.4
275.20832	2870.2
279.44768	2823.1
283.68397	2782.3
287.91719	2729.6
292.14735	2709.7
296.37445	2751.2
300.59849	2801.7
304.81948	2895.1
309.03742	2968.9
313.25231	2958.6
317.46415	2903.5
321.67296	2764.5
325.87872	2673.8
330.08145	2641.5
334.28114	2656.4
338.47781	2695.5
342.67145	2761.4
346.86207	2854.3
351.04966	2953.8
355.23424	3091.3
359.4158	3177.2
363.59435	3228.4
367.76989	3263.6
371.94243	3271.5
376.11196	3286
380.27849	3305.6
384.44203	3305.6
388.60257	3300.7
392.76012	3305.2
396.91468	3313.3
401.06626	3390.5
405.21485	3431.7
409.36047	3372.5
413.50311	3285.8
417.64277	3176.3
421.77947	3134.3
425.9132	3115.4
430.04396	3119.6
434.17176	3141.8
438.2966	3213.3
442.41849	3283.2
446.53742	3392.2
450.6534	3473.6
454.76644	3538.9
458.87653	3548.5
462.98368	3519.8
467.08789	3473.2
471.18916	3416.6
475.2875	3367.1
479.38291	3317.1
483.4754	3278.9
487.56496	3238.7
491.6516	3238.6
495.73531	3247.1
499.81612	3257.8
503.89401	3272.8
507.96899	3276.2
512.04106	3302.6
516.11023	3334.8
520.1765	3374.6
524.23987	3369.2
528.30034	3383.1
532.35792	3383.6
536.41261	3350.3
540.46441	3318.8
544.51333	3303.9
548.55936	3300.7
552.60252	3361
556.64279	3390.8
560.6802	3422.3
564.71473	3455.8
568.7464	3525
572.7752	3532.9
576.80114	3480.5
580.82422	3436.3
584.84444	3458.8
588.86181	3528.5
592.87633	3676.3
596.888	3815.7
600.89682	3927
604.9028	4189.5
608.90594	4864.3
612.90624	5670.1
616.90371	5355.7
620.89834	4225.6
624.89015	3718.6
628.87913	3630.8
632.86528	3659
636.84862	3704.7
640.82913	3620.9
644.80683	3529.8
648.78172	3449.6
652.75379	3448.2
656.72306	3524.5
660.68952	3626.8
664.65319	3584.8
668.61405	3469
672.57211	3444.2
676.52738	3458.6
680.47986	3448.6
684.42955	3402.7
688.37646	3398.7
692.32058	3425
696.26192	3469
700.20048	3524.7
704.13626	3525.1
708.06928	3503.9
711.99952	3485.1
715.927	3492.3
719.85171	3525.2
723.77365	3529.7
727.69284	3518.5
731.60928	3502.3
735.52295	3502.7
739.43388	3512.3
743.34206	3504.5
747.24749	3518.1
751.15017	3520.3
755.05012	3508.1
758.94733	3653.6
762.8418	3914.2
766.73354	4299.2
770.62254	4711
774.50882	4922.4
778.39237	4820.6
782.27321	4423
786.15132	4008.9
790.02671	3736.6
793.89938	3624.2
797.76935	3560.9
801.6366	3557.2
805.50115	3552
809.36299	3547.1
813.22213	3547.8
817.07857	3537.9
820.93231	3520.1
824.78336	3536.4
828.63172	3528.9
832.47738	3535.9
836.32036	3540.8
840.16066	3535.8
843.99827	3540
847.8332	3534.4
851.66546	3533.5
855.49504	3543
859.32195	3535.8
863.1462	3539
866.96777	3529.1
870.78668	3519.3
874.60293	3537.3
878.41652	3567.4
882.22745	3598.9
886.03573	3613.1
889.84136	3619.7
893.64433	3622.3
897.44466	3585.2
901.24235	3600.5
905.0374	3583.3
908.8298	3541.7
912.61957	3520.1
916.40671	3528.5
920.19121	3540.7
923.97308	3554.1
927.75233	3602.6
931.52895	3627.5
935.30295	3602.1
939.07433	3560.1
942.84309	3515.5
946.60924	3484.1
950.37278	3485.4
954.13371	3467.2
957.89203	3445.1
961.64774	3441.8
965.40086	3448.9
969.15137	3433.9
972.89929	3431.3
976.64461	3447.8
980.38733	3458.6
984.12747	3452
987.86502	3481.4
991.59999	3513.7
995.33237	3577.4
999.06217	3642.7
1002.78939	3719.6
1006.51404	3775.2
1010.23611	3796.1
1013.95561	3828.9
1017.67255	3837.8
1021.38692	3807.6
1025.09872	3763
1028.80796	3769.5
1032.51465	3814
1036.21877	3865.8
1039.92035	3867.2
1043.61937	3836.5
1047.31584	3802
1051.00976	3749.3
1054.70114	3707.6
1058.38998	3699.8
1062.07627	3704.4
1065.76003	3704.1
1069.44126	3723.3
1073.11995	3768.2
1076.79611	3812.4
1080.46974	3891.8
1084.14085	3962.9
1087.80943	4042.7
1091.47549	4020.6
1095.13903	3955.9
1098.80005	3893.8
1102.45857	3828.8
1106.11456	3827.3
1109.76805	3863.2
1113.41903	3908.2
1117.06751	4006.4
1120.71348	4121.9
1124.35696	4238.5
1127.99793	4331.2
1131.63641	4303.9
1135.2724	4174
1138.90589	4064.2
1142.5369	3973.6
1146.16542	3894.5
1149.79145	3856.9
1153.415	3833.7
1157.03607	3812.8
1160.65467	3853.8
1164.27079	3929.6
1167.88443	4070
1171.49561	4285.4
1175.10432	4638.5
1178.71056	5141.5
1182.31434	5610.7
1185.91565	5803.7
1189.51451	5681
1193.11091	5398.2
1196.70485	5092.5
1200.29634	4836.9
1203.88538	4637.6
1207.47197	4420.5
1211.05612	4223.4
1214.63782	4139.7
1218.21708	4104
1221.79391	4101.4
1225.36829	4138.2
1228.94024	4128.2
1232.50976	4077.3
1236.07685	4049.1
1239.6415	4056.1
1243.20374	4072
1246.76355	4099.8
1250.32093	4130.4
1253.8759	4188.8
1257.42845	4283.5
1260.97859	4417.4
1264.52631	4553.7
1268.07163	4695.7
1271.61453	4801.1
1275.15503	4835.5
1278.69312	4846.1
1282.22882	4853.6
1285.76211	4940.7
1289.29301	5069
1292.82151	5217.2
1296.34761	5396.4
1299.87133	5668.7
1303.39266	6089.1
1306.9116	6672.7
1310.42815	7236.5
1313.94233	7450.2
1317.45412	7176.9
1320.96354	6640.8
1324.47058	6143.3
1327.97525	5704
1331.47754	5391.5
1334.97747	5263.1
1338.47502	5281.7
1341.97022	5386.9
1345.46305	5566
1348.95352	5877
1352.44163	6294.2
1355.92738	6917.3
1359.41078	7774.6
1362.89183	8578.5
1366.37053	8293.7
1369.84688	7107.4
1373.32088	6033.9
1376.79254	5441.8
1380.26186	5171
1383.72883	5002
1387.19347	4792.7
1390.65578	4601.4
1394.11575	4440.9
1397.57339	4352.5
1401.0287	4323.7
1404.48168	4342.6
1407.93234	4353.3
1411.38068	4383.5
1414.82669	4413.3
1418.27039	4417.4
1421.71177	4355.3
1425.15083	4299.7
1428.58758	4330.7
1432.02203	4419.9
1435.45416	4532.2
1438.88399	4586.6
1442.31151	4582.5
1445.73673	4548.8
1449.15965	4536.4
1452.58027	4462.9
1455.9986	4375.1
1459.41463	4334.1
1462.82837	4359.3
1466.23982	4453.5
1469.64898	4577.8
1473.05586	4674.5
1476.46045	4782.9
1479.86276	4885.1
1483.26279	4985.6
1486.66054	5089.5
1490.05602	5236.2
1493.44922	5458.5
1496.84016	5681.1
1500.22882	5986.3
1503.61521	6462.5
1506.99934	7070.7
1510.38121	7530
1513.76081	7470.3
1517.13816	6844.6
1520.51324	6052.6
1523.88607	5383.7
1527.25665	4991.7
1530.62498	4795.3
1533.99105	4694.6
1537.35488	4625.1
1540.71647	4584.2
1544.07581	4556.7
1547.4329	4519.2
1550.78776	4507.8
1554.14038	4488
1557.49077	4479.2
1560.83892	4505.2
1564.18484	4605.8
1567.52853	4734.2
1570.86999	4901.2
1574.20922	4976.5
1577.54624	4945.4
1580.88103	4766.9
1584.2136	4542.6
1587.54395	4426.3
1590.87208	4496.9
1594.19801	4779.9
1597.52172	5139.7
1600.84321	5330.9
1604.16251	5238.7
1607.47959	4943
1610.79447	4579
1614.10715	4238
1617.41763	4005.2
1620.7259	3865.9
1624.03199	3843.3
1627.33587	3840.6
1630.63757	3916.9
1633.93707	4071.2
1637.23439	4345.8
1640.52951	4809.5
1643.82246	5461.5
1647.11321	6115.9
1650.40179	6390.2
1653.68819	6054
1656.97241	5280.5
1660.25446	4541.6
1663.53433	4057.1
1666.81203	3776.1
1670.08756	3621.2
1673.36092	3534.4
1676.63211	3463.4
1679.90115	3415.3
1683.16801	3383.2
1686.43272	3352.1
1689.69527	3336.9
1692.95567	3315.5
1696.2139	3311.5
1699.46999	3305.9
1702.72392	3284.4
1705.97571	3280.1
1709.22535	3265.9
1712.47284	3249.3
1715.71819	3245.7
1718.96139	3237
1722.20246	3230.8
1725.44139	3208.9
1728.67818	3185.8
1731.91284	3166.9
1735.14537	3143.4
1738.37576	3148.6
1741.60403	3139.9
1744.83017	3124.8
1748.05418	3117.3
1751.27607	3123.5
1754.49584	3105.7
1757.71349	3102.2
1760.92903	3112.3
1764.14244	3103.4
1767.35375	3101.3
1770.56294	3086.6
1773.77002	3086.7
1776.97499	3064.3
1780.17785	3060.9
1783.37861	3068.8
1786.57727	3049.9
1789.77382	3047.4
1792.96828	3033.2
1796.16064	3040.4
1799.3509	3038.4
1802.53907	3033.3
1805.72514	3013.5
1808.90913	3009.3
1812.09102	3007.3
1815.27083	2992.9
1818.44856	2973.3
1821.6242	2995.3
1824.79776	2965
1827.96924	2980.2
1831.13864	2957
1834.30597	2961
1837.47122	2949.1
1840.6344	2952.4
1843.7955	2954.4
1846.95454	2951.4
1850.11151	2946.7
1853.26642	2949.8
1856.41926	2940.2
1859.57004	2934.6
1862.71876	2938.9
1865.86542	2940.8
1869.01003	2939.8
1872.15258	2937.4
1875.29308	2921.8
1878.43152	2926.6
1881.56792	2911
1884.70227	2910.7
1887.83457	2916
1890.96482	2906.5
1894.09304	2907.7
1897.21921	2905.8
1900.34335	2900.9
1903.46544	2895.4
1906.58551	2909.7
1909.70353	2900.2
1912.81953	2899.2
1915.93349	2897.9
1919.04543	2892.8
1922.15534	2887.5
1925.26322	2876.8
1928.36908	2872.6
1931.47292	2874.5
1934.57473	2859.9
1937.67453	2860.3
1940.77232	2860.3
1943.86808	2853.8
1946.96184	2833.7
1950.05358	2831.2
1953.14331	2815.3
1956.23103	2804.3
1959.31675	2809.4
1962.40046	2814.9
1965.48217	2786
1968.56188	2785.5
1971.63959	2783.1
1974.7153	2771.7
1977.78901	2757.2
1980.86073	2758.3
1983.93046	2741.9
1986.99819	2732.1
1990.06394	2721.7
1993.1277	2712.7
1996.18947	2711.3
1999.24925	2707
2002.30706	2690.4
2005.36288	2681.9
2008.41672	2685.5
2011.46859	2685.1
2014.51848	2666.3
2017.56639	2664.3
2020.61233	2655.7
2023.6563	2644.5
2026.6983	2629.5
2029.73833	2635.1
2032.7764	2627
2035.8125	2610.9
2038.84664	2623.9
2041.87881	2613.3
2044.90903	2610.6
2047.93729	2613
2050.96359	2606.5
2053.98794	2597.1
2057.01034	2609.5
2060.03078	2589.1
2063.04927	2594.4
2066.06582	2588
2069.08042	2590.6
2072.09307	2587.9
2075.10378	2581.8
2078.11255	2594.8
2081.11938	2586.5
2084.12426	2575.4
2087.12722	2597.2
2090.12824	2578.3
2093.12732	2565.1
2096.12447	2572.1
2099.11969	2573.1
2102.11299	2586.2
2105.10435	2585.2
2108.09379	2589.3
2111.08131	2581.4
2114.0669	2581.6
2117.05057	2583.4
2120.03233	2587.8
2123.01216	2581.4
2125.99008	2592
2128.96609	2580.5
2131.94018	2596.2
2134.91236	2592.5
2137.88263	2601.3
2140.851	2599.5
2143.81746	2590
2146.78201	2601.4
2149.74466	2603.8
2152.7054	2596.3
2155.66425	2592.6
2158.6212	2600.2
2161.57625	2599.7
2164.52941	2602.1
2167.48067	2590.5
2170.43004	2588.8
2173.37752	2579.8
2176.32311	2575.9
2179.26681	2599.4
2182.20863	2580.3
2185.14856	2596.9
2188.08661	2598.1
2191.02278	2593
2193.95707	2588.9
2196.88948	2586.3
2199.82001	2588.1
2202.74867	2592.1
2205.67545	2582.2
2208.60037	2572.7
2211.52341	2568.1
2214.44458	2566
2217.36388	2566
2220.28132	2560.3
2223.1969	2557.6
2226.11061	2557.7
2229.02246	2551.7
2231.93245	2541.7
2234.84058	2551.1
2237.74686	2555.6
2240.65128	2526.5
2243.55385	2525.6
2246.45456	2531.2
2249.35343	2528.8
2252.25044	2521.5
2255.14561	2530.5
2258.03893	2524.2
2260.93041	2516.8
2263.82004	2504.6
2266.70783	2497.3
2269.59378	2506.1
2272.4779	2475.6
2275.36017	2480.4
2278.24061	2472.3
2281.11922	2465.2
2283.996	2461.5
2286.87094	2463.1
2289.74405	2462.3
2292.61534	2465.5
2295.4848	2463.6
2298.35243	2456.1
2301.21824	2458.7
2304.08223	2461.8
2306.94439	2458.7
2309.80474	2453.8
2312.66327	2469.6
2315.51999	2449.5
2318.37489	2453.1
2321.22797	2443.2
2324.07925	2442.7
2326.92871	2446.3
2329.77637	2446.9
2332.62222	2440.5
2335.46626	2433.7
2338.3085	2419.4
2341.14893	2431.5
2343.98756	2419.3
2346.8244	2427.8
2349.65943	2420
2352.49267	2424
2355.32411	2422.3
2358.15376	2430.7
2360.98161	2416.1
2363.80768	2423.1
2366.63195	2417.2
2369.45444	2426.1
2372.27514	2430.2
2375.09405	2418.9
2377.91118	2415.9
2380.72652	2408.6
2383.54009	2402.5
2386.35187	2406.1
2389.16188	2392.3
2391.97011	2378.9
2394.77657	2383.4
2397.58125	2365.6
2400.38416	2359.4
2403.18529	2358.9
2405.98466	2353.8
2408.78226	2347.7
2411.57809	2356.7
2414.37216	2350.1
2417.16446	2357.8
2419.955	2351.3
2422.74378	2346.4
2425.5308	2337.8
2428.31606	2341
2431.09956	2335.1
2433.88131	2344.8
2436.6613	2345
2439.43954	2335.4
2442.21603	2340.9
2444.99077	2339.3
2447.76377	2338.2
2450.53501	2336
2453.30451	2336.1
2456.07226	2333
2458.83827	2326.7
2461.60254	2314.1
2464.36507	2323.2
2467.12586	2322.4
2469.88492	2325.3
2472.64224	2312.7
2475.39782	2314.9
2478.15167	2330.4
2480.90379	2326.9
2483.65417	2338.7
2486.40283	2340.2
2489.14976	2344.8
2491.89497	2324.5
2494.63845	2337.7
2497.3802	2339.6
2500.12024	2331.6
2502.85855	2325.8
2505.59514	2317.4
2508.33002	2317.9
2511.06318	2315.5
2513.79462	2301.3
2516.52435	2300.5
2519.25237	2305.4
2521.97867	2302.5
2524.70327	2282.9
2527.42616	2285.1
2530.14734	2277
2532.86681	2278.1
2535.58458	2281.5
2538.30065	2273.5
2541.01501	2271.4
2543.72768	2280.8
2546.43864	2266.2
2549.14791	2275.3
2551.85548	2271.9
2554.56136	2264.6
2557.26554	2261.5
2559.96803	2262.8
2562.66883	2269.1
2565.36794	2256.2
2568.06536	2248.3
2570.7611	2250.9
2573.45514	2243.4
2576.14751	2243.5
2578.83819	2228.8
2581.52719	2233.4
2584.21451	2230.8
2586.90015	2236
2589.58411	2221.2
2592.2664	2212.3
2594.94701	2216
2597.62594	2222.2
2600.30321	2233.4
2602.9788	2231.1
2605.65273	2221.4
2608.32498	2227.9
2610.99557	2214.3
2613.66449	2203.7
2616.33175	2221.9
2618.99734	2207.8
2621.66128	2210.2
2624.32355	2205.8
2626.98416	2189.2
2629.64311	2191.8
2632.30041	2201
2634.95605	2184.5
2637.61004	2188
2640.26238	2180.8
2642.91306	2168.5
2645.56209	2184.6
2648.20948	2174.5
2650.85521	2181.7
2653.4993	2183.1
2656.14175	2178.6
2658.78255	2184
2661.42171	2177.6
2664.05923	2183.5
2666.6951	2174.5
2669.32934	2190.3
2671.96194	2191
2674.59291	2194.3
2677.22224	2174.1
2679.84993	2187.9
2682.476	2187.8
2685.10043	2187.9
2687.72324	2180.8
2690.34441	2171.1
2692.96396	2177.1
2695.58188	2187.8
2698.19818	2167
2700.81285	2182.5
2703.4259	2187.3
2706.03733	2179.3
2708.64714	2175.7
2711.25533	2179
2713.86191	2167.7
2716.46687	2188
2719.07021	2178.1
2721.67194	2183.3
2724.27206	2189
2726.87057	2188.4
2729.46747	2186.6
2732.06276	2196.7
2734.65644	2188.1
2737.24852	2185.3
2739.83899	2182.5
2742.42786	2199.9
2745.01513	2179.2
2747.60079	2180.4
2750.18486	2180.4
2752.76733	2172.8
2755.3482	2173.3
2757.92747	2174.3
2760.50515	2163
2763.08123	2170.5
2765.65573	2162.6
2768.22863	2163.6
2770.79994	2164.2
2773.36967	2165.3
2775.9378	2158.9
2778.50435	2153.1
2781.06932	2156
2783.6327	2149.2
2786.1945	2153.7
2788.75471	2151.9
2791.31335	2149.5
2793.87041	2154.9
2796.42589	2146.3
2798.97979	2142.7
2801.53212	2142.6
2804.08288	2135.3
2806.63206	2133.5
2809.17967	2126.9
2811.72571	2119.1
2814.27018	2121.2
2816.81308	2116.9
2819.35442	2106.2
2821.89419	2113.1
2824.43239	2122.2
2826.96904	2106.9
2829.50412	2110.6
2832.03763	2117.9
2834.56959	2107.4
2837.1	2104.6
2839.62884	2093
2842.15613	2097.3
2844.68186	2113.5
2847.20604	2104.4
2849.72867	2105
2852.24974	2115.3
2854.76927	2111.5
2857.28724	2111.8
2859.80367	2112.5
2862.31855	2116.2
2864.83189	2101.4
2867.34368	2105.2
2869.85393	2110.4
2872.36264	2094.5
2874.8698	2097.5
2877.37543	2095.2
2879.87952	2102
2882.38207	2100.5
2884.88308	2108.6
2887.38256	2096.5
2889.88051	2091.5
2892.37692	2097.9
2894.8718	2106.7
2897.36515	2105.4
2899.85698	2108.1
2902.34727	2110.1
2904.83604	2108.6
2907.32328	2117.8
2909.809	2118.7
2912.29319	2126.3
2914.77587	2123.6
2917.25702	2125.3
2919.73665	2114.3
2922.21476	2111.2
2924.69136	2117.4
2927.16644	2125.3
2929.64	2117.5
2932.11205	2123.9
2934.58258	2108.9
2937.05161	2105
2939.51912	2107.6
2941.98513	2108.3
2944.44962	2102.7
2946.91261	2092.2
2949.37409	2095.2
2951.83407	2110.4
2954.29254	2110.8
2956.74951	2111.2
2959.20498	2106.5
2961.65895	2101.9
2964.11142	2110.5
2966.56239	2102.2
2969.01186	2098.6
2971.45984	2111.2
2973.90632	2094.1
2976.35131	2095.1
2978.7948	2107.8
2981.23681	2095.3
2983.67732	2098.6
2986.11635	2095.1
2988.55388	2081.6
2990.98993	2074.9
2993.4245	2075.9
2995.85758	2078.8
2998.28917	2069.6
3000.71928	2081.4
3003.14791	2079.3
3005.57506	2077
3008.00073	2068.9
3010.42493	2068.1
3012.84764	2065.9
3015.26888	2073.5
3017.68865	2071.1
3020.10694	2073.1
3022.52376	2072.6
3024.9391	2057.2
3027.35298	2065.1
3029.76539	2067.7
3032.17632	2070.8
3034.5858	2074.2
3036.9938	2063.9
3039.40034	2074.7
3041.80542	2078.7
3044.20903	2079.6
3046.61118	2070.2
3049.01187	2067.9
3051.4111	2077.3
3053.80888	2082.1
3056.20519	2077.7
3058.60005	2078.4
3060.99345	2085.1
3063.3854	2069.2
3065.7759	2070.2
3068.16494	2071.2
3070.55254	2065.1
3072.93868	2064.5
3075.32338	2067
3077.70662	2065.8
3080.08842	2077.1
3082.46878	2063.9
3084.84769	2065.3
3087.22515	2077.6
3089.60118	2084.6
3091.97576	2089.3
3094.3489	2088.2
3096.72061	2087.8
3099.09087	2087.5
3101.4597	2109.5
3103.82709	2106.7
3106.19305	2113.4
3108.55757	2122.3
3110.92066	2120.7
3113.28232	2125
3115.64255	2119.3
3118.00134	2135.2
3120.35871	2132.5
3122.71466	2139.9
3125.06917	2134
3127.42226	2133.2
3129.77393	2149.4
3132.12417	2150.2
3134.47299	2149.8
3136.82039	2158.5
3139.16636	2163.5
3141.51092	2163.1
3143.85406	2179.2
3146.19579	2182.1
3148.53609	2188
3150.87499	2191.5
3153.21246	2191.6
3155.54853	2201
3157.88318	2215.8
3160.21642	2233.9
3162.54826	2226.2
3164.87868	2236.5
3167.2077	2239.9
3169.5353	2250.1
3171.86151	2254.6
3174.18631	2248.4
3176.5097	2275.7
3178.83169	2263.9
3181.15228	2285.5
3183.47147	2275.4
3185.78926	2287.1
3188.10565	2282
3190.42065	2294.2
3192.73424	2290.8
3195.04645	2300.1
3197.35725	2295.4
3199.66667	2298.3
3201.97469	2303.2
3204.28132	2315.5
3206.58656	2318.1
3208.8904	2316.5
3211.19287	2334.1
3213.49394	2332.5
3215.79363	2339.6
3218.09193	2348.5
3220.38884	2350.1
3222.68438	2355.6
3224.97853	2365.7
3227.2713	2343.4
3229.56269	2360.5
3231.8527	2356.7
3234.14133	2357.6
3236.42858	2350.3
3238.71446	2348.3
3240.99896	2357.7
3243.28209	2349.7
3245.56384	2345.1
3247.84423	2345.4
3250.12324	2349.3
3252.40088	2345.2
3254.67715	2339.6
3256.95205	2342.9
3259.22558	2349.5
3261.49775	2349.9
3263.76855	2338.6
3266.03799	2352.6
3268.30606	2347.6
3270.57277	2353.6
3272.83812	2336.8
3275.10211	2339.4
3277.36474	2332.9
3279.62601	2337.5
3281.88593	2326.9
3284.14448	2340
3286.40168	2342.6
3288.65753	2339
3290.91202	2339.5
3293.16516	2328.1
3295.41695	2332.2
3297.66738	2324.8
3299.91647	2309.8
3302.16421	2302
3304.4106	2273.5
3306.65564	2268.6
3308.89933	2251.2
3311.14169	2237.2
3313.38269	2221.5
3315.62236	2212
3317.86068	2186.2
3320.09766	2176.3
3322.3333	2159.7
3324.5676	2144.7
3326.80056	2123.7
3329.03219	2097.2
3331.26248	-0.1
3333.49143	0
3335.71905	-1.6
