Data from AgNPs_APTES_FTO_UA_100uM_CRN_0uM_R6G_10uM_Scan_RamanShift__22__11-05-21-257.txt Node

Date: Wed Jun 29 11:05:21 BST 2022
User: TCL
Spectrometer: QEP01345
Trigger mode: 4
Integration Time (sec): 7.000000E0
Scans to average: 10
Electric dark correction enabled: true
Nonlinearity correction enabled: false
Boxcar width: 0
XAxis mode: Raman Shifts
Number of Pixels in Spectrum: 1044
>>>>>Begin Spectral Data<<<<<
46.04893	0.1
50.45542	0.8
54.85868	0.4
59.25871	2.2
63.6555	31.5
68.04907	32.4
72.43941	35.3
76.82654	37.2
81.21044	41.4
85.59113	41.8
89.96862	43.8
94.34289	45.6
98.71396	44.6
103.08183	47.1
107.4465	46.9
111.80798	49.9
116.16626	48.2
120.52136	48.5
124.87327	46.1
129.222	47
133.56755	46.5
137.90993	44.3
142.24913	42.6
146.58517	42.3
150.91804	42.6
155.24774	45.5
159.57429	45.9
163.89768	50
168.21792	51.6
172.53501	62.7
176.84895	72.3
181.15975	91
185.46741	111.7
189.77193	142.9
194.07331	182.1
198.37157	232.9
202.6667	284.5
206.9587	325.7
211.24758	383.1
215.53334	437.8
219.81599	489.9
224.09553	543
228.37195	614.3
232.64527	681.9
236.91549	759.1
241.18261	832.7
245.44663	914.7
249.70755	976.3
253.96539	1015.1
258.22014	1050.1
262.4718	1065.3
266.72039	1066.2
270.96589	1048.2
275.20832	1018.2
279.44768	980.5
283.68397	956.4
287.91719	922.8
292.14735	888.4
296.37445	865.1
300.59849	851.2
304.81948	832.7
309.03742	833.4
313.25231	813
317.46415	800.3
321.67296	793.3
325.87872	786.6
330.08145	779.5
334.28114	777.8
338.47781	787.6
342.67145	794.4
346.86207	799.3
351.04966	815.1
355.23424	830.6
359.4158	832.7
363.59435	840.7
367.76989	851.4
371.94243	855.6
376.11196	857.6
380.27849	864.2
384.44203	871.4
388.60257	879.1
392.76012	880.6
396.91468	891.2
401.06626	912.2
405.21485	911.2
409.36047	937.3
413.50311	1023.6
417.64277	1183.6
421.77947	1278.2
425.9132	1027.4
430.04396	908.6
434.17176	892.8
438.2966	911.1
442.41849	916.4
446.53742	920.7
450.6534	929.4
454.76644	934.2
458.87653	939.8
462.98368	958.4
467.08789	959.8
471.18916	949.4
475.2875	953.8
479.38291	960.5
483.4754	963.4
487.56496	962.1
491.6516	970.1
495.73531	973.2
499.81612	969.1
503.89401	967.8
507.96899	971.1
512.04106	962.1
516.11023	954.1
520.1765	954.8
524.23987	949
528.30034	939.8
532.35792	937.3
536.41261	937.1
540.46441	937.7
544.51333	927.6
548.55936	934.6
552.60252	933.3
556.64279	937.9
560.6802	945.7
564.71473	936.8
568.7464	945
572.7752	951.9
576.80114	945.1
580.82422	942.7
584.84444	944.2
588.86181	946
592.87633	957.7
596.888	949.6
600.89682	965.5
604.9028	985.5
608.90594	1039.7
612.90624	1088.3
616.90371	1096.6
620.89834	1029.7
624.89015	996.5
628.87913	1001.9
632.86528	999.8
636.84862	1015.3
640.82913	1015.3
644.80683	1010.6
648.78172	1010.4
652.75379	1006.7
656.72306	1008.6
660.68952	1019.7
664.65319	1023.2
668.61405	1019
672.57211	1039.3
676.52738	1051.8
680.47986	1062.2
684.42955	1094.9
688.37646	1101.4
692.32058	1100
696.26192	1069.1
700.20048	1046
704.13626	1034.9
708.06928	1025.6
711.99952	1018.7
715.927	1023.8
719.85171	1015.4
723.77365	1016.4
727.69284	1009.3
731.60928	1008.6
735.52295	1002.6
739.43388	1013.5
743.34206	1013.5
747.24749	1001
751.15017	1010.5
755.05012	979
758.94733	1014.5
762.8418	1031.3
766.73354	1054
770.62254	1082.5
774.50882	1103.7
778.39237	1085.1
782.27321	1067.7
786.15132	1046.4
790.02671	1034.3
793.89938	1027.1
797.76935	1022.7
801.6366	1029.6
805.50115	1027.7
809.36299	1029.5
813.22213	1034.6
817.07857	1023.8
820.93231	1017.6
824.78336	1012.7
828.63172	1003.3
832.47738	998
836.32036	993.7
840.16066	991.8
843.99827	996.5
847.8332	1007.7
851.66546	994.7
855.49504	993.7
859.32195	996.6
863.1462	984.2
866.96777	993.1
870.78668	1000.6
874.60293	993.9
878.41652	999.9
882.22745	1001.8
886.03573	1002.4
889.84136	1004.5
893.64433	1017.6
897.44466	1019.1
901.24235	1016.2
905.0374	1024.1
908.8298	1026.3
912.61957	1022.4
916.40671	1022.6
920.19121	1037.2
923.97308	1034.3
927.75233	1045.8
931.52895	1046.1
935.30295	1023.8
939.07433	1029.5
942.84309	1012.1
946.60924	1003.6
950.37278	1002.8
954.13371	1004.4
957.89203	1006.7
961.64774	1001.7
965.40086	992
969.15137	984
972.89929	976.6
976.64461	983.8
980.38733	983.8
984.12747	979.4
987.86502	970.4
991.59999	980.8
995.33237	988.4
999.06217	984.5
1002.78939	983.6
1006.51404	991.8
1010.23611	995.5
1013.95561	996.2
1017.67255	1001.9
1021.38692	999.2
1025.09872	1006
1028.80796	1005.5
1032.51465	996.1
1036.21877	1000.6
1039.92035	1004.7
1043.61937	994.4
1047.31584	1001.4
1051.00976	1000.5
1054.70114	997.8
1058.38998	1006.2
1062.07627	1005.6
1065.76003	1007
1069.44126	1005.2
1073.11995	1013.2
1076.79611	1012.8
1080.46974	1012.1
1084.14085	1007.4
1087.80943	1009.9
1091.47549	1000.3
1095.13903	1005.5
1098.80005	988.9
1102.45857	988
1106.11456	983.3
1109.76805	989.8
1113.41903	994.7
1117.06751	1007
1120.71348	1011.3
1124.35696	1032
1127.99793	1056.7
1131.63641	1062.2
1135.2724	1069.7
1138.90589	1061.8
1142.5369	1058.1
1146.16542	1048.7
1149.79145	1044.9
1153.415	1030.9
1157.03607	1018.3
1160.65467	1010.5
1164.27079	1008.2
1167.88443	1015.7
1171.49561	1028.5
1175.10432	1043.5
1178.71056	1064.5
1182.31434	1087.9
1185.91565	1103.1
1189.51451	1098.1
1193.11091	1082
1196.70485	1075.9
1200.29634	1062.6
1203.88538	1056.1
1207.47197	1048.1
1211.05612	1048.4
1214.63782	1033.4
1218.21708	1040.1
1221.79391	1042.3
1225.36829	1043.5
1228.94024	1037.8
1232.50976	1035
1236.07685	1044.2
1239.6415	1034.8
1243.20374	1045.2
1246.76355	1039.9
1250.32093	1041.3
1253.8759	1044.7
1257.42845	1050.2
1260.97859	1049.2
1264.52631	1059.5
1268.07163	1069.3
1271.61453	1075.3
1275.15503	1082.4
1278.69312	1081.2
1282.22882	1089.1
1285.76211	1081.7
1289.29301	1107.8
1292.82151	1122.4
1296.34761	1131.7
1299.87133	1154.6
1303.39266	1176.4
1306.9116	1219.7
1310.42815	1247.3
1313.94233	1261.6
1317.45412	1246.8
1320.96354	1233.6
1324.47058	1208.2
1327.97525	1186.8
1331.47754	1188.8
1334.97747	1179.8
1338.47502	1191.5
1341.97022	1204.1
1345.46305	1229.1
1348.95352	1251.1
1352.44163	1279.6
1355.92738	1316.8
1359.41078	1359.5
1362.89183	1408.9
1366.37053	1413.4
1369.84688	1344.5
1373.32088	1278.5
1376.79254	1229.5
1380.26186	1206.4
1383.72883	1184.2
1387.19347	1170
1390.65578	1150.3
1394.11575	1141.1
1397.57339	1134.6
1401.0287	1139.6
1404.48168	1130.3
1407.93234	1117.3
1411.38068	1116.7
1414.82669	1093
1418.27039	1089.2
1421.71177	1080.9
1425.15083	1078.1
1428.58758	1072.4
1432.02203	1077.8
1435.45416	1050.8
1438.88399	1042
1442.31151	1039.3
1445.73673	1036.9
1449.15965	1027.2
1452.58027	1030
1455.9986	1023.1
1459.41463	1030.1
1462.82837	1026
1466.23982	1025
1469.64898	1039.4
1473.05586	1042.4
1476.46045	1049.7
1479.86276	1046.9
1483.26279	1054.7
1486.66054	1059.6
1490.05602	1063.5
1493.44922	1081.2
1496.84016	1088.9
1500.22882	1114.4
1503.61521	1159.5
1506.99934	1206.5
1510.38121	1234.1
1513.76081	1240.7
1517.13816	1209.9
1520.51324	1159.4
1523.88607	1111.6
1527.25665	1096.9
1530.62498	1080.8
1533.99105	1077
1537.35488	1074.2
1540.71647	1086.7
1544.07581	1083
1547.4329	1087.1
1550.78776	1087.4
1554.14038	1092
1557.49077	1098.1
1560.83892	1106.4
1564.18484	1106.7
1567.52853	1113.2
1570.86999	1121.5
1574.20922	1123.9
1577.54624	1123.3
1580.88103	1113.8
1584.2136	1095.2
1587.54395	1074
1590.87208	1073
1594.19801	1065.2
1597.52172	1063
1600.84321	1052.5
1604.16251	1047.8
1607.47959	1040.3
1610.79447	1034.4
1614.10715	1014.3
1617.41763	1013.3
1620.7259	1006.3
1624.03199	1004.4
1627.33587	994
1630.63757	988.6
1633.93707	984.6
1637.23439	982.4
1640.52951	983.1
1643.82246	993.9
1647.11321	1004.9
1650.40179	1014.6
1653.68819	1005.8
1656.97241	973.6
1660.25446	949.2
1663.53433	914.9
1666.81203	904.3
1670.08756	905
1673.36092	900.2
1676.63211	906.6
1679.90115	898.7
1683.16801	885.6
1686.43272	876.5
1689.69527	868.7
1692.95567	837.8
1696.2139	802.6
1699.46999	764.8
1702.72392	752.6
1705.97571	776.4
1709.22535	789.9
1712.47284	797.3
1715.71819	807.3
1718.96139	804.5
1722.20246	802.7
1725.44139	794.4
1728.67818	781.5
1731.91284	778.5
1735.14537	772.6
1738.37576	769.7
1741.60403	764.2
1744.83017	750
1748.05418	740.9
1751.27607	731.4
1754.49584	708.8
1757.71349	696.3
1760.92903	691.2
1764.14244	687.7
1767.35375	675.4
1770.56294	679.9
1773.77002	687.9
1776.97499	695.1
1780.17785	706.5
1783.37861	721.8
1786.57727	723.7
1789.77382	725.2
1792.96828	726.9
1796.16064	720.2
1799.3509	724.5
1802.53907	726.7
1805.72514	721.9
1808.90913	720.5
1812.09102	718.8
1815.27083	716.8
1818.44856	709.6
1821.6242	713.3
1824.79776	714
1827.96924	708.8
1831.13864	710.9
1834.30597	713.4
1837.47122	701.8
1840.6344	706.7
1843.7955	705.2
1846.95454	705.1
1850.11151	709.7
1853.26642	699.9
1856.41926	704.3
1859.57004	699.7
1862.71876	701.7
1865.86542	700.2
1869.01003	704.4
1872.15258	704.2
1875.29308	699.9
1878.43152	694.4
1881.56792	697.7
1884.70227	695.3
1887.83457	688.2
1890.96482	690.6
1894.09304	691.9
1897.21921	688
1900.34335	688
1903.46544	689.8
1906.58551	696.6
1909.70353	693.7
1912.81953	686.5
1915.93349	686.2
1919.04543	686.7
1922.15534	691.4
1925.26322	689.6
1928.36908	686.7
1931.47292	685.4
1934.57473	680.7
1937.67453	686.4
1940.77232	681.1
1943.86808	679.5
1946.96184	677.9
1950.05358	674.2
1953.14331	676.1
1956.23103	672
1959.31675	670.6
1962.40046	662.8
1965.48217	663.3
1968.56188	664.4
1971.63959	661.7
1974.7153	658.9
1977.78901	661.5
1980.86073	650.7
1983.93046	654
1986.99819	656.5
1990.06394	646.5
1993.1277	651.5
1996.18947	650.6
1999.24925	651.3
2002.30706	645.3
2005.36288	642.8
2008.41672	640.5
2011.46859	637
2014.51848	639.8
2017.56639	636.2
2020.61233	635.8
2023.6563	634.6
2026.6983	631.3
2029.73833	635.7
2032.7764	635.5
2035.8125	629.3
2038.84664	630.6
2041.87881	626.6
2044.90903	622.9
2047.93729	627.8
2050.96359	629.9
2053.98794	629.8
2057.01034	626.6
2060.03078	627.8
2063.04927	633.3
2066.06582	636.9
2069.08042	635
2072.09307	641.2
2075.10378	647.7
2078.11255	637.2
2081.11938	640
2084.12426	641.3
2087.12722	650.8
2090.12824	646.4
2093.12732	659.1
2096.12447	656.7
2099.11969	663.5
2102.11299	665.3
2105.10435	668.7
2108.09379	665.6
2111.08131	664.6
2114.0669	672.6
2117.05057	674
2120.03233	675.1
2123.01216	676.6
2125.99008	667.4
2128.96609	667.2
2131.94018	672.5
2134.91236	665.5
2137.88263	678.6
2140.851	665.9
2143.81746	664.3
2146.78201	659.4
2149.74466	661.6
2152.7054	659.1
2155.66425	660.2
2158.6212	662.7
2161.57625	663
2164.52941	659.5
2167.48067	658.2
2170.43004	661
2173.37752	659.1
2176.32311	656.3
2179.26681	656.9
2182.20863	652.7
2185.14856	656.3
2188.08661	654.3
2191.02278	650.9
2193.95707	648.1
2196.88948	641.3
2199.82001	643
2202.74867	639.5
2205.67545	641.4
2208.60037	630.4
2211.52341	634.6
2214.44458	629.5
2217.36388	630.7
2220.28132	633.9
2223.1969	629.1
2226.11061	623.7
2229.02246	619.1
2231.93245	621.3
2234.84058	620
2237.74686	627.2
2240.65128	620.1
2243.55385	615.1
2246.45456	618.7
2249.35343	625.1
2252.25044	623.6
2255.14561	622.3
2258.03893	615.4
2260.93041	596.5
2263.82004	604.2
2266.70783	613.8
2269.59378	604.7
2272.4779	601.1
2275.36017	606.8
2278.24061	606.9
2281.11922	607.2
2283.996	598.3
2286.87094	610.2
2289.74405	604.2
2292.61534	603.8
2295.4848	604.1
2298.35243	603
2301.21824	601.3
2304.08223	600.8
2306.94439	603
2309.80474	601.4
2312.66327	597.2
2315.51999	605.9
2318.37489	604.7
2321.22797	592.4
2324.07925	593.9
2326.92871	593.7
2329.77637	600
2332.62222	591.5
2335.46626	594.7
2338.3085	591.1
2341.14893	593.1
2343.98756	592.1
2346.8244	588.2
2349.65943	587.9
2352.49267	593.2
2355.32411	581.6
2358.15376	582.8
2360.98161	582.1
2363.80768	590.5
2366.63195	590.9
2369.45444	593.7
2372.27514	592.2
2375.09405	591.6
2377.91118	588.1
2380.72652	584.1
2383.54009	586.7
2386.35187	589.3
2389.16188	586.7
2391.97011	592.4
2394.77657	584.6
2397.58125	579.7
2400.38416	578.1
2403.18529	584.1
2405.98466	578.7
2408.78226	574.7
2411.57809	572.5
2414.37216	580
2417.16446	576.6
2419.955	577.7
2422.74378	578.8
2425.5308	573.9
2428.31606	579.3
2431.09956	579.4
2433.88131	571.6
2436.6613	575.4
2439.43954	573.6
2442.21603	571.5
2444.99077	570.5
2447.76377	576.5
2450.53501	579.2
2453.30451	578.1
2456.07226	579
2458.83827	566.5
2461.60254	570.4
2464.36507	571.3
2467.12586	573.1
2469.88492	575.7
2472.64224	568.7
2475.39782	560.3
2478.15167	557.5
2480.90379	566.9
2483.65417	566.5
2486.40283	566.9
2489.14976	572.1
2491.89497	569.5
2494.63845	558.9
2497.3802	561.5
2500.12024	563.4
2502.85855	560.1
2505.59514	563.3
2508.33002	564.5
2511.06318	562.9
2513.79462	566.6
2516.52435	563.9
2519.25237	569.4
2521.97867	562.1
2524.70327	563.3
2527.42616	562.6
2530.14734	563.1
2532.86681	562.5
2535.58458	568.5
2538.30065	558.7
2541.01501	562.9
2543.72768	560.7
2546.43864	556.4
2549.14791	559.3
2551.85548	565.5
2554.56136	559
2557.26554	556.9
2559.96803	554.4
2562.66883	559.9
2565.36794	557.6
2568.06536	548
2570.7611	550.2
2573.45514	554.4
2576.14751	553.1
2578.83819	549.5
2581.52719	548.3
2584.21451	551.1
2586.90015	547.2
2589.58411	548.7
2592.2664	545.2
2594.94701	549.4
2597.62594	547.7
2600.30321	553.6
2602.9788	550.5
2605.65273	546.4
2608.32498	541.8
2610.99557	544.4
2613.66449	543.7
2616.33175	546.4
2618.99734	547.8
2621.66128	540.2
2624.32355	538.2
2626.98416	545.2
2629.64311	543.2
2632.30041	547.5
2634.95605	542.9
2637.61004	541.2
2640.26238	541
2642.91306	535.8
2645.56209	541.9
2648.20948	535.3
2650.85521	538.9
2653.4993	539.1
2656.14175	538.4
2658.78255	538.7
2661.42171	537.9
2664.05923	533.3
2666.6951	540.9
2669.32934	536.1
2671.96194	541.4
2674.59291	542
2677.22224	538.9
2679.84993	536.9
2682.476	538.4
2685.10043	538.7
2687.72324	544.3
2690.34441	539
2692.96396	542.8
2695.58188	535
2698.19818	537
2700.81285	545.8
2703.4259	531.7
2706.03733	483
2708.64714	508.5
2711.25533	525.1
2713.86191	527.7
2716.46687	532.8
2719.07021	529.4
2721.67194	548.2
2724.27206	543.7
2726.87057	545.5
2729.46747	545.2
2732.06276	549.7
2734.65644	551
2737.24852	548.5
2739.83899	550.5
2742.42786	545.6
2745.01513	540.6
2747.60079	549.3
2750.18486	542.5
2752.76733	545.4
2755.3482	544.5
2757.92747	545.1
2760.50515	545.5
2763.08123	535.8
2765.65573	545.3
2768.22863	543.1
2770.79994	546.4
2773.36967	548.7
2775.9378	541.2
2778.50435	538.3
2781.06932	542.5
2783.6327	542.3
2786.1945	540.2
2788.75471	541.7
2791.31335	541.7
2793.87041	544.7
2796.42589	544.1
2798.97979	542.2
2801.53212	539.8
2804.08288	534.6
2806.63206	534
2809.17967	532.9
2811.72571	530.3
2814.27018	529.5
2816.81308	529.9
2819.35442	527.4
2821.89419	523.6
2824.43239	529.8
2826.96904	521.9
2829.50412	528.2
2832.03763	529.9
2834.56959	528
2837.1	527.9
2839.62884	531
2842.15613	524.9
2844.68186	530
2847.20604	531.3
2849.72867	521.1
2852.24974	530.3
2854.76927	524.2
2857.28724	511.1
2859.80367	520.7
2862.31855	527.4
2864.83189	528.5
2867.34368	530.2
2869.85393	527.3
2872.36264	524.3
2874.8698	531.6
2877.37543	527.3
2879.87952	532.6
2882.38207	529.7
2884.88308	534.1
2887.38256	540.7
2889.88051	537.5
2892.37692	540.9
2894.8718	539.8
2897.36515	546.4
2899.85698	535.6
2902.34727	543.7
2904.83604	539.5
2907.32328	545.2
2909.809	546.4
2912.29319	550.9
2914.77587	549.7
2917.25702	554.2
2919.73665	550.5
2922.21476	548.7
2924.69136	552.5
2927.16644	556.9
2929.64	556.3
2932.11205	559.8
2934.58258	555.3
2937.05161	554.8
2939.51912	556.9
2941.98513	560.5
2944.44962	553
2946.91261	557.5
2949.37409	553.4
2951.83407	561.3
2954.29254	564.8
2956.74951	561.9
2959.20498	559.2
2961.65895	559.7
2964.11142	568.9
2966.56239	563.4
2969.01186	557
2971.45984	561.7
2973.90632	560.1
2976.35131	566.6
2978.7948	564.2
2981.23681	569.7
2983.67732	566
2986.11635	569
2988.55388	565.8
2990.98993	561.9
2993.4245	563.1
2995.85758	563.7
2998.28917	558.9
3000.71928	570.9
3003.14791	571
3005.57506	570.7
3008.00073	572.4
3010.42493	577
3012.84764	573.3
3015.26888	573.4
3017.68865	581.9
3020.10694	571.7
3022.52376	584.6
3024.9391	586.5
3027.35298	586.1
3029.76539	588.8
3032.17632	586.8
3034.5858	582.5
3036.9938	588.7
3039.40034	597.7
3041.80542	598.9
3044.20903	597.4
3046.61118	606.5
3049.01187	604.3
3051.4111	606.2
3053.80888	606.9
3056.20519	616.9
3058.60005	619.7
3060.99345	621.3
3063.3854	619.8
3065.7759	618.6
3068.16494	625.2
3070.55254	627.8
3072.93868	631.5
3075.32338	632.3
3077.70662	639.4
3080.08842	639.6
3082.46878	635.4
3084.84769	642.4
3087.22515	652.1
3089.60118	652.1
3091.97576	661
3094.3489	665.7
3096.72061	670.3
3099.09087	671.5
3101.4597	676.9
3103.82709	692
3106.19305	689.1
3108.55757	693
3110.92066	702.2
3113.28232	706.8
3115.64255	702.6
3118.00134	715.4
3120.35871	723.7
3122.71466	724.6
3125.06917	728.6
3127.42226	724.3
3129.77393	742.2
3132.12417	743.5
3134.47299	745.6
3136.82039	750.6
3139.16636	785.7
3141.51092	773.9
3143.85406	771.1
3146.19579	780.8
3148.53609	777.7
3150.87499	787.8
3153.21246	800.3
3155.54853	796.7
3157.88318	813.2
3160.21642	819.9
3162.54826	820.3
3164.87868	831.5
3167.2077	838.4
3169.5353	847.6
3171.86151	850.7
3174.18631	858
3176.5097	856.2
3178.83169	866.3
3181.15228	866.2
3183.47147	870.7
3185.78926	874.5
3188.10565	881.7
3190.42065	886.1
3192.73424	892.4
3195.04645	896
3197.35725	892.9
3199.66667	906.5
3201.97469	911.9
3204.28132	916.1
3206.58656	923.3
3208.8904	931.8
3211.19287	930.3
3213.49394	936.9
3215.79363	933.7
3218.09193	942.4
3220.38884	936.4
3222.68438	936.7
3224.97853	939.6
3227.2713	953.5
3229.56269	953.3
3231.8527	961.9
3234.14133	955.8
3236.42858	951.2
3238.71446	958.4
3240.99896	955.1
3243.28209	958.9
3245.56384	955.2
3247.84423	951.2
3250.12324	959.9
3252.40088	956.7
3254.67715	958.6
3256.95205	964.3
3259.22558	961.2
3261.49775	964.4
3263.76855	964
3266.03799	970.9
3268.30606	962
3270.57277	969.7
3272.83812	963.7
3275.10211	959
3277.36474	967.3
3279.62601	969.7
3281.88593	971.9
3284.14448	965.3
3286.40168	965.1
3288.65753	961.4
3290.91202	967.9
3293.16516	958.8
3295.41695	962.8
3297.66738	951
3299.91647	957.7
3302.16421	943.4
3304.4106	946.7
3306.65564	944.7
3308.89933	930.1
3311.14169	922.8
3313.38269	916.4
3315.62236	913.7
3317.86068	899.7
3320.09766	902.8
3322.3333	890.1
3324.5676	884.3
3326.80056	862.8
3329.03219	868.6
3331.26248	-0.4
3333.49143	0
3335.71905	-2.7
