Data from AgNPs_APTES_FTO_UA_100uM_CRN_0uM_R6G_10uM_Scan_RamanShift__1__10-40-51-227.txt Node

Date: Wed Jun 29 10:40:51 BST 2022
User: TCL
Spectrometer: QEP01345
Trigger mode: 4
Integration Time (sec): 7.000000E0
Scans to average: 10
Electric dark correction enabled: true
Nonlinearity correction enabled: false
Boxcar width: 0
XAxis mode: Raman Shifts
Number of Pixels in Spectrum: 1044
>>>>>Begin Spectral Data<<<<<
46.04893	0.6
50.45542	0.2
54.85868	0.7
59.25871	1.1
63.6555	41
68.04907	44.9
72.43941	48.6
76.82654	50.7
81.21044	53.4
85.59113	56.8
89.96862	60.9
94.34289	59.5
98.71396	66.6
103.08183	65
107.4465	62.8
111.80798	65.2
116.16626	64
120.52136	66.8
124.87327	60.6
129.222	64.5
133.56755	59.9
137.90993	57.9
142.24913	57.8
146.58517	58.3
150.91804	60
155.24774	60
159.57429	63.1
163.89768	66.1
168.21792	75.8
172.53501	89.4
176.84895	103.9
181.15975	133.1
185.46741	172.8
189.77193	223
194.07331	286.9
198.37157	365.9
202.6667	450.7
206.9587	525.2
211.24758	611.6
215.53334	696.6
219.81599	792
224.09553	881.9
228.37195	995.7
232.64527	1109.1
236.91549	1229.3
241.18261	1345.4
245.44663	1477.4
249.70755	1579.2
253.96539	1643.3
258.22014	1691.8
262.4718	1710.5
266.72039	1692.3
270.96589	1660
275.20832	1604.5
279.44768	1553.2
283.68397	1472.5
287.91719	1420.9
292.14735	1351.1
296.37445	1297.8
300.59849	1255.3
304.81948	1218.9
309.03742	1189.6
313.25231	1156.4
317.46415	1126.2
321.67296	1115.5
325.87872	1093.8
330.08145	1082.7
334.28114	1074.5
338.47781	1082.2
342.67145	1092
346.86207	1096
351.04966	1099.1
355.23424	1124.7
359.4158	1125.5
363.59435	1133.5
367.76989	1142.5
371.94243	1147.4
376.11196	1151.1
380.27849	1161.7
384.44203	1157.9
388.60257	1160.5
392.76012	1157.9
396.91468	1165.5
401.06626	1181.7
405.21485	1185.3
409.36047	1196.8
413.50311	1192.6
417.64277	1187.4
421.77947	1188.3
425.9132	1194.8
430.04396	1199.2
434.17176	1211
438.2966	1224.3
442.41849	1235.2
446.53742	1246.5
450.6534	1254.2
454.76644	1259.3
458.87653	1271
462.98368	1274.2
467.08789	1270.5
471.18916	1267.7
475.2875	1276.6
479.38291	1270.9
483.4754	1271
487.56496	1268.8
491.6516	1285.1
495.73531	1278.6
499.81612	1270.2
503.89401	1267.8
507.96899	1258.6
512.04106	1261.1
516.11023	1253.9
520.1765	1256.6
524.23987	1246.1
528.30034	1248.1
532.35792	1244.3
536.41261	1241.1
540.46441	1240.1
544.51333	1234.8
548.55936	1231.2
552.60252	1237.8
556.64279	1237.1
560.6802	1243.9
564.71473	1235.1
568.7464	1251.3
572.7752	1247.2
576.80114	1251
580.82422	1239.8
584.84444	1239.2
588.86181	1244.2
592.87633	1246.9
596.888	1247.2
600.89682	1262.8
604.9028	1295.9
608.90594	1354.1
612.90624	1413.8
616.90371	1419.7
620.89834	1362.3
624.89015	1331.7
628.87913	1330.3
632.86528	1324.6
636.84862	1318.5
640.82913	1315.7
644.80683	1320.1
648.78172	1303.9
652.75379	1318.2
656.72306	1329.1
660.68952	1347.8
664.65319	1356.1
668.61405	1381.3
672.57211	1397.8
676.52738	1427.5
680.47986	1439.6
684.42955	1458.1
688.37646	1470.5
692.32058	1473.5
696.26192	1463.8
700.20048	1460.7
704.13626	1462.5
708.06928	1460.2
711.99952	1444.2
715.927	1433.3
719.85171	1410.1
723.77365	1393.5
727.69284	1369.9
731.60928	1369
735.52295	1360
739.43388	1350.2
743.34206	1356.5
747.24749	1356
751.15017	1353.8
755.05012	1333.3
758.94733	1355
762.8418	1378.7
766.73354	1393.9
770.62254	1429.9
774.50882	1454.1
778.39237	1450.8
782.27321	1434.3
786.15132	1427.2
790.02671	1401.3
793.89938	1406.6
797.76935	1409.1
801.6366	1406.8
805.50115	1405.4
809.36299	1418.9
813.22213	1424.6
817.07857	1415.4
820.93231	1415.1
824.78336	1402.2
828.63172	1390
832.47738	1393.5
836.32036	1391.5
840.16066	1389.3
843.99827	1397.9
847.8332	1388.4
851.66546	1379.7
855.49504	1364.4
859.32195	1363.5
863.1462	1373.1
866.96777	1377.7
870.78668	1388.7
874.60293	1394.8
878.41652	1405.7
882.22745	1428.5
886.03573	1447
889.84136	1490
893.64433	1516.8
897.44466	1530.1
901.24235	1532.9
905.0374	1520.3
908.8298	1522.3
912.61957	1520.8
916.40671	1544.2
920.19121	1563.9
923.97308	1587.3
927.75233	1595.1
931.52895	1590.3
935.30295	1569.5
939.07433	1550.1
942.84309	1521.4
946.60924	1509.6
950.37278	1505.4
954.13371	1490.8
957.89203	1470.1
961.64774	1462.6
965.40086	1456.2
969.15137	1454.6
972.89929	1451.3
976.64461	1451.7
980.38733	1440.5
984.12747	1436
987.86502	1446.7
991.59999	1436.7
995.33237	1434.7
999.06217	1450.2
1002.78939	1450.4
1006.51404	1451.2
1010.23611	1456.5
1013.95561	1448.6
1017.67255	1448.2
1021.38692	1451.6
1025.09872	1464.7
1028.80796	1462.4
1032.51465	1465.4
1036.21877	1466.4
1039.92035	1467
1043.61937	1473.3
1047.31584	1484.9
1051.00976	1476.5
1054.70114	1485.8
1058.38998	1465.4
1062.07627	1470.2
1065.76003	1448.9
1069.44126	1436.8
1073.11995	1433
1076.79611	1412.1
1080.46974	1416
1084.14085	1401.6
1087.80943	1403.6
1091.47549	1393
1095.13903	1395.9
1098.80005	1381.5
1102.45857	1375.3
1106.11456	1376.4
1109.76805	1368.7
1113.41903	1366.5
1117.06751	1383.5
1120.71348	1385.5
1124.35696	1402.3
1127.99793	1420.1
1131.63641	1421.1
1135.2724	1430.5
1138.90589	1433.3
1142.5369	1423.9
1146.16542	1416.7
1149.79145	1418.3
1153.415	1408.7
1157.03607	1405.1
1160.65467	1398.2
1164.27079	1407.3
1167.88443	1414.1
1171.49561	1425.6
1175.10432	1433.1
1178.71056	1469.2
1182.31434	1492.6
1185.91565	1497.1
1189.51451	1486
1193.11091	1474.5
1196.70485	1470.2
1200.29634	1465.9
1203.88538	1458
1207.47197	1451.3
1211.05612	1449.8
1214.63782	1445.1
1218.21708	1449.2
1221.79391	1452.8
1225.36829	1454.9
1228.94024	1468.4
1232.50976	1473.9
1236.07685	1484.9
1239.6415	1500.5
1243.20374	1511.6
1246.76355	1519.2
1250.32093	1525.7
1253.8759	1536.5
1257.42845	1541.7
1260.97859	1550.6
1264.52631	1555.5
1268.07163	1569.8
1271.61453	1582.2
1275.15503	1592.5
1278.69312	1604.9
1282.22882	1611
1285.76211	1628.9
1289.29301	1638.3
1292.82151	1668.1
1296.34761	1687.9
1299.87133	1707.7
1303.39266	1728.5
1306.9116	1759.6
1310.42815	1790.3
1313.94233	1809.5
1317.45412	1800.4
1320.96354	1779.1
1324.47058	1766.1
1327.97525	1752.3
1331.47754	1763.3
1334.97747	1772.6
1338.47502	1794.9
1341.97022	1816.5
1345.46305	1846.3
1348.95352	1886.4
1352.44163	1926.1
1355.92738	1975.4
1359.41078	2041.6
1362.89183	2104.9
1366.37053	2129.4
1369.84688	2081.3
1373.32088	2026.8
1376.79254	1992.2
1380.26186	1980.7
1383.72883	1970.8
1387.19347	1963.3
1390.65578	1968.4
1394.11575	1949.1
1397.57339	1942.7
1401.0287	1943.7
1404.48168	1940
1407.93234	1924.3
1411.38068	1921.6
1414.82669	1905.9
1418.27039	1897.3
1421.71177	1891.9
1425.15083	1862.4
1428.58758	1852.9
1432.02203	1823.8
1435.45416	1813
1438.88399	1790.6
1442.31151	1766.7
1445.73673	1763.7
1449.15965	1761.3
1452.58027	1750.8
1455.9986	1762.1
1459.41463	1750.5
1462.82837	1751.3
1466.23982	1765.7
1469.64898	1785.1
1473.05586	1794
1476.46045	1802.4
1479.86276	1795.7
1483.26279	1817
1486.66054	1813.5
1490.05602	1817.5
1493.44922	1818.6
1496.84016	1827.3
1500.22882	1851.5
1503.61521	1862.1
1506.99934	1893.7
1510.38121	1907.2
1513.76081	1893.8
1517.13816	1845.5
1520.51324	1781.2
1523.88607	1741.4
1527.25665	1686.3
1530.62498	1660.4
1533.99105	1644
1537.35488	1621.2
1540.71647	1622.3
1544.07581	1613.4
1547.4329	1600.6
1550.78776	1590.1
1554.14038	1588.9
1557.49077	1580.3
1560.83892	1569.2
1564.18484	1580.1
1567.52853	1572.9
1570.86999	1565.8
1574.20922	1566.1
1577.54624	1559.5
1580.88103	1554.8
1584.2136	1544.5
1587.54395	1511.1
1590.87208	1492.1
1594.19801	1489.3
1597.52172	1485
1600.84321	1476.4
1604.16251	1460.1
1607.47959	1454.9
1610.79447	1437.7
1614.10715	1429.8
1617.41763	1418.6
1620.7259	1418.7
1624.03199	1412.6
1627.33587	1410.6
1630.63757	1400.1
1633.93707	1397.4
1637.23439	1389.1
1640.52951	1388.4
1643.82246	1392
1647.11321	1398.1
1650.40179	1416.4
1653.68819	1409
1656.97241	1375.3
1660.25446	1342.4
1663.53433	1299.1
1666.81203	1281
1670.08756	1254.1
1673.36092	1253.2
1676.63211	1250.5
1679.90115	1224.4
1683.16801	1205.4
1686.43272	1211.8
1689.69527	1192.6
1692.95567	1173.9
1696.2139	1156.1
1699.46999	1145.8
1702.72392	1143.7
1705.97571	1141.7
1709.22535	1133.9
1712.47284	1133.3
1715.71819	1128.9
1718.96139	1130.3
1722.20246	1114.8
1725.44139	1106
1728.67818	1103.4
1731.91284	1091.1
1735.14537	1083.5
1738.37576	1079.8
1741.60403	1077.6
1744.83017	1067.4
1748.05418	1065.2
1751.27607	1058.5
1754.49584	1051.1
1757.71349	1055.5
1760.92903	1047.9
1764.14244	1041.4
1767.35375	1036.1
1770.56294	1033.1
1773.77002	1035.7
1776.97499	1038.9
1780.17785	1036.9
1783.37861	1035.4
1786.57727	1033.5
1789.77382	1033
1792.96828	1029.8
1796.16064	1035.4
1799.3509	1030.5
1802.53907	1029.1
1805.72514	1017.9
1808.90913	1014.6
1812.09102	1018.7
1815.27083	1018.5
1818.44856	1015.2
1821.6242	1011.2
1824.79776	1005.2
1827.96924	1002.5
1831.13864	1010.8
1834.30597	1005.5
1837.47122	998.7
1840.6344	999.3
1843.7955	996.6
1846.95454	1000.6
1850.11151	993.1
1853.26642	994.4
1856.41926	996.4
1859.57004	991.7
1862.71876	993.4
1865.86542	987.3
1869.01003	996.5
1872.15258	996.3
1875.29308	989.4
1878.43152	981.7
1881.56792	987.9
1884.70227	979.9
1887.83457	988.1
1890.96482	981.4
1894.09304	978.8
1897.21921	970.1
1900.34335	979.9
1903.46544	978.9
1906.58551	978
1909.70353	975.3
1912.81953	980
1915.93349	970.9
1919.04543	978.7
1922.15534	967
1925.26322	977.4
1928.36908	972.4
1931.47292	973.3
1934.57473	971.5
1937.67453	971.6
1940.77232	969.8
1943.86808	967.6
1946.96184	961
1950.05358	955
1953.14331	956.5
1956.23103	951.8
1959.31675	951.3
1962.40046	947.1
1965.48217	952.7
1968.56188	944.1
1971.63959	944.6
1974.7153	941.6
1977.78901	929.9
1980.86073	927.7
1983.93046	927
1986.99819	921.8
1990.06394	926.5
1993.1277	923.8
1996.18947	921.1
1999.24925	920.1
2002.30706	915.6
2005.36288	913.1
2008.41672	903
2011.46859	907.7
2014.51848	902.9
2017.56639	900.1
2020.61233	906.4
2023.6563	896.7
2026.6983	904.6
2029.73833	894.3
2032.7764	897.2
2035.8125	902.1
2038.84664	888.8
2041.87881	906.1
2044.90903	898.7
2047.93729	908.7
2050.96359	904.2
2053.98794	912
2057.01034	916.3
2060.03078	920.6
2063.04927	925.8
2066.06582	941
2069.08042	943.3
2072.09307	956.2
2075.10378	955.3
2078.11255	968.1
2081.11938	976.1
2084.12426	991.2
2087.12722	998.8
2090.12824	1001
2093.12732	1007.1
2096.12447	1009.4
2099.11969	1016.6
2102.11299	1024.3
2105.10435	1017.2
2108.09379	1016.9
2111.08131	1019.1
2114.0669	1011.2
2117.05057	1010.2
2120.03233	1001
2123.01216	996.3
2125.99008	994.6
2128.96609	979.1
2131.94018	975.2
2134.91236	978.6
2137.88263	969.5
2140.851	956.5
2143.81746	955.7
2146.78201	941.9
2149.74466	943.4
2152.7054	936.7
2155.66425	939.4
2158.6212	931.2
2161.57625	929.4
2164.52941	932.3
2167.48067	918
2170.43004	927.3
2173.37752	922.7
2176.32311	910.5
2179.26681	914.7
2182.20863	912.4
2185.14856	910.9
2188.08661	910.8
2191.02278	902.3
2193.95707	900.3
2196.88948	892.3
2199.82001	883.6
2202.74867	889
2205.67545	882
2208.60037	875.4
2211.52341	883.2
2214.44458	872.9
2217.36388	869.4
2220.28132	874.2
2223.1969	864.4
2226.11061	874.3
2229.02246	862.4
2231.93245	865.4
2234.84058	860.9
2237.74686	862.8
2240.65128	861
2243.55385	853.7
2246.45456	859.3
2249.35343	851.8
2252.25044	859.1
2255.14561	850.6
2258.03893	851.3
2260.93041	848.8
2263.82004	852.9
2266.70783	842.4
2269.59378	836.8
2272.4779	843
2275.36017	835.7
2278.24061	845.7
2281.11922	838.2
2283.996	830.7
2286.87094	838.1
2289.74405	829.6
2292.61534	832.9
2295.4848	836.1
2298.35243	833.7
2301.21824	827.8
2304.08223	837.3
2306.94439	829.8
2309.80474	830.6
2312.66327	833.9
2315.51999	834.9
2318.37489	829.5
2321.22797	823.4
2324.07925	825.8
2326.92871	821.1
2329.77637	829.9
2332.62222	828.2
2335.46626	821.8
2338.3085	814.6
2341.14893	818.2
2343.98756	813.3
2346.8244	811.7
2349.65943	814.9
2352.49267	811.9
2355.32411	807
2358.15376	809.7
2360.98161	812.2
2363.80768	811.3
2366.63195	808
2369.45444	810.4
2372.27514	810.4
2375.09405	802.9
2377.91118	803.3
2380.72652	807.9
2383.54009	807.1
2386.35187	808.9
2389.16188	808.3
2391.97011	801.9
2394.77657	799.6
2397.58125	793.7
2400.38416	792.9
2403.18529	792.9
2405.98466	785.8
2408.78226	792.5
2411.57809	785.7
2414.37216	793
2417.16446	790
2419.955	790.3
2422.74378	793.8
2425.5308	787.3
2428.31606	787.6
2431.09956	777.6
2433.88131	781.7
2436.6613	785.3
2439.43954	787.9
2442.21603	788.4
2444.99077	784
2447.76377	783.3
2450.53501	784.7
2453.30451	787.4
2456.07226	780.5
2458.83827	775.7
2461.60254	770
2464.36507	777.6
2467.12586	780
2469.88492	774.8
2472.64224	776.8
2475.39782	775
2478.15167	771.3
2480.90379	773.6
2483.65417	769.8
2486.40283	767.9
2489.14976	779.8
2491.89497	773.2
2494.63845	773.1
2497.3802	772.1
2500.12024	767.9
2502.85855	761.1
2505.59514	763.5
2508.33002	767.7
2511.06318	764.6
2513.79462	768.2
2516.52435	766.2
2519.25237	769.1
2521.97867	769.2
2524.70327	766.8
2527.42616	770
2530.14734	757.1
2532.86681	766
2535.58458	762.9
2538.30065	760.2
2541.01501	758
2543.72768	760.3
2546.43864	754.7
2549.14791	753
2551.85548	756.9
2554.56136	750.5
2557.26554	754.4
2559.96803	749.1
2562.66883	750
2565.36794	750.8
2568.06536	744.2
2570.7611	742
2573.45514	750.3
2576.14751	741.4
2578.83819	734.4
2581.52719	739.3
2584.21451	741.8
2586.90015	737
2589.58411	739.9
2592.2664	737.2
2594.94701	733.7
2597.62594	739.8
2600.30321	737.9
2602.9788	741.4
2605.65273	740
2608.32498	729.3
2610.99557	730
2613.66449	731.8
2616.33175	740.7
2618.99734	728.1
2621.66128	734.1
2624.32355	727.5
2626.98416	730.5
2629.64311	722.6
2632.30041	729.8
2634.95605	724.5
2637.61004	729.8
2640.26238	723
2642.91306	719.9
2645.56209	725.1
2648.20948	723.5
2650.85521	718.1
2653.4993	722.5
2656.14175	721.6
2658.78255	724.6
2661.42171	719
2664.05923	718.2
2666.6951	729.1
2669.32934	722.4
2671.96194	723.2
2674.59291	728.6
2677.22224	724.4
2679.84993	723.1
2682.476	722.1
2685.10043	722.3
2687.72324	720.6
2690.34441	726.4
2692.96396	725.7
2695.58188	728.1
2698.19818	724
2700.81285	719.4
2703.4259	724.8
2706.03733	719.4
2708.64714	719.7
2711.25533	727.5
2713.86191	726.1
2716.46687	722.8
2719.07021	724.4
2721.67194	734.1
2724.27206	724.5
2726.87057	724.8
2729.46747	735.9
2732.06276	731.7
2734.65644	734.5
2737.24852	729.8
2739.83899	729.8
2742.42786	738.8
2745.01513	723.5
2747.60079	728.4
2750.18486	730.1
2752.76733	726
2755.3482	730.3
2757.92747	725.1
2760.50515	719.7
2763.08123	726
2765.65573	728.9
2768.22863	719.2
2770.79994	729.5
2773.36967	722.2
2775.9378	721.6
2778.50435	729.7
2781.06932	719
2783.6327	719.5
2786.1945	723.9
2788.75471	714.7
2791.31335	723.7
2793.87041	724.3
2796.42589	717.7
2798.97979	719.8
2801.53212	717.8
2804.08288	718.4
2806.63206	714.7
2809.17967	713
2811.72571	707.3
2814.27018	710.1
2816.81308	704.6
2819.35442	710.2
2821.89419	705.1
2824.43239	703.4
2826.96904	699.9
2829.50412	704.2
2832.03763	703.5
2834.56959	712.2
2837.1	702.6
2839.62884	698.5
2842.15613	697.3
2844.68186	703.5
2847.20604	697
2849.72867	699.9
2852.24974	703.2
2854.76927	701.5
2857.28724	700.5
2859.80367	700.3
2862.31855	696
2864.83189	694.1
2867.34368	697.3
2869.85393	697.9
2872.36264	691
2874.8698	699.3
2877.37543	693
2879.87952	700.1
2882.38207	700.3
2884.88308	700
2887.38256	695.4
2889.88051	705.4
2892.37692	708.8
2894.8718	706.3
2897.36515	711.6
2899.85698	707.8
2902.34727	715.8
2904.83604	715.6
2907.32328	718
2909.809	721.8
2912.29319	721.2
2914.77587	727
2917.25702	730.1
2919.73665	738.4
2922.21476	735.6
2924.69136	734.4
2927.16644	735.3
2929.64	742.5
2932.11205	745.9
2934.58258	736.4
2937.05161	737.9
2939.51912	729
2941.98513	742
2944.44962	734.2
2946.91261	735.6
2949.37409	732.8
2951.83407	736.7
2954.29254	742.4
2956.74951	741.4
2959.20498	731.5
2961.65895	731.6
2964.11142	733.1
2966.56239	732.3
2969.01186	726.6
2971.45984	738.7
2973.90632	732.2
2976.35131	734.6
2978.7948	731.9
2981.23681	736.9
2983.67732	731.2
2986.11635	736.4
2988.55388	730.7
2990.98993	730.1
2993.4245	729.3
2995.85758	732
2998.28917	738.2
3000.71928	742.7
3003.14791	732.7
3005.57506	737.5
3008.00073	735.7
3010.42493	737.7
3012.84764	740.8
3015.26888	741.5
3017.68865	742.9
3020.10694	740
3022.52376	746.3
3024.9391	746
3027.35298	747.2
3029.76539	752.1
3032.17632	750.9
3034.5858	751.1
3036.9938	757.4
3039.40034	760.8
3041.80542	759.6
3044.20903	772.4
3046.61118	771
3049.01187	770.5
3051.4111	772.1
3053.80888	778.9
3056.20519	782.9
3058.60005	780.7
3060.99345	790.5
3063.3854	781.8
3065.7759	795.2
3068.16494	783
3070.55254	792.5
3072.93868	793.5
3075.32338	804.3
3077.70662	803
3080.08842	801.4
3082.46878	806.2
3084.84769	815.8
3087.22515	819.6
3089.60118	828.9
3091.97576	833.4
3094.3489	831.9
3096.72061	833.7
3099.09087	847
3101.4597	855
3103.82709	856.6
3106.19305	864.4
3108.55757	866.9
3110.92066	872.5
3113.28232	882.7
3115.64255	884.2
3118.00134	889.6
3120.35871	891.5
3122.71466	907.3
3125.06917	901.2
3127.42226	901.7
3129.77393	914.9
3132.12417	919.2
3134.47299	927.5
3136.82039	936
3139.16636	940.1
3141.51092	951.3
3143.85406	952.5
3146.19579	965.2
3148.53609	968.8
3150.87499	974.8
3153.21246	983.4
3155.54853	996
3157.88318	1012.1
3160.21642	1016
3162.54826	1022
3164.87868	1034
3167.2077	1041.2
3169.5353	1049
3171.86151	1058.1
3174.18631	1065.8
3176.5097	1059.9
3178.83169	1069.3
3181.15228	1072.6
3183.47147	1081.6
3185.78926	1090.1
3188.10565	1086.6
3190.42065	1100.6
3192.73424	1098.2
3195.04645	1106.4
3197.35725	1109.3
3199.66667	1124.2
3201.97469	1124.5
3204.28132	1131.3
3206.58656	1140
3208.8904	1150.9
3211.19287	1147.4
3213.49394	1156
3215.79363	1159.1
3218.09193	1169.5
3220.38884	1166.4
3222.68438	1169.5
3224.97853	1167.7
3227.2713	1172.9
3229.56269	1168
3231.8527	1177.1
3234.14133	1181.8
3236.42858	1175.5
3238.71446	1178.2
3240.99896	1177.3
3243.28209	1179.5
3245.56384	1178.1
3247.84423	1177.7
3250.12324	1175.5
3252.40088	1180.7
3254.67715	1174.4
3256.95205	1183.2
3259.22558	1191.1
3261.49775	1177.5
3263.76855	1183.9
3266.03799	1196.3
3268.30606	1184.2
3270.57277	1182.9
3272.83812	1186.7
3275.10211	1180.2
3277.36474	1185.7
3279.62601	1182.6
3281.88593	1185.6
3284.14448	1183.6
3286.40168	1187.8
3288.65753	1183.7
3290.91202	1184.2
3293.16516	1179.6
3295.41695	1178.7
3297.66738	1175.9
3299.91647	1171.5
3302.16421	1166.5
3304.4106	1156.3
3306.65564	1156.6
3308.89933	1157.8
3311.14169	1147.3
3313.38269	1128.3
3315.62236	1127.8
3317.86068	1124.8
3320.09766	1108.2
3322.3333	1106.6
3324.5676	1097.7
3326.80056	1091.2
3329.03219	1085.3
3331.26248	-0.6
3333.49143	0.7
3335.71905	-2.5
