Data from AgNPs_APTES_FTO_UA_100uM_CRN_0uM_R6G_10uM_Scan_RamanShift__66__11-56-41-317.txt Node

Date: Wed Jun 29 11:56:41 BST 2022
User: TCL
Spectrometer: QEP01345
Trigger mode: 4
Integration Time (sec): 7.000000E0
Scans to average: 10
Electric dark correction enabled: true
Nonlinearity correction enabled: false
Boxcar width: 0
XAxis mode: Raman Shifts
Number of Pixels in Spectrum: 1044
>>>>>Begin Spectral Data<<<<<
46.04893	0.225
50.45542	0.925
54.85868	1.125
59.25871	1.025
63.6555	39.925
68.04907	42.225
72.43941	47.725
76.82654	47.925
81.21044	49.825
85.59113	53.325
89.96862	58.325
94.34289	60.325
98.71396	60.625
103.08183	60.925
107.4465	64.125
111.80798	65.125
116.16626	59.025
120.52136	61.425
124.87327	56.025
129.222	61.425
133.56755	61.425
137.90993	59.625
142.24913	57.725
146.58517	58.525
150.91804	57.125
155.24774	62.425
159.57429	64.225
163.89768	68.725
168.21792	78.525
172.53501	94.125
176.84895	113.025
181.15975	144.625
185.46741	194.125
189.77193	250.225
194.07331	324.925
198.37157	410.525
202.6667	511.725
206.9587	596.525
211.24758	694.825
215.53334	796.125
219.81599	906.325
224.09553	1031.725
228.37195	1173.025
232.64527	1330.825
236.91549	1467.325
241.18261	1594.225
245.44663	1696.325
249.70755	1785.725
253.96539	1841.125
258.22014	1897.125
262.4718	1930.525
266.72039	1940.125
270.96589	1901.525
275.20832	1858.325
279.44768	1799.725
283.68397	1746.625
287.91719	1728.025
292.14735	1734.025
296.37445	1789.525
300.59849	1905.125
304.81948	2058.625
309.03742	2179.025
313.25231	2211.625
317.46415	2096.025
321.67296	1885.525
325.87872	1727.025
330.08145	1663.025
334.28114	1667.925
338.47781	1724.625
342.67145	1788.425
346.86207	1896.925
351.04966	2074.825
355.23424	2270.325
359.4158	2390.325
363.59435	2425.025
367.76989	2404.025
371.94243	2364.225
376.11196	2304.925
380.27849	2273.025
384.44203	2216.125
388.60257	2159.425
392.76012	2142.625
396.91468	2146.225
401.06626	2214.825
405.21485	2241.925
409.36047	2172.525
413.50311	2014.325
417.64277	1880.625
421.77947	1795.925
425.9132	1755.025
430.04396	1754.025
434.17176	1775.925
438.2966	1801.625
442.41849	1860.525
446.53742	1910.825
450.6534	1960.525
454.76644	1973.125
458.87653	1958.025
462.98368	1924.725
467.08789	1886.425
471.18916	1844.925
475.2875	1800.725
479.38291	1773.325
483.4754	1762.525
487.56496	1747.225
491.6516	1749.525
495.73531	1747.725
499.81612	1759.425
503.89401	1765.825
507.96899	1814.225
512.04106	1851.125
516.11023	1926.425
520.1765	1950.425
524.23987	1957.725
528.30034	1936.725
532.35792	1900.625
536.41261	1856.325
540.46441	1802.925
544.51333	1773.625
548.55936	1763.025
552.60252	1800.825
556.64279	1838.325
560.6802	1873.025
564.71473	1964.925
568.7464	2104.125
572.7752	2119.225
576.80114	1950.825
580.82422	1807.025
584.84444	1751.625
588.86181	1728.025
592.87633	1751.025
596.888	1791.925
600.89682	1912.025
604.9028	2284.225
608.90594	3201.325
612.90624	4294.525
616.90371	4040.525
620.89834	2691.425
624.89015	2089.325
628.87913	2006.825
632.86528	2060.325
636.84862	2098.325
640.82913	2041.925
644.80683	1906.625
648.78172	1806.925
652.75379	1813.025
656.72306	1902.825
660.68952	2014.525
664.65319	1961.625
668.61405	1801.925
672.57211	1752.525
676.52738	1744.125
680.47986	1741.125
684.42955	1723.525
688.37646	1721.925
692.32058	1726.525
696.26192	1748.525
700.20048	1778.925
704.13626	1805.725
708.06928	1769.225
711.99952	1760.925
715.927	1771.425
719.85171	1787.125
723.77365	1804.725
727.69284	1790.225
731.60928	1782.325
735.52295	1764.625
739.43388	1772.025
743.34206	1762.825
747.24749	1766.025
751.15017	1777.325
755.05012	1807.425
758.94733	1981.925
762.8418	2343.025
766.73354	2837.425
770.62254	3233.525
774.50882	3434.225
778.39237	3328.425
782.27321	2845.325
786.15132	2311.525
790.02671	2001.625
793.89938	1868.025
797.76935	1821.725
801.6366	1813.525
805.50115	1821.025
809.36299	1822.925
813.22213	1816.825
817.07857	1815.825
820.93231	1804.625
824.78336	1806.425
828.63172	1802.125
832.47738	1800.325
836.32036	1785.525
840.16066	1766.525
843.99827	1741.725
847.8332	1735.325
851.66546	1738.625
855.49504	1751.325
859.32195	1752.225
863.1462	1742.925
866.96777	1730.525
870.78668	1744.925
874.60293	1763.725
878.41652	1786.925
882.22745	1818.125
886.03573	1838.325
889.84136	1835.725
893.64433	1832.825
897.44466	1817.225
901.24235	1810.825
905.0374	1780.525
908.8298	1750.925
912.61957	1728.825
916.40671	1704.925
920.19121	1704.025
923.97308	1725.525
927.75233	1769.025
931.52895	1814.725
935.30295	1791.625
939.07433	1720.325
942.84309	1665.925
946.60924	1637.825
950.37278	1640.725
954.13371	1621.325
957.89203	1620.925
961.64774	1621.225
965.40086	1619.625
969.15137	1615.125
972.89929	1603.225
976.64461	1609.925
980.38733	1603.125
984.12747	1608.325
987.86502	1624.925
991.59999	1629.925
995.33237	1641.625
999.06217	1657.325
1002.78939	1695.925
1006.51404	1738.325
1010.23611	1768.325
1013.95561	1783.625
1017.67255	1772.825
1021.38692	1758.525
1025.09872	1729.225
1028.80796	1711.425
1032.51465	1722.725
1036.21877	1744.125
1039.92035	1754.625
1043.61937	1769.425
1047.31584	1757.725
1051.00976	1755.525
1054.70114	1744.725
1058.38998	1730.125
1062.07627	1742.325
1065.76003	1737.625
1069.44126	1750.325
1073.11995	1784.825
1076.79611	1821.625
1080.46974	1897.725
1084.14085	2004.525
1087.80943	2066.525
1091.47549	2054.525
1095.13903	1968.225
1098.80005	1893.725
1102.45857	1846.825
1106.11456	1837.125
1109.76805	1881.725
1113.41903	1960.225
1117.06751	2097.425
1120.71348	2288.025
1124.35696	2534.125
1127.99793	2668.125
1131.63641	2517.625
1135.2724	2295.425
1138.90589	2131.125
1142.5369	2029.125
1146.16542	1930.125
1149.79145	1885.025
1153.415	1856.825
1157.03607	1850.225
1160.65467	1898.525
1164.27079	1956.825
1167.88443	2068.025
1171.49561	2242.325
1175.10432	2559.625
1178.71056	2977.825
1182.31434	3296.725
1185.91565	3331.225
1189.51451	3193.125
1193.11091	2961.925
1196.70485	2725.625
1200.29634	2577.825
1203.88538	2452.225
1207.47197	2253.225
1211.05612	2078.325
1214.63782	1960.225
1218.21708	1893.625
1221.79391	1864.925
1225.36829	1850.825
1228.94024	1855.425
1232.50976	1847.825
1236.07685	1855.625
1239.6415	1874.225
1243.20374	1905.925
1246.76355	1908.725
1250.32093	1945.625
1253.8759	1988.425
1257.42845	2049.225
1260.97859	2126.625
1264.52631	2219.125
1268.07163	2295.725
1271.61453	2336.425
1275.15503	2325.525
1278.69312	2314.425
1282.22882	2351.625
1285.76211	2440.225
1289.29301	2559.225
1292.82151	2642.225
1296.34761	2745.525
1299.87133	2947.725
1303.39266	3328.825
1306.9116	3929.225
1310.42815	4492.625
1313.94233	4611.925
1317.45412	4152.325
1320.96354	3513.525
1324.47058	2995.725
1327.97525	2623.425
1331.47754	2436.225
1334.97747	2384.825
1338.47502	2477.225
1341.97022	2686.425
1345.46305	3025.325
1348.95352	3418.625
1352.44163	3866.325
1355.92738	4587.925
1359.41078	5607.525
1362.89183	6217.425
1366.37053	5542.025
1369.84688	4341.425
1373.32088	3477.825
1376.79254	2983.125
1380.26186	2678.725
1383.72883	2440.925
1387.19347	2242.425
1390.65578	2083.725
1394.11575	1973.125
1397.57339	1912.425
1401.0287	1876.425
1404.48168	1867.425
1407.93234	1854.925
1411.38068	1886.125
1414.82669	1918.525
1418.27039	1932.825
1421.71177	1921.525
1425.15083	1912.725
1428.58758	1956.225
1432.02203	2007.925
1435.45416	2025.525
1438.88399	1990.125
1442.31151	1984.025
1445.73673	1978.525
1449.15965	1982.225
1452.58027	1966.925
1455.9986	1944.625
1459.41463	1928.725
1462.82837	1961.725
1466.23982	2014.825
1469.64898	2056.725
1473.05586	2054.225
1476.46045	2054.925
1479.86276	2090.425
1483.26279	2166.325
1486.66054	2270.425
1490.05602	2439.825
1493.44922	2705.825
1496.84016	3120.825
1500.22882	3732.925
1503.61521	4560.025
1506.99934	5516.125
1510.38121	6165.925
1513.76081	6131.125
1517.13816	5339.325
1520.51324	4248.825
1523.88607	3379.525
1527.25665	2852.125
1530.62498	2553.625
1533.99105	2403.425
1537.35488	2305.525
1540.71647	2267.525
1544.07581	2281.025
1547.4329	2331.125
1550.78776	2365.725
1554.14038	2385.525
1557.49077	2438.425
1560.83892	2512.225
1564.18484	2635.525
1567.52853	2805.525
1570.86999	2930.625
1574.20922	2979.425
1577.54624	2899.325
1580.88103	2658.425
1584.2136	2341.425
1587.54395	2155.825
1590.87208	2143.225
1594.19801	2233.025
1597.52172	2394.625
1600.84321	2451.725
1604.16251	2381.825
1607.47959	2251.325
1610.79447	2116.125
1614.10715	1980.925
1617.41763	1888.125
1620.7259	1827.925
1624.03199	1829.625
1627.33587	1841.825
1630.63757	1892.325
1633.93707	1992.425
1637.23439	2188.125
1640.52951	2515.025
1643.82246	3005.725
1647.11321	3596.325
1650.40179	3926.325
1653.68819	3700.425
1656.97241	3083.025
1660.25446	2488.525
1663.53433	2105.425
1666.81203	1885.025
1670.08756	1755.925
1673.36092	1682.925
1676.63211	1632.925
1679.90115	1602.125
1683.16801	1567.425
1686.43272	1549.825
1689.69527	1529.225
1692.95567	1529.225
1696.2139	1525.625
1699.46999	1530.025
1702.72392	1520.225
1705.97571	1519.125
1709.22535	1504.325
1712.47284	1505.925
1715.71819	1486.725
1718.96139	1494.025
1722.20246	1478.625
1725.44139	1458.525
1728.67818	1444.125
1731.91284	1437.725
1735.14537	1425.525
1738.37576	1419.525
1741.60403	1408.325
1744.83017	1405.425
1748.05418	1398.725
1751.27607	1395.725
1754.49584	1393.325
1757.71349	1388.825
1760.92903	1387.525
1764.14244	1385.525
1767.35375	1374.725
1770.56294	1371.025
1773.77002	1367.825
1776.97499	1345.525
1780.17785	1338.625
1783.37861	1334.625
1786.57727	1337.525
1789.77382	1330.525
1792.96828	1333.925
1796.16064	1324.325
1799.3509	1328.925
1802.53907	1324.925
1805.72514	1319.725
1808.90913	1307.725
1812.09102	1296.625
1815.27083	1294.925
1818.44856	1291.625
1821.6242	1303.425
1824.79776	1294.325
1827.96924	1289.325
1831.13864	1288.625
1834.30597	1286.125
1837.47122	1287.225
1840.6344	1270.425
1843.7955	1272.125
1846.95454	1272.325
1850.11151	1273.225
1853.26642	1275.925
1856.41926	1272.025
1859.57004	1275.625
1862.71876	1272.125
1865.86542	1264.425
1869.01003	1268.425
1872.15258	1274.125
1875.29308	1267.725
1878.43152	1263.525
1881.56792	1265.025
1884.70227	1262.425
1887.83457	1262.125
1890.96482	1255.525
1894.09304	1256.325
1897.21921	1257.525
1900.34335	1252.225
1903.46544	1254.325
1906.58551	1253.525
1909.70353	1250.925
1912.81953	1251.925
1915.93349	1250.925
1919.04543	1252.125
1922.15534	1249.025
1925.26322	1242.725
1928.36908	1240.925
1931.47292	1242.525
1934.57473	1234.625
1937.67453	1239.425
1940.77232	1227.725
1943.86808	1228.525
1946.96184	1214.425
1950.05358	1212.225
1953.14331	1210.925
1956.23103	1212.125
1959.31675	1212.725
1962.40046	1202.925
1965.48217	1202.725
1968.56188	1203.125
1971.63959	1207.825
1974.7153	1198.725
1977.78901	1194.225
1980.86073	1184.225
1983.93046	1178.625
1986.99819	1173.325
1990.06394	1176.325
1993.1277	1166.025
1996.18947	1171.025
1999.24925	1163.525
2002.30706	1158.525
2005.36288	1147.225
2008.41672	1149.125
2011.46859	1143.025
2014.51848	1149.725
2017.56639	1141.225
2020.61233	1142.725
2023.6563	1143.625
2026.6983	1133.025
2029.73833	1129.425
2032.7764	1121.225
2035.8125	1129.125
2038.84664	1129.625
2041.87881	1119.825
2044.90903	1122.125
2047.93729	1128.525
2050.96359	1120.125
2053.98794	1120.825
2057.01034	1115.225
2060.03078	1121.925
2063.04927	1112.925
2066.06582	1107.325
2069.08042	1104.325
2072.09307	1113.225
2075.10378	1112.825
2078.11255	1106.525
2081.11938	1111.825
2084.12426	1111.925
2087.12722	1121.125
2090.12824	1118.625
2093.12732	1119.125
2096.12447	1106.425
2099.11969	1114.025
2102.11299	1118.025
2105.10435	1117.225
2108.09379	1102.625
2111.08131	1122.525
2114.0669	1120.625
2117.05057	1122.725
2120.03233	1126.925
2123.01216	1119.425
2125.99008	1133.625
2128.96609	1121.125
2131.94018	1135.725
2134.91236	1126.025
2137.88263	1138.625
2140.851	1122.625
2143.81746	1130.825
2146.78201	1125.125
2149.74466	1123.525
2152.7054	1125.225
2155.66425	1121.625
2158.6212	1132.125
2161.57625	1120.725
2164.52941	1122.825
2167.48067	1123.225
2170.43004	1129.125
2173.37752	1114.925
2176.32311	1131.325
2179.26681	1121.925
2182.20863	1131.525
2185.14856	1126.125
2188.08661	1135.325
2191.02278	1125.125
2193.95707	1124.525
2196.88948	1118.925
2199.82001	1117.525
2202.74867	1116.025
2205.67545	1112.525
2208.60037	1107.425
2211.52341	1118.125
2214.44458	1111.825
2217.36388	1114.725
2220.28132	1106.825
2223.1969	1105.625
2226.11061	1106.825
2229.02246	1110.825
2231.93245	1097.425
2234.84058	1095.225
2237.74686	1096.425
2240.65128	1102.725
2243.55385	1092.925
2246.45456	1096.925
2249.35343	1103.225
2252.25044	1100.825
2255.14561	1104.825
2258.03893	1110.125
2260.93041	1107.225
2263.82004	1101.225
2266.70783	1096.825
2269.59378	1092.325
2272.4779	1087.325
2275.36017	1093.825
2278.24061	1088.925
2281.11922	1075.725
2283.996	1073.625
2286.87094	1085.125
2289.74405	1078.225
2292.61534	1078.925
2295.4848	1074.825
2298.35243	1078.025
2301.21824	1066.725
2304.08223	1078.825
2306.94439	1078.025
2309.80474	1070.525
2312.66327	1074.825
2315.51999	1071.325
2318.37489	1075.425
2321.22797	1070.625
2324.07925	1070.825
2326.92871	1068.925
2329.77637	1068.625
2332.62222	1068.525
2335.46626	1067.725
2338.3085	1063.325
2341.14893	1057.125
2343.98756	1068.925
2346.8244	1066.425
2349.65943	1062.325
2352.49267	1070.925
2355.32411	1060.625
2358.15376	1069.825
2360.98161	1071.725
2363.80768	1075.125
2366.63195	1077.925
2369.45444	1085.425
2372.27514	1077.925
2375.09405	1079.525
2377.91118	1077.825
2380.72652	1079.325
2383.54009	1073.425
2386.35187	1065.025
2389.16188	1063.725
2391.97011	1060.225
2394.77657	1052.025
2397.58125	1047.925
2400.38416	1048.825
2403.18529	1043.225
2405.98466	1050.225
2408.78226	1035.125
2411.57809	1038.025
2414.37216	1048.125
2417.16446	1041.825
2419.955	1039.925
2422.74378	1042.925
2425.5308	1047.525
2428.31606	1044.425
2431.09956	1049.225
2433.88131	1036.225
2436.6613	1041.925
2439.43954	1045.725
2442.21603	1042.125
2444.99077	1047.525
2447.76377	1046.225
2450.53501	1051.925
2453.30451	1047.525
2456.07226	1050.925
2458.83827	1035.725
2461.60254	1041.025
2464.36507	1040.925
2467.12586	1040.425
2469.88492	1041.825
2472.64224	1045.125
2475.39782	1040.425
2478.15167	1044.125
2480.90379	1046.825
2483.65417	1063.225
2486.40283	1057.525
2489.14976	1056.125
2491.89497	1061.325
2494.63845	1063.725
2497.3802	1061.525
2500.12024	1050.025
2502.85855	1051.225
2505.59514	1051.425
2508.33002	1037.525
2511.06318	1046.725
2513.79462	1033.825
2516.52435	1030.725
2519.25237	1024.825
2521.97867	1025.525
2524.70327	1029.525
2527.42616	1021.925
2530.14734	1018.625
2532.86681	1016.525
2535.58458	1029.625
2538.30065	1024.525
2541.01501	1022.925
2543.72768	1016.925
2546.43864	1024.925
2549.14791	1019.125
2551.85548	1023.425
2554.56136	1024.725
2557.26554	1029.025
2559.96803	1011.525
2562.66883	1018.625
2565.36794	1012.725
2568.06536	1020.225
2570.7611	1075.525
2573.45514	1012.825
2576.14751	1011.125
2578.83819	1002.725
2581.52719	997.625
2584.21451	1002.525
2586.90015	999.325
2589.58411	997.125
2592.2664	999.125
2594.94701	994.425
2597.62594	998.925
2600.30321	1002.125
2602.9788	999.525
2605.65273	999.825
2608.32498	990.925
2610.99557	992.525
2613.66449	995.325
2616.33175	996.925
2618.99734	998.325
2621.66128	983.125
2624.32355	988.225
2626.98416	991.125
2629.64311	990.025
2632.30041	991.325
2634.95605	990.625
2637.61004	989.325
2640.26238	982.325
2642.91306	973.125
2645.56209	981.425
2648.20948	986.625
2650.85521	976.325
2653.4993	984.125
2656.14175	985.525
2658.78255	988.625
2661.42171	985.025
2664.05923	975.825
2666.6951	990.425
2669.32934	992.725
2671.96194	990.125
2674.59291	990.925
2677.22224	985.325
2679.84993	988.725
2682.476	992.125
2685.10043	992.825
2687.72324	999.025
2690.34441	993.925
2692.96396	999.325
2695.58188	999.225
2698.19818	984.325
2700.81285	991.725
2703.4259	998.925
2706.03733	1005.225
2708.64714	996.225
2711.25533	998.325
2713.86191	998.225
2716.46687	996.925
2719.07021	999.825
2721.67194	1004.125
2724.27206	999.425
2726.87057	1007.025
2729.46747	1006.925
2732.06276	1005.225
2734.65644	1008.525
2737.24852	1003.625
2739.83899	1003.625
2742.42786	1006.025
2745.01513	1003.725
2747.60079	1000.525
2750.18486	994.625
2752.76733	996.525
2755.3482	990.025
2757.92747	998.625
2760.50515	992.525
2763.08123	988.725
2765.65573	990.125
2768.22863	990.025
2770.79994	991.125
2773.36967	987.425
2775.9378	995.325
2778.50435	988.125
2781.06932	997.625
2783.6327	992.625
2786.1945	988.425
2788.75471	998.725
2791.31335	998.625
2793.87041	993.625
2796.42589	993.225
2798.97979	1004.125
2801.53212	997.625
2804.08288	997.725
2806.63206	995.225
2809.17967	993.425
2811.72571	991.925
2814.27018	993.025
2816.81308	997.925
2819.35442	997.425
2821.89419	997.425
2824.43239	996.025
2826.96904	999.925
2829.50412	1001.025
2832.03763	994.825
2834.56959	996.825
2837.1	1004.325
2839.62884	1003.825
2842.15613	1000.025
2844.68186	1014.325
2847.20604	1006.925
2849.72867	1014.925
2852.24974	1014.325
2854.76927	1022.925
2857.28724	1027.525
2859.80367	1027.725
2862.31855	1031.125
2864.83189	1029.325
2867.34368	1027.225
2869.85393	1030.325
2872.36264	1022.525
2874.8698	1030.525
2877.37543	1033.125
2879.87952	1025.525
2882.38207	1021.425
2884.88308	1027.325
2887.38256	1021.025
2889.88051	1026.125
2892.37692	1036.825
2894.8718	1033.825
2897.36515	1032.525
2899.85698	1030.925
2902.34727	1028.425
2904.83604	1029.225
2907.32328	1032.925
2909.809	1029.925
2912.29319	1031.225
2914.77587	1032.925
2917.25702	1032.425
2919.73665	1030.525
2922.21476	1029.425
2924.69136	1026.425
2927.16644	1028.225
2929.64	1030.925
2932.11205	1028.125
2934.58258	1029.825
2937.05161	1027.825
2939.51912	1020.225
2941.98513	1029.825
2944.44962	1023.725
2946.91261	1027.425
2949.37409	1025.825
2951.83407	1025.725
2954.29254	1031.925
2956.74951	1025.125
2959.20498	1030.025
2961.65895	1025.325
2964.11142	1034.125
2966.56239	1029.625
2969.01186	1024.125
2971.45984	1029.125
2973.90632	1027.625
2976.35131	1028.825
2978.7948	1028.925
2981.23681	1036.925
2983.67732	1029.925
2986.11635	1021.225
2988.55388	1021.625
2990.98993	1019.125
2993.4245	1020.025
2995.85758	1020.625
2998.28917	1018.525
3000.71928	1023.825
3003.14791	1024.125
3005.57506	1028.225
3008.00073	1024.425
3010.42493	1029.625
3012.84764	1030.725
3015.26888	1035.125
3017.68865	1038.725
3020.10694	1038.825
3022.52376	1029.525
3024.9391	1035.125
3027.35298	1036.625
3029.76539	1032.325
3032.17632	1042.125
3034.5858	1043.125
3036.9938	1038.325
3039.40034	1049.625
3041.80542	1045.725
3044.20903	1054.225
3046.61118	1050.125
3049.01187	1047.625
3051.4111	1052.225
3053.80888	1057.125
3056.20519	1065.025
3058.60005	1066.225
3060.99345	1067.325
3063.3854	1057.625
3065.7759	1070.025
3068.16494	1067.925
3070.55254	1075.525
3072.93868	1066.725
3075.32338	1073.125
3077.70662	1068.425
3080.08842	1068.925
3082.46878	1077.625
3084.84769	1079.025
3087.22515	1088.425
3089.60118	1089.425
3091.97576	1098.925
3094.3489	1098.325
3096.72061	1105.225
3099.09087	1105.825
3101.4597	1116.225
3103.82709	1126.925
3106.19305	1136.925
3108.55757	1143.125
3110.92066	1148.625
3113.28232	1144.325
3115.64255	1144.525
3118.00134	1162.125
3120.35871	1167.725
3122.71466	1166.425
3125.06917	1174.025
3127.42226	1168.525
3129.77393	1183.825
3132.12417	1192.725
3134.47299	1189.025
3136.82039	1200.125
3139.16636	1210.825
3141.51092	1211.825
3143.85406	1224.625
3146.19579	1228.925
3148.53609	1234.225
3150.87499	1243.425
3153.21246	1259.825
3155.54853	1268.025
3157.88318	1266.125
3160.21642	1286.125
3162.54826	1282.425
3164.87868	1298.825
3167.2077	1301.125
3169.5353	1315.225
3171.86151	1315.425
3174.18631	1319.925
3176.5097	1324.425
3178.83169	1335.225
3181.15228	1346.625
3183.47147	1345.125
3185.78926	1351.525
3188.10565	1362.925
3190.42065	1360.025
3192.73424	1367.425
3195.04645	1372.425
3197.35725	1372.825
3199.66667	1387.125
3201.97469	1395.425
3204.28132	1404.525
3206.58656	1411.025
3208.8904	1408.225
3211.19287	1420.625
3213.49394	1426.725
3215.79363	1430.725
3218.09193	1441.625
3220.38884	1441.325
3222.68438	1454.425
3224.97853	1448.625
3227.2713	1448.125
3229.56269	1447.325
3231.8527	1450.925
3234.14133	1448.225
3236.42858	1452.425
3238.71446	1451.025
3240.99896	1454.325
3243.28209	1446.625
3245.56384	1442.825
3247.84423	1448.425
