Data from AgNPs_APTES_FTO_UA_100uM_CRN_0uM_R6G_10uM_Scan_RamanShift__40__11-26-21-281.txt Node

Date: Wed Jun 29 11:26:21 BST 2022
User: TCL
Spectrometer: QEP01345
Trigger mode: 4
Integration Time (sec): 7.000000E0
Scans to average: 10
Electric dark correction enabled: true
Nonlinearity correction enabled: false
Boxcar width: 0
XAxis mode: Raman Shifts
Number of Pixels in Spectrum: 1044
>>>>>Begin Spectral Data<<<<<
46.04893	-0.575
50.45542	0.525
54.85868	0.325
59.25871	1.825
63.6555	38.925
68.04907	44.325
72.43941	47.025
76.82654	48.225
81.21044	54.925
85.59113	55.925
89.96862	56.825
94.34289	60.425
98.71396	61.625
103.08183	63.725
107.4465	61.125
111.80798	63.925
116.16626	58.825
120.52136	62.625
124.87327	60.025
129.222	63.425
133.56755	60.125
137.90993	59.225
142.24913	60.125
146.58517	56.125
150.91804	58.525
155.24774	59.525
159.57429	64.825
163.89768	69.625
168.21792	76.025
172.53501	90.125
176.84895	107.725
181.15975	139.725
185.46741	177.825
189.77193	229.525
194.07331	302.325
198.37157	386.325
202.6667	460.425
206.9587	532.025
211.24758	619.925
215.53334	704.825
219.81599	788.125
224.09553	880.825
228.37195	986.725
232.64527	1106.925
236.91549	1221.925
241.18261	1321.025
245.44663	1432.325
249.70755	1504.525
253.96539	1563.625
258.22014	1619.325
262.4718	1650.825
266.72039	1680.325
270.96589	1691.525
275.20832	1672.925
279.44768	1634.525
283.68397	1604.825
287.91719	1574.725
292.14735	1574.325
296.37445	1571.525
300.59849	1601.625
304.81948	1655.625
309.03742	1684.625
313.25231	1687.625
317.46415	1650.025
321.67296	1578.525
325.87872	1528.225
330.08145	1496.725
334.28114	1499.825
338.47781	1523.125
342.67145	1556.425
346.86207	1598.925
351.04966	1664.225
355.23424	1735.525
359.4158	1794.325
363.59435	1818.625
367.76989	1853.125
371.94243	1840.625
376.11196	1853.225
380.27849	1862.525
384.44203	1862.225
388.60257	1856.425
392.76012	1857.525
396.91468	1877.925
401.06626	1904.025
405.21485	1919.725
409.36047	1904.925
413.50311	1845.925
417.64277	1785.425
421.77947	1756.525
425.9132	1732.725
430.04396	1733.625
434.17176	1732.325
438.2966	1767.625
442.41849	1793.325
446.53742	1827.225
450.6534	1860.725
454.76644	1868.425
458.87653	1879.025
462.98368	1875.725
467.08789	1859.125
471.18916	1836.325
475.2875	1830.425
479.38291	1817.325
483.4754	1803.725
487.56496	1810.725
491.6516	1810.025
495.73531	1818.925
499.81612	1816.425
503.89401	1820.625
507.96899	1828.425
512.04106	1838.925
516.11023	1853.625
520.1765	1872.725
524.23987	1879.425
528.30034	1879.825
532.35792	1874.525
536.41261	1855.425
540.46441	1829.225
544.51333	1805.625
548.55936	1807.025
552.60252	1814.725
556.64279	1842.525
560.6802	1854.225
564.71473	1875.425
568.7464	1900.725
572.7752	1925.825
576.80114	1885.025
580.82422	1849.425
584.84444	1846.825
588.86181	1876.625
592.87633	1903.525
596.888	1939.325
600.89682	1960.125
604.9028	2095.825
608.90594	2487.925
612.90624	2959.525
616.90371	2855.325
620.89834	2284.025
624.89015	2008.525
628.87913	1992.325
632.86528	2059.225
636.84862	2089.925
640.82913	2064.725
644.80683	2009.225
648.78172	1957.425
652.75379	1938.525
656.72306	1960.725
660.68952	1996.425
664.65319	1989.425
668.61405	1930.025
672.57211	1913.225
676.52738	1938.725
680.47986	1967.325
684.42955	2001.925
688.37646	2033.125
692.32058	2010.425
696.26192	2003.125
700.20048	1973.325
704.13626	1964.525
708.06928	1942.925
711.99952	1916.025
715.927	1911.425
719.85171	1910.725
723.77365	1914.625
727.69284	1920.025
731.60928	1925.225
735.52295	1904.325
739.43388	1893.325
743.34206	1898.725
747.24749	1893.125
751.15017	1879.325
755.05012	1869.525
758.94733	1940.125
762.8418	2072.825
766.73354	2301.425
770.62254	2528.925
774.50882	2656.725
778.39237	2585.625
782.27321	2374.225
786.15132	2144.425
790.02671	2004.225
793.89938	1949.825
797.76935	1913.325
801.6366	1908.425
805.50115	1925.525
809.36299	1917.325
813.22213	1927.825
817.07857	1911.025
820.93231	1896.625
824.78336	1875.725
828.63172	1866.025
832.47738	1869.925
836.32036	1856.625
840.16066	1853.325
843.99827	1850.625
847.8332	1853.725
851.66546	1854.025
855.49504	1855.025
859.32195	1857.825
863.1462	1852.125
866.96777	1855.425
870.78668	1868.425
874.60293	1863.525
878.41652	1881.825
882.22745	1907.525
886.03573	1911.225
889.84136	1915.125
893.64433	1898.125
897.44466	1883.225
901.24235	1887.625
905.0374	1865.125
908.8298	1839.525
912.61957	1823.825
916.40671	1828.025
920.19121	1824.225
923.97308	1842.825
927.75233	1858.925
931.52895	1874.925
935.30295	1857.525
939.07433	1841.425
942.84309	1819.525
946.60924	1792.225
950.37278	1804.325
954.13371	1806.325
957.89203	1786.725
961.64774	1792.925
965.40086	1777.925
969.15137	1763.025
972.89929	1759.825
976.64461	1754.525
980.38733	1759.025
984.12747	1748.725
987.86502	1756.725
991.59999	1761.925
995.33237	1774.125
999.06217	1791.025
1002.78939	1819.825
1006.51404	1856.525
1010.23611	1878.725
1013.95561	1907.725
1017.67255	1910.225
1021.38692	1903.025
1025.09872	1895.425
1028.80796	1871.125
1032.51465	1873.025
1036.21877	1866.725
1039.92035	1885.425
1043.61937	1889.125
1047.31584	1874.125
1051.00976	1867.325
1054.70114	1860.825
1058.38998	1861.825
1062.07627	1880.425
1065.76003	1882.325
1069.44126	1898.125
1073.11995	1920.125
1076.79611	1949.125
1080.46974	1975.525
1084.14085	1983.725
1087.80943	2013.425
1091.47549	2001.525
1095.13903	1964.225
1098.80005	1943.125
1102.45857	1907.925
1106.11456	1910.125
1109.76805	1925.425
1113.41903	1954.825
1117.06751	2000.825
1120.71348	2074.725
1124.35696	2155.925
1127.99793	2245.425
1131.63641	2267.025
1135.2724	2241.325
1138.90589	2189.525
1142.5369	2124.525
1146.16542	2068.025
1149.79145	1999.425
1153.415	1958.325
1157.03607	1939.825
1160.65467	1950.625
1164.27079	1992.425
1167.88443	2046.925
1171.49561	2142.625
1175.10432	2301.225
1178.71056	2529.025
1182.31434	2734.225
1185.91565	2791.925
1189.51451	2726.625
1193.11091	2610.025
1196.70485	2483.325
1200.29634	2399.325
1203.88538	2335.225
1207.47197	2231.125
1211.05612	2151.125
1214.63782	2082.425
1218.21708	2044.525
1221.79391	2036.025
1225.36829	2032.625
1228.94024	2025.225
1232.50976	2004.125
1236.07685	2000.325
1239.6415	1999.425
1243.20374	2017.625
1246.76355	2023.225
1250.32093	2038.625
1253.8759	2057.325
1257.42845	2092.125
1260.97859	2136.525
1264.52631	2187.625
1268.07163	2245.125
1271.61453	2293.025
1275.15503	2309.925
1278.69312	2321.325
1282.22882	2338.925
1285.76211	2374.925
1289.29301	2430.525
1292.82151	2508.725
1296.34761	2570.025
1299.87133	2681.525
1303.39266	2850.025
1306.9116	3112.025
1310.42815	3392.925
1313.94233	3500.325
1317.45412	3391.925
1320.96354	3145.225
1324.47058	2910.025
1327.97525	2714.525
1331.47754	2615.425
1334.97747	2560.925
1338.47502	2584.925
1341.97022	2631.925
1345.46305	2729.425
1348.95352	2912.625
1352.44163	3140.125
1355.92738	3439.925
1359.41078	3849.525
1362.89183	4269.025
1366.37053	4152.825
1369.84688	3591.025
1373.32088	3066.725
1376.79254	2744.025
1380.26186	2581.725
1383.72883	2477.425
1387.19347	2394.025
1390.65578	2311.325
1394.11575	2246.125
1397.57339	2203.425
1401.0287	2181.425
1404.48168	2170.525
1407.93234	2137.025
1411.38068	2138.025
1414.82669	2115.125
1418.27039	2119.025
1421.71177	2087.725
1425.15083	2082.725
1428.58758	2066.425
1432.02203	2086.525
1435.45416	2110.425
1438.88399	2128.625
1442.31151	2122.625
1445.73673	2136.025
1449.15965	2127.325
1452.58027	2155.625
1455.9986	2163.225
1459.41463	2158.825
1462.82837	2184.625
1466.23982	2220.925
1469.64898	2261.025
1473.05586	2278.825
1476.46045	2282.625
1479.86276	2291.125
1483.26279	2290.525
1486.66054	2310.525
1490.05602	2354.525
1493.44922	2408.125
1496.84016	2549.925
1500.22882	2781.525
1503.61521	3087.325
1506.99934	3450.225
1510.38121	3753.325
1513.76081	3807.325
1517.13816	3566.925
1520.51324	3161.425
1523.88607	2785.525
1527.25665	2539.725
1530.62498	2409.025
1533.99105	2331.725
1537.35488	2297.425
1540.71647	2255.225
1544.07581	2246.925
1547.4329	2232.325
1550.78776	2243.425
1554.14038	2253.525
1557.49077	2280.525
1560.83892	2318.725
1564.18484	2367.425
1567.52853	2443.225
1570.86999	2510.725
1574.20922	2561.025
1577.54624	2549.425
1580.88103	2471.325
1584.2136	2330.525
1587.54395	2242.625
1590.87208	2229.125
1594.19801	2267.325
1597.52172	2374.625
1600.84321	2418.325
1604.16251	2374.625
1607.47959	2267.225
1610.79447	2179.625
1614.10715	2085.225
1617.41763	1995.925
1620.7259	1942.325
1624.03199	1927.025
1627.33587	1925.025
1630.63757	1940.025
1633.93707	1982.625
1637.23439	2069.825
1640.52951	2219.625
1643.82246	2433.825
1647.11321	2701.925
1650.40179	2878.025
1653.68819	2834.825
1656.97241	2541.125
1660.25446	2223.025
1663.53433	2017.825
1666.81203	1875.225
1670.08756	1801.525
1673.36092	1756.825
1676.63211	1736.025
1679.90115	1711.825
1683.16801	1683.025
1686.43272	1665.725
1689.69527	1646.325
1692.95567	1626.525
1696.2139	1604.625
1699.46999	1576.125
1702.72392	1560.025
1705.97571	1546.525
1709.22535	1531.525
1712.47284	1525.525
1715.71819	1519.625
1718.96139	1518.625
1722.20246	1502.225
1725.44139	1481.725
1728.67818	1464.725
1731.91284	1448.825
1735.14537	1433.725
1738.37576	1432.325
1741.60403	1423.425
1744.83017	1408.125
1748.05418	1397.025
1751.27607	1392.425
1754.49584	1378.825
1757.71349	1369.125
1760.92903	1357.825
1764.14244	1361.225
1767.35375	1354.425
1770.56294	1350.525
1773.77002	1349.825
1776.97499	1340.725
1780.17785	1340.425
1783.37861	1356.425
1786.57727	1341.225
1789.77382	1344.825
1792.96828	1335.925
1796.16064	1335.925
1799.3509	1333.725
1802.53907	1331.025
1805.72514	1322.225
1808.90913	1319.225
1812.09102	1316.125
1815.27083	1310.925
1818.44856	1308.625
1821.6242	1298.925
1824.79776	1300.725
1827.96924	1287.025
1831.13864	1292.825
1834.30597	1288.925
1837.47122	1292.725
1840.6344	1289.525
1843.7955	1293.025
1846.95454	1280.525
1850.11151	1288.625
1853.26642	1281.225
1856.41926	1278.725
1859.57004	1275.125
1862.71876	1274.325
1865.86542	1277.225
1869.01003	1275.225
1872.15258	1276.125
1875.29308	1270.425
1878.43152	1268.925
1881.56792	1264.425
1884.70227	1275.725
1887.83457	1257.425
1890.96482	1259.925
1894.09304	1264.225
1897.21921	1251.525
1900.34335	1250.025
1903.46544	1252.125
1906.58551	1252.425
1909.70353	1256.425
1912.81953	1250.125
1915.93349	1248.125
1919.04543	1245.425
1922.15534	1250.325
1925.26322	1239.025
1928.36908	1239.425
1931.47292	1234.425
1934.57473	1228.825
1937.67453	1233.125
1940.77232	1230.425
1943.86808	1224.525
1946.96184	1218.225
1950.05358	1210.225
1953.14331	1212.625
1956.23103	1203.225
1959.31675	1203.425
1962.40046	1201.125
1965.48217	1200.825
1968.56188	1201.025
1971.63959	1190.425
1974.7153	1189.825
1977.78901	1184.225
1980.86073	1180.125
1983.93046	1181.525
1986.99819	1170.425
1990.06394	1165.825
1993.1277	1155.225
1996.18947	1165.325
1999.24925	1156.525
2002.30706	1149.425
2005.36288	1146.225
2008.41672	1148.825
2011.46859	1139.325
2014.51848	1141.325
2017.56639	1131.525
2020.61233	1135.425
2023.6563	1130.425
2026.6983	1128.125
2029.73833	1125.025
2032.7764	1125.025
2035.8125	1116.925
2038.84664	1122.725
2041.87881	1114.225
2044.90903	1121.325
2047.93729	1121.425
2050.96359	1113.225
2053.98794	1107.925
2057.01034	1112.225
2060.03078	1109.325
2063.04927	1109.125
2066.06582	1110.925
2069.08042	1108.425
2072.09307	1114.925
2075.10378	1103.425
2078.11255	1112.825
2081.11938	1111.525
2084.12426	1110.025
2087.12722	1117.525
2090.12824	1103.825
2093.12732	1118.025
2096.12447	1106.325
2099.11969	1111.225
2102.11299	1109.325
2105.10435	1114.525
2108.09379	1102.625
2111.08131	1115.425
2114.0669	1116.025
2117.05057	1122.625
2120.03233	1109.825
2123.01216	1116.525
2125.99008	1114.225
2128.96609	1112.525
2131.94018	1112.025
2134.91236	1107.325
2137.88263	1107.225
2140.851	1117.425
2143.81746	1108.725
2146.78201	1105.225
2149.74466	1113.825
2152.7054	1116.625
2155.66425	1101.225
2158.6212	1105.225
2161.57625	1101.825
2164.52941	1102.725
2167.48067	1092.325
2170.43004	1100.725
2173.37752	1100.125
2176.32311	1105.625
2179.26681	1094.225
2182.20863	1095.725
2185.14856	1101.525
2188.08661	1098.925
2191.02278	1098.825
2193.95707	1094.625
2196.88948	1099.625
2199.82001	1097.025
2202.74867	1097.625
2205.67545	1099.625
2208.60037	1085.225
2211.52341	1086.925
2214.44458	1087.925
2217.36388	1082.725
2220.28132	1077.625
2223.1969	1079.125
2226.11061	1082.225
2229.02246	1077.025
2231.93245	1070.325
2234.84058	1072.825
2237.74686	1069.825
2240.65128	1067.925
2243.55385	1066.125
2246.45456	1073.625
2249.35343	1065.725
2252.25044	1063.525
2255.14561	1064.725
2258.03893	1059.525
2260.93041	1054.825
2263.82004	1061.725
2266.70783	1049.725
2269.59378	1049.325
2272.4779	1042.325
2275.36017	1047.125
2278.24061	1047.425
2281.11922	1038.825
2283.996	1036.525
2286.87094	1032.825
2289.74405	1028.225
2292.61534	1026.125
2295.4848	1037.625
2298.35243	1032.225
2301.21824	1034.725
2304.08223	1035.725
2306.94439	1031.925
2309.80474	1023.625
2312.66327	1026.725
2315.51999	1029.525
2318.37489	1031.425
2321.22797	1026.625
2324.07925	1024.525
2326.92871	1015.825
2329.77637	1030.825
2332.62222	1022.825
2335.46626	1017.925
2338.3085	1017.725
2341.14893	1017.025
2343.98756	1017.225
2346.8244	1018.925
2349.65943	1017.625
2352.49267	1016.425
2355.32411	1009.825
2358.15376	1015.525
2360.98161	1017.825
2363.80768	1015.525
2366.63195	1018.825
2369.45444	1022.825
2372.27514	1018.625
2375.09405	1020.425
2377.91118	1010.525
2380.72652	1017.525
2383.54009	1002.925
2386.35187	1013.125
2389.16188	995.725
2391.97011	999.325
2394.77657	999.325
2397.58125	986.525
2400.38416	990.825
2403.18529	990.025
2405.98466	982.825
2408.78226	983.125
2411.57809	989.025
2414.37216	991.025
2417.16446	977.325
2419.955	982.725
2422.74378	983.925
2425.5308	973.625
2428.31606	982.525
2431.09956	979.325
2433.88131	972.025
2436.6613	969.525
2439.43954	973.725
2442.21603	982.925
2444.99077	980.125
2447.76377	974.425
2450.53501	973.925
2453.30451	977.225
2456.07226	977.725
2458.83827	966.925
2461.60254	971.025
2464.36507	968.725
2467.12586	978.225
2469.88492	975.025
2472.64224	964.325
2475.39782	964.425
2478.15167	968.125
2480.90379	964.925
2483.65417	969.125
2486.40283	976.925
2489.14976	977.925
2491.89497	964.025
2494.63845	971.225
2497.3802	971.425
2500.12024	966.525
2502.85855	961.925
2505.59514	964.825
2508.33002	961.025
2511.06318	952.625
2513.79462	960.125
2516.52435	954.425
2519.25237	949.125
2521.97867	957.725
2524.70327	948.625
2527.42616	953.025
2530.14734	947.125
2532.86681	946.625
2535.58458	952.025
2538.30065	950.725
2541.01501	941.425
2543.72768	949.825
2546.43864	942.525
2549.14791	944.225
2551.85548	939.625
2554.56136	945.925
2557.26554	940.925
2559.96803	927.925
2562.66883	935.125
2565.36794	941.125
2568.06536	937.125
2570.7611	933.225
2573.45514	930.625
2576.14751	933.425
2578.83819	927.925
2581.52719	932.825
2584.21451	922.725
2586.90015	917.625
2589.58411	920.725
2592.2664	925.325
2594.94701	934.125
2597.62594	918.725
2600.30321	922.225
2602.9788	925.425
2605.65273	922.525
2608.32498	914.025
2610.99557	911.825
2613.66449	909.725
2616.33175	909.425
2618.99734	911.625
2621.66128	917.325
2624.32355	912.125
2626.98416	917.025
2629.64311	906.725
2632.30041	907.125
2634.95605	904.925
2637.61004	910.125
2640.26238	905.425
2642.91306	896.225
2645.56209	899.625
2648.20948	899.425
2650.85521	894.925
2653.4993	898.125
2656.14175	890.625
2658.78255	905.325
2661.42171	896.425
2664.05923	895.825
2666.6951	897.525
2669.32934	906.925
2671.96194	906.825
2674.59291	901.925
2677.22224	888.325
2679.84993	901.225
2682.476	897.825
2685.10043	903.625
2687.72324	899.225
2690.34441	906.125
2692.96396	900.025
2695.58188	896.225
2698.19818	901.125
2700.81285	901.025
2703.4259	906.625
2706.03733	882.325
2708.64714	887.125
2711.25533	894.725
2713.86191	900.725
2716.46687	899.025
2719.07021	903.525
2721.67194	904.625
2724.27206	901.925
2726.87057	914.825
2729.46747	904.925
2732.06276	911.625
2734.65644	908.425
2737.24852	901.225
2739.83899	903.925
2742.42786	906.925
2745.01513	901.625
2747.60079	903.425
2750.18486	903.325
2752.76733	899.025
2755.3482	894.025
2757.92747	894.825
2760.50515	900.325
2763.08123	892.725
2765.65573	898.125
2768.22863	892.625
2770.79994	890.825
2773.36967	893.825
2775.9378	891.125
2778.50435	882.025
2781.06932	896.625
2783.6327	887.525
2786.1945	884.625
2788.75471	888.725
2791.31335	885.825
2793.87041	891.025
2796.42589	891.725
2798.97979	888.125
2801.53212	886.525
2804.08288	880.925
2806.63206	879.625
2809.17967	885.725
2811.72571	871.625
2814.27018	873.225
2816.81308	877.525
2819.35442	876.425
2821.89419	872.625
2824.43239	873.925
2826.96904	871.525
2829.50412	874.625
2832.03763	868.225
2834.56959	875.725
2837.1	875.525
2839.62884	871.225
2842.15613	870.325
2844.68186	872.725
2847.20604	867.125
2849.72867	877.625
2852.24974	876.125
2854.76927	880.825
2857.28724	878.825
2859.80367	871.625
2862.31855	876.925
2864.83189	877.125
2867.34368	883.725
2869.85393	881.225
2872.36264	873.425
2874.8698	880.925
2877.37543	878.425
2879.87952	890.725
2882.38207	885.725
2884.88308	886.625
2887.38256	890.025
2889.88051	880.325
2892.37692	896.925
2894.8718	896.525
2897.36515	892.325
2899.85698	888.425
2902.34727	895.025
2904.83604	898.425
2907.32328	902.325
2909.809	903.725
2912.29319	903.025
2914.77587	895.525
2917.25702	904.125
2919.73665	902.625
2922.21476	899.825
2924.69136	902.025
2927.16644	904.925
2929.64	910.125
2932.11205	909.025
2934.58258	903.025
2937.05161	907.825
2939.51912	898.025
2941.98513	906.725
2944.44962	898.825
2946.91261	905.125
2949.37409	891.025
2951.83407	901.125
2954.29254	905.625
2956.74951	900.225
2959.20498	900.425
2961.65895	900.225
2964.11142	910.325
2966.56239	905.125
2969.01186	897.825
2971.45984	902.225
2973.90632	899.925
2976.35131	899.925
2978.7948	900.825
2981.23681	912.325
2983.67732	899.925
2986.11635	895.725
2988.55388	894.425
2990.98993	893.125
2993.4245	897.525
2995.85758	893.425
2998.28917	895.525
3000.71928	907.925
3003.14791	896.525
3005.57506	894.225
3008.00073	901.625
3010.42493	899.225
3012.84764	901.425
3015.26888	901.925
3017.68865	902.925
3020.10694	911.025
3022.52376	909.325
3024.9391	904.125
3027.35298	907.825
3029.76539	908.325
3032.17632	909.625
3034.5858	910.525
3036.9938	910.025
3039.40034	922.025
3041.80542	918.525
3044.20903	923.325
3046.61118	923.625
3049.01187	919.825
3051.4111	925.425
3053.80888	929.925
3056.20519	936.725
3058.60005	933.425
3060.99345	937.225
3063.3854	929.425
3065.7759	941.025
3068.16494	940.625
3070.55254	945.325
3072.93868	943.625
3075.32338	946.825
3077.70662	952.525
3080.08842	947.625
3082.46878	956.025
3084.84769	961.725
3087.22515	960.925
3089.60118	969.225
3091.97576	977.925
3094.3489	978.525
3096.72061	978.225
3099.09087	985.025
3101.4597	998.525
3103.82709	994.225
3106.19305	1014.825
3108.55757	1007.925
3110.92066	1015.625
3113.28232	1017.525
3115.64255	1026.125
3118.00134	1038.025
3120.35871	1038.025
3122.71466	1044.825
3125.06917	1039.325
3127.42226	1048.625
3129.77393	1055.725
3132.12417	1053.425
3134.47299	1067.325
3136.82039	1069.925
3139.16636	1073.225
3141.51092	1080.825
3143.85406	1095.025
3146.19579	1107.825
3148.53609	1106.125
3150.87499	1113.625
3153.21246	1121.525
3155.54853	1125.925
3157.88318	1135.025
3160.21642	1149.825
3162.54826	1161.125
3164.87868	1162.125
3167.2077	1179.425
3169.5353	1177.325
3171.86151	1183.525
3174.18631	1188.725
3176.5097	1198.125
3178.83169	1202.125
3181.15228	1208.425
3183.47147	1205.525
3185.78926	1218.325
3188.10565	1210.725
3190.42065	1225.925
3192.73424	1237.025
3195.04645	1233.025
3197.35725	1234.125
3199.66667	1245.625
3201.97469	1251.225
3204.28132	1266.625
3206.58656	1262.625
3208.8904	1268.425
3211.19287	1269.425
3213.49394	1280.625
3215.79363	1286.025
3218.09193	1285.725
3220.38884	1300.725
3222.68438	1292.925
3224.97853	1289.325
3227.2713	1296.625
3229.56269	1303.125
3231.8527	1307.725
3234.14133	1309.725
3236.42858	1300.925
3238.71446	1305.425
3240.99896	1309.725
3243.28209	1308.325
3245.56384	1300.425
3247.84423	1302.125
3250.12324	1301.425
3252.40088	1299.725
3254.67715	1305.625
3256.95205	1304.325
3259.22558	1310.325
3261.49775	1309.925
3263.76855	1310.825
3266.03799	1313.225
3268.30606	1302.225
3270.57277	1312.225
