Data from AgNPs_APTES_FTO_UA_100uM_CRN_0uM_R6G_10uM_Scan_RamanShift__25__11-08-51-261.txt Node

Date: Wed Jun 29 11:08:51 BST 2022
User: TCL
Spectrometer: QEP01345
Trigger mode: 4
Integration Time (sec): 7.000000E0
Scans to average: 10
Electric dark correction enabled: true
Nonlinearity correction enabled: false
Boxcar width: 0
XAxis mode: Raman Shifts
Number of Pixels in Spectrum: 1044
>>>>>Begin Spectral Data<<<<<
46.04893	-0.4625
50.45542	-0.1625
54.85868	0.9375
59.25871	1.4375
63.6555	34.9375
68.04907	32.6375
72.43941	37.9375
76.82654	36.4375
81.21044	40.5375
85.59113	40.9375
89.96862	44.8375
94.34289	47.5375
98.71396	47.3375
103.08183	49.4375
107.4465	50.0375
111.80798	50.3375
116.16626	48.2375
120.52136	50.1375
124.87327	45.6375
129.222	47.2375
133.56755	44.0375
137.90993	43.8375
142.24913	42.9375
146.58517	44.9375
150.91804	42.0375
155.24774	42.7375
159.57429	47.2375
163.89768	49.1375
168.21792	53.9375
172.53501	61.3375
176.84895	72.9375
181.15975	94.2375
185.46741	116.8375
189.77193	150.6375
194.07331	193.9375
198.37157	247.2375
202.6667	299.2375
206.9587	349.0375
211.24758	410.6375
215.53334	455.9375
219.81599	518.6375
224.09553	577.8375
228.37195	652.3375
232.64527	722.4375
236.91549	806.7375
241.18261	884.0375
245.44663	974.4375
249.70755	1040.9375
253.96539	1098.9375
258.22014	1130.1375
262.4718	1147.6375
266.72039	1138.4375
270.96589	1114.7375
275.20832	1093.9375
279.44768	1047.0375
283.68397	1011.9375
287.91719	971.2375
292.14735	943.5375
296.37445	908.4375
300.59849	884.7375
304.81948	867.6375
309.03742	863.7375
313.25231	847.2375
317.46415	834.7375
321.67296	820.9375
325.87872	810.3375
330.08145	814.6375
334.28114	815.4375
338.47781	819.4375
342.67145	821.7375
346.86207	834.1375
351.04966	842.0375
355.23424	854.5375
359.4158	868.6375
363.59435	869.1375
367.76989	882.7375
371.94243	890.7375
376.11196	889.6375
380.27849	898.5375
384.44203	904.2375
388.60257	906.7375
392.76012	918.1375
396.91468	920.5375
401.06626	935.5375
405.21485	951.0375
409.36047	958.4375
413.50311	1034.9375
417.64277	1155.6375
421.77947	1228.9375
425.9132	1039.6375
430.04396	940.9375
434.17176	933.4375
438.2966	940.6375
442.41849	952.5375
446.53742	955.9375
450.6534	968.2375
454.76644	976.7375
458.87653	980.6375
462.98368	989.0375
467.08789	989.9375
471.18916	987.5375
475.2875	993.9375
479.38291	992.5375
483.4754	996.4375
487.56496	987.3375
491.6516	995.1375
495.73531	1007.4375
499.81612	1005.6375
503.89401	1003.0375
507.96899	1007.9375
512.04106	993.0375
516.11023	1006.5375
520.1765	992.6375
524.23987	985.7375
528.30034	977.5375
532.35792	977.2375
536.41261	962.9375
540.46441	973.9375
544.51333	958.5375
548.55936	966.5375
552.60252	974.3375
556.64279	965.0375
560.6802	974.4375
564.71473	981.7375
568.7464	980.2375
572.7752	984.6375
576.80114	978.5375
580.82422	973.5375
584.84444	978.7375
588.86181	980.5375
592.87633	987.7375
596.888	986.0375
600.89682	990.1375
604.9028	1016.1375
608.90594	1076.2375
612.90624	1135.7375
616.90371	1135.9375
620.89834	1065.4375
624.89015	1031.1375
628.87913	1028.8375
632.86528	1029.2375
636.84862	1028.7375
640.82913	1035.8375
644.80683	1040.2375
648.78172	1041.3375
652.75379	1036.3375
656.72306	1054.8375
660.68952	1058.1375
664.65319	1059.8375
668.61405	1064.7375
672.57211	1070.7375
676.52738	1095.2375
680.47986	1109.2375
684.42955	1131.4375
688.37646	1140.6375
692.32058	1148.3375
696.26192	1123.0375
700.20048	1093.7375
704.13626	1080.7375
708.06928	1067.5375
711.99952	1060.8375
715.927	1061.3375
719.85171	1055.0375
723.77365	1049.1375
727.69284	1048.5375
731.60928	1043.5375
735.52295	1043.2375
739.43388	1049.6375
743.34206	1043.8375
747.24749	1047.1375
751.15017	1042.4375
755.05012	1016.2375
758.94733	1046.6375
762.8418	1072.2375
766.73354	1092.6375
770.62254	1122.0375
774.50882	1143.1375
778.39237	1132.9375
782.27321	1110.2375
786.15132	1085.3375
790.02671	1060.9375
793.89938	1063.2375
797.76935	1056.7375
801.6366	1068.5375
805.50115	1064.8375
809.36299	1062.4375
813.22213	1058.2375
817.07857	1065.6375
820.93231	1049.5375
824.78336	1046.6375
828.63172	1041.3375
832.47738	1032.2375
836.32036	1028.2375
840.16066	1029.7375
843.99827	1029.9375
847.8332	1029.0375
851.66546	1030.9375
855.49504	1030.4375
859.32195	1027.0375
863.1462	1026.1375
866.96777	1018.7375
870.78668	1030.1375
874.60293	1026.1375
878.41652	1028.4375
882.22745	1035.6375
886.03573	1025.9375
889.84136	1042.8375
893.64433	1052.9375
897.44466	1050.5375
901.24235	1061.6375
905.0374	1051.0375
908.8298	1050.3375
912.61957	1053.4375
916.40671	1059.9375
920.19121	1073.0375
923.97308	1079.1375
927.75233	1079.0375
931.52895	1072.9375
935.30295	1059.4375
939.07433	1059.6375
942.84309	1051.3375
946.60924	1047.2375
950.37278	1043.9375
954.13371	1040.3375
957.89203	1034.4375
961.64774	1040.7375
965.40086	1033.8375
969.15137	1026.3375
972.89929	1014.0375
976.64461	1017.7375
980.38733	1014.3375
984.12747	1009.9375
987.86502	1026.3375
991.59999	1013.5375
995.33237	1018.5375
999.06217	1028.5375
1002.78939	1023.6375
1006.51404	1026.9375
1010.23611	1021.2375
1013.95561	1035.3375
1017.67255	1037.3375
1021.38692	1031.8375
1025.09872	1036.5375
1028.80796	1040.3375
1032.51465	1038.5375
1036.21877	1041.2375
1039.92035	1037.7375
1043.61937	1048.0375
1047.31584	1043.4375
1051.00976	1036.9375
1054.70114	1040.4375
1058.38998	1037.7375
1062.07627	1048.9375
1065.76003	1042.0375
1069.44126	1047.3375
1073.11995	1050.5375
1076.79611	1042.3375
1080.46974	1048.6375
1084.14085	1046.4375
1087.80943	1046.6375
1091.47549	1041.9375
1095.13903	1035.6375
1098.80005	1028.1375
1102.45857	1024.3375
1106.11456	1022.0375
1109.76805	1021.8375
1113.41903	1028.1375
1117.06751	1043.3375
1120.71348	1044.9375
1124.35696	1064.2375
1127.99793	1076.3375
1131.63641	1080.8375
1135.2724	1092.2375
1138.90589	1093.3375
1142.5369	1090.6375
1146.16542	1092.1375
1149.79145	1074.0375
1153.415	1061.4375
1157.03607	1055.2375
1160.65467	1050.1375
1164.27079	1048.6375
1167.88443	1059.3375
1171.49561	1059.4375
1175.10432	1077.5375
1178.71056	1108.9375
1182.31434	1123.9375
1185.91565	1127.6375
1189.51451	1132.7375
1193.11091	1122.5375
1196.70485	1104.1375
1200.29634	1097.6375
1203.88538	1097.1375
1207.47197	1079.9375
1211.05612	1085.3375
1214.63782	1074.5375
1218.21708	1081.1375
1221.79391	1077.9375
1225.36829	1086.2375
1228.94024	1075.4375
1232.50976	1074.3375
1236.07685	1087.3375
1239.6415	1079.4375
1243.20374	1084.0375
1246.76355	1083.9375
1250.32093	1077.9375
1253.8759	1082.3375
1257.42845	1093.4375
1260.97859	1093.5375
1264.52631	1099.9375
1268.07163	1105.6375
1271.61453	1116.8375
1275.15503	1115.0375
1278.69312	1125.3375
1282.22882	1126.5375
1285.76211	1137.0375
1289.29301	1145.6375
1292.82151	1157.8375
1296.34761	1171.9375
1299.87133	1200.4375
1303.39266	1216.7375
1306.9116	1252.3375
1310.42815	1291.8375
1313.94233	1300.9375
1317.45412	1293.8375
1320.96354	1270.6375
1324.47058	1247.1375
1327.97525	1234.5375
1331.47754	1225.5375
1334.97747	1223.4375
1338.47502	1239.8375
1341.97022	1253.6375
1345.46305	1260.6375
1348.95352	1295.9375
1352.44163	1324.0375
1355.92738	1356.7375
1359.41078	1395.8375
1362.89183	1454.1375
1366.37053	1457.0375
1369.84688	1386.9375
1373.32088	1316.3375
1376.79254	1266.8375
1380.26186	1246.2375
1383.72883	1225.5375
1387.19347	1200.4375
1390.65578	1179.8375
1394.11575	1178.0375
1397.57339	1168.4375
1401.0287	1168.3375
1404.48168	1159.7375
1407.93234	1147.6375
1411.38068	1142.0375
1414.82669	1131.1375
1418.27039	1126.5375
1421.71177	1116.8375
1425.15083	1107.3375
1428.58758	1099.3375
1432.02203	1089.2375
1435.45416	1084.0375
1438.88399	1081.0375
1442.31151	1076.9375
1445.73673	1063.4375
1449.15965	1057.7375
1452.58027	1058.5375
1455.9986	1061.1375
1459.41463	1066.3375
1462.82837	1065.7375
1466.23982	1071.4375
1469.64898	1076.2375
1473.05586	1078.5375
1476.46045	1074.0375
1479.86276	1085.1375
1483.26279	1094.3375
1486.66054	1103.0375
1490.05602	1102.9375
1493.44922	1119.2375
1496.84016	1134.1375
1500.22882	1165.2375
1503.61521	1202.3375
1506.99934	1246.6375
1510.38121	1282.5375
1513.76081	1281.6375
1517.13816	1243.4375
1520.51324	1196.6375
1523.88607	1165.4375
1527.25665	1138.5375
1530.62498	1122.0375
1533.99105	1121.2375
1537.35488	1124.2375
1540.71647	1123.9375
1544.07581	1128.9375
1547.4329	1133.6375
1550.78776	1132.6375
1554.14038	1145.1375
1557.49077	1152.3375
1560.83892	1157.7375
1564.18484	1161.8375
1567.52853	1172.8375
1570.86999	1175.4375
1574.20922	1192.4375
1577.54624	1176.8375
1580.88103	1167.9375
1584.2136	1148.9375
1587.54395	1130.0375
1590.87208	1128.5375
1594.19801	1119.8375
1597.52172	1113.5375
1600.84321	1113.3375
1604.16251	1094.1375
1607.47959	1093.2375
1610.79447	1080.9375
1614.10715	1072.4375
1617.41763	1062.8375
1620.7259	1052.2375
1624.03199	1046.0375
1627.33587	1036.0375
1630.63757	1036.0375
1633.93707	1032.6375
1637.23439	1032.2375
1640.52951	1028.6375
1643.82246	1031.1375
1647.11321	1053.5375
1650.40179	1051.1375
1653.68819	1043.2375
1656.97241	1007.0375
1660.25446	978.3375
1663.53433	947.4375
1666.81203	926.5375
1670.08756	926.5375
1673.36092	930.3375
1676.63211	925.0375
1679.90115	916.0375
1683.16801	910.3375
1686.43272	899.9375
1689.69527	885.0375
1692.95567	859.5375
1696.2139	832.5375
1699.46999	792.4375
1702.72392	792.3375
1705.97571	808.6375
1709.22535	825.1375
1712.47284	833.1375
1715.71819	847.1375
1718.96139	839.1375
1722.20246	842.4375
1725.44139	825.9375
1728.67818	824.7375
1731.91284	817.9375
1735.14537	808.4375
1738.37576	801.8375
1741.60403	790.7375
1744.83017	779.9375
1748.05418	774.7375
1751.27607	763.9375
1754.49584	747.6375
1757.71349	728.2375
1760.92903	717.4375
1764.14244	721.2375
1767.35375	707.9375
1770.56294	711.9375
1773.77002	719.0375
1776.97499	727.2375
1780.17785	746.4375
1783.37861	742.3375
1786.57727	751.9375
1789.77382	757.1375
1792.96828	754.1375
1796.16064	752.2375
1799.3509	752.9375
1802.53907	755.0375
1805.72514	749.4375
1808.90913	747.8375
1812.09102	749.3375
1815.27083	753.7375
1818.44856	746.8375
1821.6242	743.2375
1824.79776	744.3375
1827.96924	742.7375
1831.13864	740.8375
1834.30597	741.0375
1837.47122	740.4375
1840.6344	736.3375
1843.7955	738.1375
1846.95454	740.8375
1850.11151	731.5375
1853.26642	740.5375
1856.41926	736.4375
1859.57004	741.0375
1862.71876	733.3375
1865.86542	737.7375
1869.01003	727.2375
1872.15258	734.1375
1875.29308	729.6375
1878.43152	720.5375
1881.56792	731.7375
1884.70227	722.1375
1887.83457	721.0375
1890.96482	719.7375
1894.09304	715.9375
1897.21921	721.0375
1900.34335	719.0375
1903.46544	714.0375
1906.58551	718.9375
1909.70353	715.8375
1912.81953	722.7375
1915.93349	713.6375
1919.04543	719.4375
1922.15534	712.3375
1925.26322	714.1375
1928.36908	718.5375
1931.47292	719.5375
1934.57473	714.1375
1937.67453	710.6375
1940.77232	712.9375
1943.86808	705.9375
1946.96184	706.0375
1950.05358	710.2375
1953.14331	700.2375
1956.23103	702.1375
1959.31675	702.7375
1962.40046	695.1375
1965.48217	692.3375
1968.56188	689.5375
1971.63959	693.5375
1974.7153	687.1375
1977.78901	684.6375
1980.86073	688.0375
1983.93046	680.4375
1986.99819	680.6375
1990.06394	675.1375
1993.1277	671.0375
1996.18947	676.2375
1999.24925	671.1375
2002.30706	675.4375
2005.36288	666.1375
2008.41672	667.9375
2011.46859	670.4375
2014.51848	667.2375
2017.56639	660.8375
2020.61233	660.3375
2023.6563	661.2375
2026.6983	656.9375
2029.73833	662.4375
2032.7764	659.8375
2035.8125	656.2375
2038.84664	652.8375
2041.87881	652.9375
2044.90903	648.7375
2047.93729	654.0375
2050.96359	655.0375
2053.98794	654.5375
2057.01034	660.4375
2060.03078	650.4375
2063.04927	662.4375
2066.06582	660.5375
2069.08042	660.2375
2072.09307	667.1375
2075.10378	665.5375
2078.11255	665.8375
2081.11938	665.7375
2084.12426	674.4375
2087.12722	680.6375
2090.12824	678.2375
2093.12732	682.3375
2096.12447	683.8375
2099.11969	683.2375
2102.11299	691.7375
2105.10435	689.0375
2108.09379	691.7375
2111.08131	691.7375
2114.0669	696.3375
2117.05057	693.1375
2120.03233	701.0375
2123.01216	688.0375
2125.99008	686.7375
2128.96609	695.3375
2131.94018	696.1375
2134.91236	696.3375
2137.88263	696.8375
2140.851	685.9375
2143.81746	689.7375
2146.78201	692.0375
2149.74466	689.8375
2152.7054	684.2375
2155.66425	684.9375
2158.6212	685.3375
2161.57625	685.9375
2164.52941	685.4375
2167.48067	680.2375
2170.43004	686.1375
2173.37752	682.2375
2176.32311	680.5375
2179.26681	678.7375
2182.20863	676.6375
2185.14856	680.0375
2188.08661	678.7375
2191.02278	679.2375
2193.95707	669.9375
2196.88948	661.7375
2199.82001	662.0375
2202.74867	669.7375
2205.67545	662.9375
2208.60037	660.5375
2211.52341	661.2375
2214.44458	660.1375
2217.36388	659.7375
2220.28132	650.3375
2223.1969	651.0375
2226.11061	653.4375
2229.02246	646.6375
2231.93245	646.9375
2234.84058	644.2375
2237.74686	647.8375
2240.65128	644.0375
2243.55385	639.9375
2246.45456	640.1375
2249.35343	646.9375
2252.25044	645.3375
2255.14561	651.9375
2258.03893	638.1375
2260.93041	631.1375
2263.82004	632.9375
2266.70783	637.3375
2269.59378	633.4375
2272.4779	629.1375
2275.36017	637.7375
2278.24061	635.4375
2281.11922	623.7375
2283.996	627.7375
2286.87094	628.9375
2289.74405	630.8375
2292.61534	631.2375
2295.4848	630.2375
2298.35243	625.4375
2301.21824	625.4375
2304.08223	629.9375
2306.94439	623.7375
2309.80474	625.9375
2312.66327	624.1375
2315.51999	622.1375
2318.37489	625.4375
2321.22797	619.8375
2324.07925	617.4375
2326.92871	618.6375
2329.77637	620.9375
2332.62222	621.6375
2335.46626	615.5375
2338.3085	612.1375
2341.14893	610.9375
2343.98756	616.2375
2346.8244	611.2375
2349.65943	613.8375
2352.49267	612.7375
2355.32411	611.0375
2358.15376	612.8375
2360.98161	616.5375
2363.80768	610.0375
2366.63195	613.6375
2369.45444	606.4375
2372.27514	616.9375
2375.09405	615.0375
2377.91118	612.2375
2380.72652	614.3375
2383.54009	613.6375
2386.35187	610.6375
2389.16188	603.7375
2391.97011	614.0375
2394.77657	610.3375
2397.58125	605.8375
2400.38416	603.8375
2403.18529	602.6375
2405.98466	602.3375
2408.78226	599.7375
2411.57809	600.7375
2414.37216	610.0375
2417.16446	599.4375
2419.955	596.0375
2422.74378	601.5375
2425.5308	603.5375
2428.31606	599.6375
2431.09956	602.0375
2433.88131	599.7375
2436.6613	592.6375
2439.43954	597.3375
2442.21603	595.6375
2444.99077	600.9375
2447.76377	597.2375
2450.53501	598.8375
2453.30451	596.4375
2456.07226	593.8375
2458.83827	595.3375
2461.60254	588.4375
2464.36507	594.8375
2467.12586	590.8375
2469.88492	595.8375
2472.64224	599.2375
2475.39782	586.0375
2478.15167	583.7375
2480.90379	586.4375
2483.65417	589.1375
2486.40283	594.1375
2489.14976	594.3375
2491.89497	594.1375
2494.63845	586.0375
2497.3802	577.6375
2500.12024	581.9375
2502.85855	585.7375
2505.59514	585.2375
2508.33002	590.2375
2511.06318	587.1375
2513.79462	593.9375
2516.52435	594.3375
2519.25237	587.7375
2521.97867	587.8375
2524.70327	580.0375
2527.42616	583.0375
2530.14734	575.6375
2532.86681	581.3375
2535.58458	591.8375
2538.30065	580.8375
2541.01501	578.0375
2543.72768	585.3375
2546.43864	577.9375
2549.14791	581.9375
2551.85548	578.9375
2554.56136	580.6375
2557.26554	577.1375
2559.96803	574.0375
2562.66883	578.0375
2565.36794	576.0375
2568.06536	578.6375
2570.7611	577.8375
2573.45514	575.1375
2576.14751	572.3375
2578.83819	569.1375
2581.52719	570.9375
2584.21451	564.4375
2586.90015	566.0375
2589.58411	568.8375
2592.2664	570.8375
2594.94701	571.2375
2597.62594	570.6375
2600.30321	570.0375
2602.9788	562.0375
2605.65273	570.4375
2608.32498	562.0375
2610.99557	557.7375
2613.66449	557.5375
2616.33175	572.3375
2618.99734	569.3375
2621.66128	561.0375
2624.32355	563.2375
2626.98416	561.6375
2629.64311	563.0375
2632.30041	564.2375
2634.95605	563.2375
2637.61004	564.8375
2640.26238	561.5375
2642.91306	557.6375
2645.56209	559.6375
2648.20948	558.7375
2650.85521	551.3375
2653.4993	560.2375
2656.14175	559.9375
2658.78255	557.2375
2661.42171	557.1375
2664.05923	560.0375
2666.6951	562.6375
2669.32934	556.9375
2671.96194	560.6375
2674.59291	559.9375
2677.22224	554.4375
2679.84993	560.8375
2682.476	564.0375
2685.10043	556.3375
2687.72324	557.3375
2690.34441	563.7375
2692.96396	561.3375
2695.58188	562.8375
2698.19818	564.2375
2700.81285	558.3375
2703.4259	548.7375
2706.03733	505.2375
2708.64714	528.2375
2711.25533	552.9375
2713.86191	550.6375
2716.46687	559.0375
2719.07021	562.3375
2721.67194	567.6375
2724.27206	567.2375
2726.87057	568.3375
2729.46747	564.9375
2732.06276	575.1375
2734.65644	560.7375
2737.24852	570.2375
2739.83899	560.5375
2742.42786	570.8375
2745.01513	563.9375
2747.60079	570.6375
2750.18486	566.7375
2752.76733	566.4375
2755.3482	558.1375
2757.92747	561.0375
2760.50515	562.2375
2763.08123	559.6375
2765.65573	560.8375
2768.22863	563.3375
2770.79994	560.5375
2773.36967	562.7375
2775.9378	558.6375
2778.50435	557.4375
2781.06932	564.2375
2783.6327	566.7375
2786.1945	563.1375
2788.75471	559.2375
2791.31335	560.7375
2793.87041	565.6375
2796.42589	562.2375
2798.97979	559.6375
2801.53212	561.5375
2804.08288	557.7375
2806.63206	554.9375
2809.17967	549.1375
2811.72571	551.5375
2814.27018	558.7375
2816.81308	552.4375
2819.35442	551.0375
2821.89419	550.6375
2824.43239	554.8375
2826.96904	546.6375
2829.50412	545.0375
2832.03763	544.4375
2834.56959	546.3375
2837.1	548.9375
2839.62884	545.6375
2842.15613	544.7375
2844.68186	541.6375
2847.20604	546.3375
2849.72867	542.7375
2852.24974	544.9375
2854.76927	544.6375
2857.28724	533.5375
2859.80367	546.6375
2862.31855	549.3375
2864.83189	547.2375
2867.34368	546.6375
2869.85393	549.5375
2872.36264	546.8375
2874.8698	551.7375
2877.37543	545.1375
2879.87952	552.2375
2882.38207	550.8375
2884.88308	553.2375
2887.38256	557.6375
2889.88051	553.3375
2892.37692	559.1375
2894.8718	561.0375
2897.36515	560.8375
2899.85698	559.2375
2902.34727	559.7375
2904.83604	561.6375
2907.32328	564.1375
2909.809	567.5375
2912.29319	580.0375
2914.77587	565.5375
2917.25702	572.4375
2919.73665	568.0375
2922.21476	567.2375
2924.69136	566.5375
2927.16644	574.1375
2929.64	574.6375
2932.11205	576.5375
2934.58258	569.5375
2937.05161	577.7375
2939.51912	568.3375
2941.98513	575.1375
2944.44962	579.3375
2946.91261	578.1375
2949.37409	579.7375
2951.83407	578.2375
2954.29254	579.3375
2956.74951	577.8375
2959.20498	579.6375
2961.65895	578.6375
2964.11142	580.3375
2966.56239	584.9375
2969.01186	582.6375
2971.45984	582.8375
2973.90632	585.3375
2976.35131	587.1375
2978.7948	589.8375
2981.23681	585.5375
2983.67732	582.8375
2986.11635	582.0375
2988.55388	586.8375
2990.98993	578.8375
2993.4245	589.0375
2995.85758	586.9375
2998.28917	590.2375
3000.71928	590.4375
3003.14791	590.6375
3005.57506	591.3375
3008.00073	591.5375
3010.42493	587.8375
3012.84764	589.7375
3015.26888	597.2375
3017.68865	599.6375
3020.10694	594.6375
3022.52376	600.4375
3024.9391	600.5375
3027.35298	602.0375
3029.76539	605.9375
3032.17632	612.9375
3034.5858	605.7375
3036.9938	608.9375
3039.40034	614.2375
3041.80542	617.8375
3044.20903	624.4375
3046.61118	622.3375
3049.01187	619.0375
3051.4111	625.6375
3053.80888	631.6375
3056.20519	637.5375
3058.60005	632.1375
3060.99345	643.8375
3063.3854	640.2375
3065.7759	643.2375
3068.16494	644.6375
3070.55254	647.0375
3072.93868	651.5375
3075.32338	656.7375
3077.70662	658.0375
3080.08842	655.9375
3082.46878	661.9375
3084.84769	661.6375
3087.22515	667.1375
3089.60118	677.9375
3091.97576	680.5375
3094.3489	684.2375
3096.72061	690.9375
3099.09087	694.2375
3101.4597	697.1375
3103.82709	706.8375
3106.19305	712.6375
3108.55757	716.7375
3110.92066	720.1375
3113.28232	727.4375
3115.64255	732.5375
3118.00134	742.6375
3120.35871	744.9375
3122.71466	744.0375
3125.06917	747.6375
3127.42226	753.7375
3129.77393	759.8375
3132.12417	769.6375
3134.47299	767.2375
3136.82039	777.8375
3139.16636	779.6375
3141.51092	791.7375
3143.85406	790.5375
3146.19579	799.8375
3148.53609	806.2375
3150.87499	813.7375
3153.21246	823.9375
3155.54853	833.4375
3157.88318	836.2375
3160.21642	849.2375
3162.54826	851.8375
3164.87868	857.7375
3167.2077	867.3375
3169.5353	866.3375
3171.86151	873.9375
3174.18631	878.1375
3176.5097	881.6375
3178.83169	890.6375
3181.15228	905.4375
3183.47147	906.9375
3185.78926	908.9375
3188.10565	912.1375
3190.42065	922.9375
3192.73424	929.3375
3195.04645	924.2375
3197.35725	932.0375
