Data from AgNPs_APTES_FTO_UA_100uM_CRN_0uM_R6G_10uM_Scan_RamanShift__39__11-25-11-280.txt Node

Date: Wed Jun 29 11:25:11 BST 2022
User: TCL
Spectrometer: QEP01345
Trigger mode: 4
Integration Time (sec): 7.000000E0
Scans to average: 10
Electric dark correction enabled: true
Nonlinearity correction enabled: false
Boxcar width: 0
XAxis mode: Raman Shifts
Number of Pixels in Spectrum: 1044
>>>>>Begin Spectral Data<<<<<
46.04893	-0.0125
50.45542	0.1875
54.85868	0.4875
59.25871	1.6875
63.6555	40.0875
68.04907	42.4875
72.43941	42.1875
76.82654	48.9875
81.21044	51.2875
85.59113	51.3875
89.96862	55.4875
94.34289	59.0875
98.71396	59.0875
103.08183	59.3875
107.4465	61.7875
111.80798	63.6875
116.16626	58.5875
120.52136	60.5875
124.87327	59.7875
129.222	60.3875
133.56755	60.4875
137.90993	56.3875
142.24913	60.3875
146.58517	52.8875
150.91804	54.9875
155.24774	56.3875
159.57429	63.9875
163.89768	66.4875
168.21792	73.0875
172.53501	85.5875
176.84895	106.6875
181.15975	139.5875
185.46741	175.5875
189.77193	227.4875
194.07331	297.5875
198.37157	372.7875
202.6667	457.5875
206.9587	529.6875
211.24758	608.3875
215.53334	687.8875
219.81599	782.2875
224.09553	871.4875
228.37195	976.6875
232.64527	1083.0875
236.91549	1194.6875
241.18261	1307.5875
245.44663	1399.4875
249.70755	1483.2875
253.96539	1535.4875
258.22014	1595.9875
262.4718	1625.2875
266.72039	1659.6875
270.96589	1663.6875
275.20832	1648.2875
279.44768	1617.8875
283.68397	1583.7875
287.91719	1558.6875
292.14735	1537.8875
296.37445	1544.3875
300.59849	1570.5875
304.81948	1618.4875
309.03742	1653.3875
313.25231	1646.0875
317.46415	1614.0875
321.67296	1548.2875
325.87872	1499.5875
330.08145	1476.1875
334.28114	1473.1875
338.47781	1497.7875
342.67145	1518.6875
346.86207	1567.4875
351.04966	1622.4875
355.23424	1688.9875
359.4158	1744.8875
363.59435	1789.2875
367.76989	1797.4875
371.94243	1802.8875
376.11196	1807.8875
380.27849	1822.4875
384.44203	1820.9875
388.60257	1814.3875
392.76012	1810.8875
396.91468	1835.5875
401.06626	1870.6875
405.21485	1879.5875
409.36047	1851.6875
413.50311	1802.6875
417.64277	1749.7875
421.77947	1720.4875
425.9132	1709.2875
430.04396	1700.4875
434.17176	1711.2875
438.2966	1741.2875
442.41849	1759.3875
446.53742	1796.0875
450.6534	1831.4875
454.76644	1841.2875
458.87653	1844.6875
462.98368	1845.9875
467.08789	1840.7875
471.18916	1819.2875
475.2875	1813.2875
479.38291	1788.0875
483.4754	1778.0875
487.56496	1779.8875
491.6516	1782.3875
495.73531	1792.0875
499.81612	1790.2875
503.89401	1800.9875
507.96899	1797.7875
512.04106	1811.1875
516.11023	1820.6875
520.1765	1837.1875
524.23987	1839.3875
528.30034	1834.8875
532.35792	1834.9875
536.41261	1818.7875
540.46441	1796.6875
544.51333	1771.6875
548.55936	1772.5875
552.60252	1788.5875
556.64279	1799.7875
560.6802	1826.0875
564.71473	1834.3875
568.7464	1861.5875
572.7752	1891.9875
576.80114	1842.6875
580.82422	1820.5875
584.84444	1817.6875
588.86181	1842.0875
592.87633	1874.9875
596.888	1906.8875
600.89682	1933.0875
604.9028	2065.8875
608.90594	2420.0875
612.90624	2865.7875
616.90371	2758.3875
620.89834	2223.6875
624.89015	1973.4875
628.87913	1952.9875
632.86528	1991.7875
636.84862	2039.8875
640.82913	2035.2875
644.80683	1971.4875
648.78172	1910.7875
652.75379	1902.0875
656.72306	1917.8875
660.68952	1972.2875
664.65319	1958.0875
668.61405	1901.8875
672.57211	1886.3875
676.52738	1919.5875
680.47986	1939.7875
684.42955	1982.0875
688.37646	2002.3875
692.32058	1995.2875
696.26192	1972.5875
700.20048	1953.6875
704.13626	1943.8875
708.06928	1913.0875
711.99952	1896.1875
715.927	1887.3875
719.85171	1890.5875
723.77365	1881.3875
727.69284	1889.9875
731.60928	1879.7875
735.52295	1872.9875
739.43388	1864.9875
743.34206	1863.3875
747.24749	1871.5875
751.15017	1861.9875
755.05012	1847.4875
758.94733	1904.1875
762.8418	2030.9875
766.73354	2243.2875
770.62254	2461.6875
774.50882	2575.7875
778.39237	2521.7875
782.27321	2320.7875
786.15132	2094.9875
790.02671	1959.1875
793.89938	1910.8875
797.76935	1886.7875
801.6366	1883.5875
805.50115	1880.1875
809.36299	1894.6875
813.22213	1887.9875
817.07857	1878.8875
820.93231	1856.3875
824.78336	1841.5875
828.63172	1835.1875
832.47738	1838.6875
836.32036	1831.3875
840.16066	1828.9875
843.99827	1832.2875
847.8332	1833.1875
851.66546	1824.0875
855.49504	1823.0875
859.32195	1827.3875
863.1462	1822.7875
866.96777	1818.1875
870.78668	1827.9875
874.60293	1836.8875
878.41652	1837.7875
882.22745	1861.9875
886.03573	1872.6875
889.84136	1876.4875
893.64433	1870.7875
897.44466	1856.2875
901.24235	1843.3875
905.0374	1810.8875
908.8298	1798.8875
912.61957	1793.5875
916.40671	1797.9875
920.19121	1801.2875
923.97308	1805.3875
927.75233	1825.1875
931.52895	1847.7875
935.30295	1827.8875
939.07433	1813.0875
942.84309	1789.3875
946.60924	1776.0875
950.37278	1768.8875
954.13371	1757.4875
957.89203	1755.6875
961.64774	1764.7875
965.40086	1753.7875
969.15137	1739.6875
972.89929	1748.2875
976.64461	1728.9875
980.38733	1722.3875
984.12747	1727.2875
987.86502	1732.1875
991.59999	1731.2875
995.33237	1746.1875
999.06217	1768.7875
1002.78939	1789.6875
1006.51404	1825.9875
1010.23611	1851.1875
1013.95561	1865.5875
1017.67255	1875.3875
1021.38692	1855.4875
1025.09872	1854.5875
1028.80796	1842.3875
1032.51465	1831.3875
1036.21877	1840.7875
1039.92035	1831.6875
1043.61937	1839.4875
1047.31584	1822.6875
1051.00976	1829.6875
1054.70114	1819.9875
1058.38998	1828.6875
1062.07627	1837.1875
1065.76003	1854.6875
1069.44126	1858.6875
1073.11995	1885.8875
1076.79611	1910.3875
1080.46974	1924.9875
1084.14085	1955.7875
1087.80943	1977.2875
1091.47549	1953.4875
1095.13903	1932.4875
1098.80005	1898.4875
1102.45857	1882.4875
1106.11456	1870.5875
1109.76805	1884.1875
1113.41903	1908.9875
1117.06751	1962.4875
1120.71348	2019.3875
1124.35696	2100.5875
1127.99793	2184.9875
1131.63641	2216.3875
1135.2724	2183.3875
1138.90589	2128.4875
1142.5369	2074.6875
1146.16542	2024.1875
1149.79145	1963.3875
1153.415	1927.7875
1157.03607	1912.8875
1160.65467	1915.7875
1164.27079	1941.5875
1167.88443	2013.8875
1171.49561	2096.5875
1175.10432	2252.8875
1178.71056	2468.9875
1182.31434	2665.2875
1185.91565	2712.2875
1189.51451	2646.9875
1193.11091	2524.4875
1196.70485	2424.2875
1200.29634	2344.4875
1203.88538	2278.2875
1207.47197	2178.8875
1211.05612	2102.3875
1214.63782	2041.7875
1218.21708	2011.1875
1221.79391	1999.9875
1225.36829	1995.5875
1228.94024	1986.5875
1232.50976	1975.4875
1236.07685	1959.9875
1239.6415	1966.7875
1243.20374	1979.5875
1246.76355	1976.2875
1250.32093	2003.1875
1253.8759	2011.7875
1257.42845	2055.0875
1260.97859	2081.9875
1264.52631	2135.1875
1268.07163	2192.2875
1271.61453	2232.6875
1275.15503	2268.0875
1278.69312	2267.3875
1282.22882	2286.2875
1285.76211	2331.6875
1289.29301	2375.3875
1292.82151	2449.2875
1296.34761	2516.4875
1299.87133	2630.4875
1303.39266	2793.2875
1306.9116	3027.8875
1310.42815	3281.1875
1313.94233	3400.7875
1317.45412	3308.2875
1320.96354	3063.0875
1324.47058	2856.8875
1327.97525	2661.4875
1331.47754	2552.5875
1334.97747	2513.7875
1338.47502	2513.0875
1341.97022	2577.0875
1345.46305	2673.6875
1348.95352	2841.6875
1352.44163	3051.7875
1355.92738	3325.6875
1359.41078	3726.4875
1362.89183	4118.2875
1366.37053	4039.1875
1369.84688	3507.5875
1373.32088	2982.2875
1376.79254	2684.3875
1380.26186	2516.5875
1383.72883	2433.8875
1387.19347	2349.6875
1390.65578	2270.9875
1394.11575	2214.5875
1397.57339	2162.6875
1401.0287	2145.5875
1404.48168	2138.0875
1407.93234	2119.8875
1411.38068	2108.5875
1414.82669	2086.1875
1418.27039	2074.7875
1421.71177	2061.4875
1425.15083	2048.5875
1428.58758	2033.5875
1432.02203	2044.5875
1435.45416	2074.2875
1438.88399	2089.2875
1442.31151	2076.6875
1445.73673	2088.7875
1449.15965	2103.3875
1452.58027	2109.0875
1455.9986	2111.8875
1459.41463	2118.3875
1462.82837	2132.9875
1466.23982	2168.6875
1469.64898	2215.1875
1473.05586	2222.0875
1476.46045	2234.6875
1479.86276	2231.6875
1483.26279	2254.6875
1486.66054	2253.8875
1490.05602	2288.8875
1493.44922	2362.7875
1496.84016	2482.0875
1500.22882	2677.6875
1503.61521	2969.4875
1506.99934	3319.8875
1510.38121	3601.0875
1513.76081	3641.0875
1517.13816	3422.3875
1520.51324	3046.1875
1523.88607	2704.0875
1527.25665	2479.8875
1530.62498	2358.4875
1533.99105	2293.4875
1537.35488	2248.6875
1540.71647	2212.0875
1544.07581	2207.2875
1547.4329	2192.3875
1550.78776	2198.6875
1554.14038	2206.5875
1557.49077	2218.2875
1560.83892	2254.5875
1564.18484	2302.1875
1567.52853	2365.4875
1570.86999	2459.4875
1574.20922	2491.6875
1577.54624	2485.7875
1580.88103	2397.7875
1584.2136	2278.1875
1587.54395	2198.0875
1590.87208	2179.3875
1594.19801	2214.9875
1597.52172	2321.9875
1600.84321	2352.7875
1604.16251	2307.8875
1607.47959	2209.0875
1610.79447	2121.8875
1614.10715	2030.8875
1617.41763	1951.5875
1620.7259	1897.9875
1624.03199	1887.0875
1627.33587	1883.6875
1630.63757	1886.0875
1633.93707	1933.3875
1637.23439	2018.0875
1640.52951	2162.1875
1643.82246	2368.9875
1647.11321	2616.6875
1650.40179	2780.9875
1653.68819	2715.1875
1656.97241	2462.3875
1660.25446	2177.3875
1663.53433	1950.7875
1666.81203	1830.1875
1670.08756	1775.4875
1673.36092	1733.8875
1676.63211	1694.4875
1679.90115	1668.9875
1683.16801	1649.0875
1686.43272	1625.8875
1689.69527	1610.8875
1692.95567	1583.9875
1696.2139	1567.3875
1699.46999	1532.6875
1702.72392	1527.6875
1705.97571	1505.9875
1709.22535	1503.0875
1712.47284	1494.0875
1715.71819	1496.3875
1718.96139	1481.3875
1722.20246	1457.1875
1725.44139	1442.7875
1728.67818	1431.9875
1731.91284	1405.2875
1735.14537	1401.3875
1738.37576	1388.5875
1741.60403	1387.5875
1744.83017	1374.7875
1748.05418	1365.4875
1751.27607	1353.7875
1754.49584	1339.1875
1757.71349	1339.5875
1760.92903	1330.7875
1764.14244	1324.7875
1767.35375	1318.5875
1770.56294	1318.4875
1773.77002	1320.5875
1776.97499	1303.7875
1780.17785	1314.4875
1783.37861	1309.3875
1786.57727	1306.3875
1789.77382	1306.9875
1792.96828	1300.0875
1796.16064	1299.3875
1799.3509	1298.4875
1802.53907	1289.6875
1805.72514	1293.4875
1808.90913	1287.8875
1812.09102	1287.6875
1815.27083	1284.1875
1818.44856	1276.1875
1821.6242	1272.2875
1824.79776	1264.3875
1827.96924	1270.0875
1831.13864	1261.7875
1834.30597	1259.5875
1837.47122	1255.7875
1840.6344	1257.3875
1843.7955	1254.1875
1846.95454	1247.7875
1850.11151	1257.9875
1853.26642	1257.5875
1856.41926	1251.1875
1859.57004	1246.3875
1862.71876	1246.0875
1865.86542	1241.8875
1869.01003	1241.0875
1872.15258	1241.7875
1875.29308	1244.6875
1878.43152	1241.8875
1881.56792	1237.4875
1884.70227	1229.7875
1887.83457	1231.7875
1890.96482	1225.2875
1894.09304	1230.2875
1897.21921	1224.7875
1900.34335	1222.7875
1903.46544	1225.9875
1906.58551	1223.9875
1909.70353	1215.3875
1912.81953	1219.2875
1915.93349	1210.9875
1919.04543	1220.1875
1922.15534	1215.5875
1925.26322	1203.4875
1928.36908	1204.9875
1931.47292	1191.7875
1934.57473	1202.6875
1937.67453	1198.7875
1940.77232	1197.8875
1943.86808	1195.2875
1946.96184	1182.2875
1950.05358	1186.0875
1953.14331	1179.9875
1956.23103	1177.0875
1959.31675	1175.3875
1962.40046	1165.9875
1965.48217	1167.9875
1968.56188	1158.8875
1971.63959	1160.3875
1974.7153	1162.1875
1977.78901	1151.4875
1980.86073	1143.5875
1983.93046	1148.5875
1986.99819	1138.9875
1990.06394	1133.4875
1993.1277	1134.0875
1996.18947	1130.5875
1999.24925	1123.0875
2002.30706	1114.5875
2005.36288	1114.4875
2008.41672	1115.1875
2011.46859	1119.5875
2014.51848	1112.0875
2017.56639	1104.8875
2020.61233	1108.4875
2023.6563	1098.8875
2026.6983	1097.3875
2029.73833	1096.6875
2032.7764	1093.0875
2035.8125	1094.1875
2038.84664	1090.5875
2041.87881	1087.3875
2044.90903	1082.0875
2047.93729	1082.9875
2050.96359	1085.0875
2053.98794	1088.1875
2057.01034	1082.1875
2060.03078	1086.3875
2063.04927	1088.2875
2066.06582	1086.2875
2069.08042	1082.2875
2072.09307	1087.6875
2075.10378	1083.9875
2078.11255	1088.9875
2081.11938	1079.9875
2084.12426	1086.2875
2087.12722	1087.7875
2090.12824	1085.9875
2093.12732	1090.3875
2096.12447	1090.2875
2099.11969	1084.5875
2102.11299	1087.3875
2105.10435	1091.4875
2108.09379	1087.9875
2111.08131	1088.1875
2114.0669	1082.4875
2117.05057	1090.5875
2120.03233	1087.0875
2123.01216	1093.9875
2125.99008	1087.7875
2128.96609	1079.2875
2131.94018	1083.4875
2134.91236	1076.0875
2137.88263	1081.7875
2140.851	1077.0875
2143.81746	1079.1875
2146.78201	1081.0875
2149.74466	1082.4875
2152.7054	1077.2875
2155.66425	1074.1875
2158.6212	1074.8875
2161.57625	1083.2875
2164.52941	1073.5875
2167.48067	1074.3875
2170.43004	1079.6875
2173.37752	1065.8875
2176.32311	1076.2875
2179.26681	1069.6875
2182.20863	1077.3875
2185.14856	1067.9875
2188.08661	1070.6875
2191.02278	1076.2875
2193.95707	1073.0875
2196.88948	1055.8875
2199.82001	1071.1875
2202.74867	1060.7875
2205.67545	1065.1875
2208.60037	1060.4875
2211.52341	1064.5875
2214.44458	1054.2875
2217.36388	1053.0875
2220.28132	1059.2875
2223.1969	1049.2875
2226.11061	1047.2875
2229.02246	1039.2875
2231.93245	1044.1875
2234.84058	1041.5875
2237.74686	1039.2875
2240.65128	1043.1875
2243.55385	1039.8875
2246.45456	1028.4875
2249.35343	1034.3875
2252.25044	1034.4875
2255.14561	1043.5875
2258.03893	1032.5875
2260.93041	1026.9875
2263.82004	1029.0875
2266.70783	1023.8875
2269.59378	1023.6875
2272.4779	1017.0875
2275.36017	1011.1875
2278.24061	1017.1875
2281.11922	1009.2875
2283.996	998.1875
2286.87094	1008.8875
2289.74405	1004.3875
2292.61534	1005.0875
2295.4848	1004.9875
2298.35243	995.5875
2301.21824	1003.5875
2304.08223	1004.1875
2306.94439	1002.4875
2309.80474	1002.6875
2312.66327	993.0875
2315.51999	999.7875
2318.37489	999.1875
2321.22797	996.2875
2324.07925	997.1875
2326.92871	994.8875
2329.77637	1003.3875
2332.62222	997.0875
2335.46626	997.8875
2338.3085	988.2875
2341.14893	986.6875
2343.98756	988.1875
2346.8244	992.0875
2349.65943	988.6875
2352.49267	988.7875
2355.32411	976.3875
2358.15376	978.6875
2360.98161	979.6875
2363.80768	988.3875
2366.63195	990.2875
2369.45444	986.1875
2372.27514	988.5875
2375.09405	987.3875
2377.91118	979.4875
2380.72652	981.3875
2383.54009	978.8875
2386.35187	976.0875
2389.16188	975.9875
2391.97011	974.8875
2394.77657	972.8875
2397.58125	968.0875
2400.38416	958.4875
2403.18529	965.7875
2405.98466	968.1875
2408.78226	957.6875
2411.57809	956.2875
2414.37216	958.0875
2417.16446	956.9875
2419.955	957.3875
2422.74378	955.0875
2425.5308	954.6875
2428.31606	955.8875
2431.09956	951.8875
2433.88131	946.0875
2436.6613	949.1875
2439.43954	954.7875
2442.21603	949.5875
2444.99077	950.3875
2447.76377	952.2875
2450.53501	955.4875
2453.30451	949.3875
2456.07226	953.9875
2458.83827	948.2875
2461.60254	938.0875
2464.36507	951.3875
2467.12586	942.6875
2469.88492	942.4875
2472.64224	946.0875
2475.39782	939.8875
2478.15167	941.5875
2480.90379	940.3875
2483.65417	949.0875
2486.40283	936.5875
2489.14976	947.2875
2491.89497	945.9875
2494.63845	940.3875
2497.3802	944.1875
2500.12024	944.6875
2502.85855	939.1875
2505.59514	943.2875
2508.33002	936.6875
2511.06318	935.0875
2513.79462	933.0875
2516.52435	929.4875
2519.25237	936.0875
2521.97867	932.6875
2524.70327	929.3875
2527.42616	919.9875
2530.14734	918.7875
2532.86681	921.8875
2535.58458	931.2875
2538.30065	917.1875
2541.01501	919.4875
2543.72768	919.2875
2546.43864	914.5875
2549.14791	917.3875
2551.85548	921.1875
2554.56136	915.8875
2557.26554	918.0875
2559.96803	911.8875
2562.66883	916.8875
2565.36794	904.9875
2568.06536	911.9875
2570.7611	905.3875
2573.45514	910.4875
2576.14751	911.8875
2578.83819	895.7875
2581.52719	896.8875
2584.21451	897.3875
2586.90015	897.5875
2589.58411	895.8875
2592.2664	894.6875
2594.94701	893.7875
2597.62594	898.2875
2600.30321	889.1875
2602.9788	890.2875
2605.65273	898.4875
2608.32498	885.6875
2610.99557	886.6875
2613.66449	890.4875
2616.33175	890.6875
2618.99734	892.2875
2621.66128	883.1875
2624.32355	889.5875
2626.98416	892.2875
2629.64311	886.0875
2632.30041	875.5875
2634.95605	877.8875
2637.61004	882.6875
2640.26238	873.8875
2642.91306	872.7875
2645.56209	875.8875
2648.20948	872.7875
2650.85521	869.5875
2653.4993	873.5875
2656.14175	875.4875
2658.78255	879.0875
2661.42171	873.6875
2664.05923	871.9875
2666.6951	876.6875
2669.32934	868.7875
2671.96194	875.6875
2674.59291	882.2875
2677.22224	875.3875
2679.84993	878.7875
2682.476	875.9875
2685.10043	877.0875
2687.72324	874.3875
2690.34441	870.5875
2692.96396	873.3875
2695.58188	878.9875
2698.19818	879.7875
2700.81285	868.8875
2703.4259	870.4875
2706.03733	852.8875
2708.64714	862.2875
2711.25533	869.5875
2713.86191	868.0875
2716.46687	878.8875
2719.07021	874.3875
2721.67194	877.3875
2724.27206	870.5875
2726.87057	886.9875
2729.46747	881.8875
2732.06276	883.7875
2734.65644	882.1875
2737.24852	887.7875
2739.83899	882.4875
2742.42786	882.4875
2745.01513	870.4875
2747.60079	879.5875
2750.18486	872.4875
2752.76733	869.6875
2755.3482	875.7875
2757.92747	874.4875
2760.50515	865.8875
2763.08123	872.6875
2765.65573	872.2875
2768.22863	868.6875
2770.79994	869.9875
2773.36967	866.9875
2775.9378	864.4875
2778.50435	865.8875
2781.06932	865.6875
2783.6327	869.9875
2786.1945	871.2875
2788.75471	860.3875
2791.31335	867.3875
2793.87041	868.2875
2796.42589	867.5875
2798.97979	869.0875
2801.53212	861.9875
2804.08288	856.0875
2806.63206	857.7875
2809.17967	855.9875
2811.72571	850.5875
2814.27018	852.5875
2816.81308	849.3875
2819.35442	852.7875
2821.89419	850.8875
2824.43239	848.1875
2826.96904	848.4875
2829.50412	850.7875
2832.03763	845.8875
2834.56959	850.0875
2837.1	851.7875
2839.62884	851.3875
2842.15613	839.9875
2844.68186	852.5875
2847.20604	847.4875
2849.72867	843.9875
2852.24974	855.3875
2854.76927	854.5875
2857.28724	849.0875
2859.80367	857.1875
2862.31855	852.6875
2864.83189	859.2875
2867.34368	850.2875
2869.85393	852.7875
2872.36264	853.7875
2874.8698	860.7875
2877.37543	853.6875
2879.87952	857.3875
2882.38207	862.3875
2884.88308	860.7875
2887.38256	859.0875
2889.88051	868.3875
2892.37692	861.3875
2894.8718	865.9875
2897.36515	874.0875
2899.85698	863.9875
2902.34727	871.3875
2904.83604	871.2875
2907.32328	875.4875
2909.809	871.4875
2912.29319	879.2875
2914.77587	884.5875
2917.25702	878.9875
2919.73665	884.7875
2922.21476	873.7875
2924.69136	876.8875
2927.16644	883.1875
2929.64	885.6875
2932.11205	885.4875
2934.58258	879.9875
2937.05161	885.1875
2939.51912	879.4875
2941.98513	877.9875
2944.44962	881.1875
2946.91261	875.0875
2949.37409	884.1875
2951.83407	882.8875
2954.29254	876.9875
2956.74951	879.6875
2959.20498	877.3875
2961.65895	876.7875
2964.11142	878.1875
2966.56239	877.4875
2969.01186	871.5875
2971.45984	878.5875
2973.90632	879.8875
2976.35131	876.8875
2978.7948	883.5875
2981.23681	875.2875
2983.67732	876.1875
2986.11635	872.9875
2988.55388	875.1875
2990.98993	875.9875
2993.4245	875.8875
2995.85758	877.4875
2998.28917	874.8875
3000.71928	872.8875
3003.14791	877.6875
3005.57506	884.0875
3008.00073	878.9875
3010.42493	883.2875
3012.84764	881.3875
3015.26888	881.8875
3017.68865	877.2875
3020.10694	878.5875
3022.52376	882.3875
3024.9391	884.1875
3027.35298	882.8875
3029.76539	887.2875
3032.17632	893.3875
3034.5858	885.6875
3036.9938	889.5875
3039.40034	897.0875
3041.80542	895.3875
3044.20903	896.9875
3046.61118	906.3875
3049.01187	900.7875
3051.4111	899.5875
3053.80888	912.8875
3056.20519	915.3875
3058.60005	919.3875
3060.99345	910.6875
3063.3854	914.4875
3065.7759	918.4875
3068.16494	913.1875
3070.55254	920.7875
3072.93868	922.0875
3075.32338	927.2875
3077.70662	936.3875
3080.08842	931.3875
3082.46878	930.2875
3084.84769	933.5875
3087.22515	942.3875
3089.60118	954.5875
3091.97576	953.3875
3094.3489	960.0875
3096.72061	957.3875
3099.09087	964.9875
3101.4597	978.9875
3103.82709	983.8875
3106.19305	984.6875
3108.55757	990.7875
3110.92066	992.8875
3113.28232	1004.6875
3115.64255	1003.4875
3118.00134	1012.7875
3120.35871	1011.9875
3122.71466	1024.3875
3125.06917	1022.5875
3127.42226	1027.7875
3129.77393	1033.1875
3132.12417	1043.7875
3134.47299	1046.9875
3136.82039	1051.0875
3139.16636	1061.9875
3141.51092	1069.8875
3143.85406	1075.7875
3146.19579	1081.4875
3148.53609	1084.9875
3150.87499	1091.6875
3153.21246	1102.6875
3155.54853	1110.7875
3157.88318	1115.6875
3160.21642	1135.0875
3162.54826	1145.8875
