Data from AgNPs_APTES_FTO_UA_100uM_CRN_0uM_R6G_10uM_Scan_RamanShift__37__11-22-51-277.txt Node

Date: Wed Jun 29 11:22:51 BST 2022
User: TCL
Spectrometer: QEP01345
Trigger mode: 4
Integration Time (sec): 7.000000E0
Scans to average: 10
Electric dark correction enabled: true
Nonlinearity correction enabled: false
Boxcar width: 0
XAxis mode: Raman Shifts
Number of Pixels in Spectrum: 1044
>>>>>Begin Spectral Data<<<<<
46.04893	0.7375
50.45542	0.2375
54.85868	1.0375
59.25871	1.3375
63.6555	37.6375
68.04907	44.7375
72.43941	45.7375
76.82654	44.6375
81.21044	51.8375
85.59113	53.5375
89.96862	57.6375
94.34289	60.2375
98.71396	61.2375
103.08183	62.9375
107.4465	58.7375
111.80798	65.2375
116.16626	61.0375
120.52136	61.1375
124.87327	55.5375
129.222	58.5375
133.56755	56.4375
137.90993	57.4375
142.24913	58.3375
146.58517	58.3375
150.91804	56.2375
155.24774	60.2375
159.57429	61.1375
163.89768	66.0375
168.21792	75.2375
172.53501	86.5375
176.84895	102.3375
181.15975	136.5375
185.46741	173.7375
189.77193	225.8375
194.07331	290.0375
198.37157	369.6375
202.6667	449.1375
206.9587	522.3375
211.24758	606.0375
215.53334	681.8375
219.81599	773.3375
224.09553	865.0375
228.37195	960.1375
232.64527	1077.8375
236.91549	1191.2375
241.18261	1293.1375
245.44663	1382.2375
249.70755	1447.3375
253.96539	1514.5375
258.22014	1566.0375
262.4718	1596.5375
266.72039	1617.3375
270.96589	1624.0375
275.20832	1612.1375
279.44768	1575.9375
283.68397	1550.5375
287.91719	1509.9375
292.14735	1506.9375
296.37445	1502.9375
300.59849	1532.7375
304.81948	1572.4375
309.03742	1603.7375
313.25231	1608.1375
317.46415	1570.1375
321.67296	1504.7375
325.87872	1446.6375
330.08145	1426.5375
334.28114	1430.9375
338.47781	1446.6375
342.67145	1471.5375
346.86207	1514.6375
351.04966	1568.5375
355.23424	1635.6375
359.4158	1696.5375
363.59435	1721.0375
367.76989	1745.1375
371.94243	1749.9375
376.11196	1744.6375
380.27849	1761.8375
384.44203	1757.5375
388.60257	1737.2375
392.76012	1746.6375
396.91468	1764.8375
401.06626	1799.7375
405.21485	1817.1375
409.36047	1796.5375
413.50311	1742.0375
417.64277	1681.7375
421.77947	1650.4375
425.9132	1635.8375
430.04396	1639.2375
434.17176	1658.0375
438.2966	1675.5375
442.41849	1699.8375
446.53742	1718.6375
450.6534	1751.7375
454.76644	1778.9375
458.87653	1768.8375
462.98368	1777.4375
467.08789	1760.9375
471.18916	1736.6375
475.2875	1732.5375
479.38291	1726.2375
483.4754	1716.4375
487.56496	1707.3375
491.6516	1712.3375
495.73531	1720.3375
499.81612	1725.7375
503.89401	1720.9375
507.96899	1730.5375
512.04106	1737.6375
516.11023	1765.3375
520.1765	1772.4375
524.23987	1772.8375
528.30034	1763.5375
532.35792	1753.9375
536.41261	1741.4375
540.46441	1715.9375
544.51333	1698.2375
548.55936	1696.0375
552.60252	1715.6375
556.64279	1735.0375
560.6802	1756.5375
564.71473	1768.5375
568.7464	1798.8375
572.7752	1815.7375
576.80114	1771.3375
580.82422	1739.0375
584.84444	1735.7375
588.86181	1762.2375
592.87633	1801.9375
596.888	1822.2375
600.89682	1850.8375
604.9028	1967.1375
608.90594	2330.5375
612.90624	2779.1375
616.90371	2687.0375
620.89834	2121.2375
624.89015	1881.4375
628.87913	1862.3375
632.86528	1898.5375
636.84862	1946.9375
640.82913	1938.0375
644.80683	1887.4375
648.78172	1830.6375
652.75379	1821.5375
656.72306	1846.6375
660.68952	1890.5375
664.65319	1876.0375
668.61405	1825.1375
672.57211	1815.0375
676.52738	1835.5375
680.47986	1871.2375
684.42955	1929.9375
688.37646	1947.7375
692.32058	1949.8375
696.26192	1911.5375
700.20048	1884.3375
704.13626	1862.2375
708.06928	1853.0375
711.99952	1829.4375
715.927	1817.1375
719.85171	1804.0375
723.77365	1792.8375
727.69284	1804.2375
731.60928	1805.3375
735.52295	1796.8375
739.43388	1787.7375
743.34206	1782.6375
747.24749	1776.5375
751.15017	1786.9375
755.05012	1752.9375
758.94733	1825.4375
762.8418	1941.2375
766.73354	2165.9375
770.62254	2373.7375
774.50882	2496.0375
778.39237	2427.3375
782.27321	2211.6375
786.15132	2023.7375
790.02671	1886.8375
793.89938	1832.2375
797.76935	1811.5375
801.6366	1800.8375
805.50115	1805.0375
809.36299	1818.1375
813.22213	1805.6375
817.07857	1787.4375
820.93231	1771.6375
824.78336	1765.1375
828.63172	1746.1375
832.47738	1763.8375
836.32036	1749.8375
840.16066	1746.7375
843.99827	1740.8375
847.8332	1740.4375
851.66546	1743.6375
855.49504	1749.7375
859.32195	1741.9375
863.1462	1741.8375
866.96777	1742.9375
870.78668	1747.3375
874.60293	1748.2375
878.41652	1764.7375
882.22745	1779.4375
886.03573	1784.9375
889.84136	1777.9375
893.64433	1771.9375
897.44466	1765.6375
901.24235	1753.6375
905.0374	1737.8375
908.8298	1720.4375
912.61957	1712.2375
916.40671	1714.1375
920.19121	1715.7375
923.97308	1728.1375
927.75233	1748.4375
931.52895	1756.8375
935.30295	1742.4375
939.07433	1719.6375
942.84309	1703.6375
946.60924	1684.0375
950.37278	1684.8375
954.13371	1685.7375
957.89203	1666.7375
961.64774	1681.2375
965.40086	1662.5375
969.15137	1648.3375
972.89929	1647.1375
976.64461	1642.8375
980.38733	1642.9375
984.12747	1636.0375
987.86502	1643.2375
991.59999	1680.4375
995.33237	1671.2375
999.06217	1677.5375
1002.78939	1698.5375
1006.51404	1721.2375
1010.23611	1742.7375
1013.95561	1760.3375
1017.67255	1761.8375
1021.38692	1760.1375
1025.09872	1746.0375
1028.80796	1728.3375
1032.51465	1723.1375
1036.21877	1719.3375
1039.92035	1735.5375
1043.61937	1738.2375
1047.31584	1726.9375
1051.00976	1723.9375
1054.70114	1738.4375
1058.38998	1741.8375
1062.07627	1735.8375
1065.76003	1747.4375
1069.44126	1763.3375
1073.11995	1791.8375
1076.79611	1812.2375
1080.46974	1840.0375
1084.14085	1861.7375
1087.80943	1876.5375
1091.47549	1877.1375
1095.13903	1841.4375
1098.80005	1797.2375
1102.45857	1777.3375
1106.11456	1770.6375
1109.76805	1782.1375
1113.41903	1811.7375
1117.06751	1864.1375
1120.71348	1914.8375
1124.35696	2003.3375
1127.99793	2077.2375
1131.63641	2108.1375
1135.2724	2061.4375
1138.90589	2002.1375
1142.5369	1959.2375
1146.16542	1909.1375
1149.79145	1863.5375
1153.415	1830.5375
1157.03607	1809.3375
1160.65467	1813.3375
1164.27079	1844.1375
1167.88443	1906.0375
1171.49561	2000.1375
1175.10432	2150.4375
1178.71056	2373.5375
1182.31434	2550.2375
1185.91565	2609.2375
1189.51451	2529.0375
1193.11091	2414.4375
1196.70485	2300.3375
1200.29634	2218.0375
1203.88538	2155.6375
1207.47197	2062.1375
1211.05612	1976.5375
1214.63782	1914.8375
1218.21708	1880.9375
1221.79391	1874.8375
1225.36829	1881.2375
1228.94024	1880.2375
1232.50976	1861.8375
1236.07685	1864.6375
1239.6415	1853.2375
1243.20374	1867.9375
1246.76355	1870.9375
1250.32093	1881.4375
1253.8759	1912.6375
1257.42845	1930.5375
1260.97859	1976.3375
1264.52631	2025.4375
1268.07163	2079.2375
1271.61453	2116.6375
1275.15503	2136.2375
1278.69312	2146.2375
1282.22882	2162.8375
1285.76211	2193.2375
1289.29301	2266.0375
1292.82151	2327.6375
1296.34761	2393.8375
1299.87133	2505.1375
1303.39266	2642.6375
1306.9116	2910.4375
1310.42815	3141.2375
1313.94233	3259.1375
1317.45412	3155.8375
1320.96354	2939.4375
1324.47058	2714.3375
1327.97525	2539.5375
1331.47754	2433.1375
1334.97747	2381.9375
1338.47502	2381.7375
1341.97022	2428.0375
1345.46305	2520.7375
1348.95352	2681.6375
1352.44163	2889.9375
1355.92738	3184.7375
1359.41078	3572.3375
1362.89183	3970.7375
1366.37053	3908.3375
1369.84688	3379.5375
1373.32088	2883.5375
1376.79254	2565.3375
1380.26186	2429.6375
1383.72883	2342.0375
1387.19347	2261.4375
1390.65578	2174.3375
1394.11575	2110.5375
1397.57339	2068.7375
1401.0287	2038.3375
1404.48168	2034.6375
1407.93234	2006.6375
1411.38068	1993.8375
1414.82669	1976.5375
1418.27039	1964.5375
1421.71177	1956.5375
1425.15083	1926.2375
1428.58758	1917.6375
1432.02203	1943.5375
1435.45416	1967.7375
1438.88399	1972.8375
1442.31151	1970.1375
1445.73673	1969.7375
1449.15965	1981.1375
1452.58027	1991.0375
1455.9986	1995.0375
1459.41463	1992.9375
1462.82837	2014.1375
1466.23982	2039.9375
1469.64898	2075.5375
1473.05586	2094.5375
1476.46045	2092.6375
1479.86276	2108.4375
1483.26279	2124.4375
1486.66054	2129.1375
1490.05602	2168.6375
1493.44922	2228.7375
1496.84016	2342.1375
1500.22882	2552.5375
1503.61521	2838.6375
1506.99934	3196.7375
1510.38121	3468.4375
1513.76081	3553.0375
1517.13816	3326.3375
1520.51324	2955.7375
1523.88607	2591.6375
1527.25665	2370.7375
1530.62498	2250.9375
1533.99105	2169.5375
1537.35488	2119.2375
1540.71647	2084.4375
1544.07581	2075.0375
1547.4329	2074.3375
1550.78776	2081.5375
1554.14038	2078.6375
1557.49077	2094.1375
1560.83892	2129.2375
1564.18484	2193.7375
1567.52853	2255.7375
1570.86999	2320.9375
1574.20922	2384.9375
1577.54624	2376.1375
1580.88103	2296.0375
1584.2136	2176.8375
1587.54395	2076.2375
1590.87208	2047.0375
1594.19801	2090.9375
1597.52172	2182.1375
1600.84321	2212.1375
1604.16251	2165.8375
1607.47959	2074.2375
1610.79447	1995.0375
1614.10715	1896.1375
1617.41763	1829.1375
1620.7259	1785.2375
1624.03199	1768.7375
1627.33587	1761.6375
1630.63757	1782.2375
1633.93707	1822.2375
1637.23439	1896.4375
1640.52951	2031.5375
1643.82246	2242.6375
1647.11321	2488.5375
1650.40179	2654.2375
1653.68819	2606.8375
1656.97241	2357.4375
1660.25446	2065.4375
1663.53433	1859.3375
1666.81203	1727.3375
1670.08756	1670.9375
1673.36092	1627.2375
1676.63211	1600.0375
1679.90115	1575.8375
1683.16801	1549.7375
1686.43272	1539.4375
1689.69527	1507.0375
1692.95567	1488.1375
1696.2139	1457.7375
1699.46999	1437.8375
1702.72392	1420.3375
1705.97571	1425.6375
1709.22535	1401.5375
1712.47284	1398.7375
1715.71819	1393.3375
1718.96139	1380.5375
1722.20246	1375.4375
1725.44139	1349.1375
1728.67818	1332.7375
1731.91284	1312.1375
1735.14537	1300.3375
1738.37576	1293.0375
1741.60403	1290.7375
1744.83017	1276.9375
1748.05418	1259.1375
1751.27607	1258.6375
1754.49584	1247.5375
1757.71349	1246.7375
1760.92903	1241.8375
1764.14244	1226.8375
1767.35375	1221.9375
1770.56294	1210.4375
1773.77002	1211.1375
1776.97499	1201.5375
1780.17785	1214.3375
1783.37861	1206.5375
1786.57727	1205.6375
1789.77382	1205.7375
1792.96828	1211.5375
1796.16064	1202.3375
1799.3509	1194.5375
1802.53907	1199.7375
1805.72514	1195.2375
1808.90913	1175.5375
1812.09102	1180.9375
1815.27083	1177.6375
1818.44856	1181.5375
1821.6242	1177.4375
1824.79776	1171.3375
1827.96924	1166.8375
1831.13864	1165.1375
1834.30597	1166.5375
1837.47122	1158.5375
1840.6344	1163.1375
1843.7955	1154.5375
1846.95454	1146.7375
1850.11151	1153.5375
1853.26642	1148.2375
1856.41926	1148.6375
1859.57004	1145.4375
1862.71876	1146.6375
1865.86542	1143.5375
1869.01003	1144.5375
1872.15258	1139.0375
1875.29308	1139.6375
1878.43152	1136.5375
1881.56792	1136.4375
1884.70227	1136.0375
1887.83457	1129.5375
1890.96482	1129.0375
1894.09304	1129.3375
1897.21921	1127.6375
1900.34335	1110.6375
1903.46544	1119.5375
1906.58551	1126.3375
1909.70353	1123.9375
1912.81953	1124.2375
1915.93349	1115.3375
1919.04543	1117.1375
1922.15534	1116.1375
1925.26322	1111.2375
1928.36908	1108.2375
1931.47292	1113.0375
1934.57473	1105.2375
1937.67453	1107.3375
1940.77232	1101.4375
1943.86808	1095.8375
1946.96184	1086.8375
1950.05358	1085.4375
1953.14331	1078.8375
1956.23103	1081.7375
1959.31675	1082.5375
1962.40046	1071.4375
1965.48217	1075.5375
1968.56188	1062.4375
1971.63959	1062.9375
1974.7153	1064.7375
1977.78901	1057.9375
1980.86073	1052.8375
1983.93046	1049.9375
1986.99819	1043.1375
1990.06394	1039.2375
1993.1277	1040.9375
1996.18947	1035.0375
1999.24925	1041.4375
2002.30706	1033.2375
2005.36288	1030.9375
2008.41672	1020.8375
2011.46859	1029.8375
2014.51848	1024.8375
2017.56639	1019.8375
2020.61233	1010.8375
2023.6563	1013.9375
2026.6983	1003.4375
2029.73833	1012.5375
2032.7764	1006.2375
2035.8125	1004.9375
2038.84664	1000.7375
2041.87881	1002.8375
2044.90903	1000.8375
2047.93729	1000.0375
2050.96359	991.5375
2053.98794	1000.2375
2057.01034	995.9375
2060.03078	988.9375
2063.04927	1000.9375
2066.06582	1001.7375
2069.08042	1002.4375
2072.09307	1003.6375
2075.10378	1005.3375
2078.11255	996.0375
2081.11938	1000.0375
2084.12426	1006.4375
2087.12722	1009.6375
2090.12824	1003.9375
2093.12732	1006.6375
2096.12447	995.5375
2099.11969	1005.3375
2102.11299	1004.3375
2105.10435	1008.9375
2108.09379	998.5375
2111.08131	1006.0375
2114.0669	999.6375
2117.05057	1006.0375
2120.03233	1008.2375
2123.01216	1002.9375
2125.99008	997.5375
2128.96609	997.4375
2131.94018	1001.7375
2134.91236	986.4375
2137.88263	1000.4375
2140.851	997.6375
2143.81746	989.7375
2146.78201	989.7375
2149.74466	990.8375
2152.7054	989.8375
2155.66425	992.6375
2158.6212	990.0375
2161.57625	986.3375
2164.52941	995.9375
2167.48067	980.6375
2170.43004	991.1375
2173.37752	990.2375
2176.32311	989.4375
2179.26681	980.0375
2182.20863	984.1375
2185.14856	993.4375
2188.08661	984.0375
2191.02278	989.0375
2193.95707	980.9375
2196.88948	972.3375
2199.82001	981.9375
2202.74867	980.5375
2205.67545	978.7375
2208.60037	974.8375
2211.52341	977.5375
2214.44458	971.4375
2217.36388	969.0375
2220.28132	961.4375
2223.1969	967.3375
2226.11061	970.1375
2229.02246	961.8375
2231.93245	960.0375
2234.84058	952.0375
2237.74686	956.1375
2240.65128	953.0375
2243.55385	943.6375
2246.45456	953.7375
2249.35343	957.3375
2252.25044	944.3375
2255.14561	952.6375
2258.03893	947.9375
2260.93041	945.2375
2263.82004	945.2375
2266.70783	934.6375
2269.59378	930.3375
2272.4779	933.9375
2275.36017	931.6375
2278.24061	933.0375
2281.11922	928.7375
2283.996	924.1375
2286.87094	926.6375
2289.74405	931.5375
2292.61534	922.6375
2295.4848	919.0375
2298.35243	917.1375
2301.21824	920.0375
2304.08223	916.3375
2306.94439	917.0375
2309.80474	919.2375
2312.66327	919.7375
2315.51999	921.4375
2318.37489	915.4375
2321.22797	908.3375
2324.07925	904.5375
2326.92871	910.7375
2329.77637	919.4375
2332.62222	909.4375
2335.46626	904.0375
2338.3085	897.3375
2341.14893	902.5375
2343.98756	908.1375
2346.8244	903.3375
2349.65943	900.7375
2352.49267	907.6375
2355.32411	900.5375
2358.15376	903.4375
2360.98161	894.8375
2363.80768	906.6375
2366.63195	904.8375
2369.45444	907.3375
2372.27514	902.3375
2375.09405	902.0375
2377.91118	900.7375
2380.72652	901.3375
2383.54009	894.4375
2386.35187	891.6375
2389.16188	892.6375
2391.97011	893.4375
2394.77657	887.3375
2397.58125	882.3375
2400.38416	878.9375
2403.18529	881.9375
2405.98466	880.2375
2408.78226	874.1375
2411.57809	878.9375
2414.37216	878.7375
2417.16446	869.1375
2419.955	869.4375
2422.74378	879.4375
2425.5308	870.6375
2428.31606	879.0375
2431.09956	875.5375
2433.88131	866.7375
2436.6613	870.2375
2439.43954	868.8375
2442.21603	869.0375
2444.99077	865.1375
2447.76377	875.5375
2450.53501	870.2375
2453.30451	878.6375
2456.07226	865.8375
2458.83827	864.7375
2461.60254	866.1375
2464.36507	864.8375
2467.12586	866.5375
2469.88492	861.7375
2472.64224	859.9375
2475.39782	862.8375
2478.15167	858.1375
2480.90379	864.5375
2483.65417	869.4375
2486.40283	862.1375
2489.14976	875.9375
2491.89497	864.9375
2494.63845	862.2375
2497.3802	867.0375
2500.12024	858.5375
2502.85855	856.4375
2505.59514	857.2375
2508.33002	860.3375
2511.06318	855.0375
2513.79462	855.9375
2516.52435	854.3375
2519.25237	847.8375
2521.97867	852.6375
2524.70327	846.9375
2527.42616	849.5375
2530.14734	841.7375
2532.86681	841.2375
2535.58458	843.3375
2538.30065	841.4375
2541.01501	846.2375
2543.72768	839.1375
2546.43864	841.9375
2549.14791	840.0375
2551.85548	839.7375
2554.56136	837.3375
2557.26554	833.1375
2559.96803	832.7375
2562.66883	831.5375
2565.36794	832.8375
2568.06536	830.2375
2570.7611	822.1375
2573.45514	828.4375
2576.14751	826.2375
2578.83819	820.2375
2581.52719	823.7375
2584.21451	820.5375
2586.90015	816.7375
2589.58411	817.6375
2592.2664	815.4375
2594.94701	818.5375
2597.62594	819.0375
2600.30321	820.1375
2602.9788	818.1375
2605.65273	818.9375
2608.32498	814.9375
2610.99557	811.9375
2613.66449	804.8375
2616.33175	811.9375
2618.99734	807.8375
2621.66128	807.0375
2624.32355	808.0375
2626.98416	811.2375
2629.64311	799.3375
2632.30041	807.4375
2634.95605	807.6375
2637.61004	807.3375
2640.26238	801.2375
2642.91306	804.3375
2645.56209	799.0375
2648.20948	801.9375
2650.85521	799.8375
2653.4993	803.0375
2656.14175	796.6375
2658.78255	803.0375
2661.42171	798.4375
2664.05923	796.8375
2666.6951	801.3375
2669.32934	798.8375
2671.96194	799.2375
2674.59291	802.4375
2677.22224	800.9375
2679.84993	799.2375
2682.476	796.9375
2685.10043	794.0375
2687.72324	799.8375
2690.34441	800.3375
2692.96396	800.1375
2695.58188	799.2375
2698.19818	800.5375
2700.81285	805.5375
2703.4259	795.8375
2706.03733	785.1375
2708.64714	789.2375
2711.25533	798.9375
2713.86191	797.6375
2716.46687	796.7375
2719.07021	796.3375
2721.67194	809.9375
2724.27206	802.3375
2726.87057	808.2375
2729.46747	804.1375
2732.06276	813.8375
2734.65644	807.3375
2737.24852	808.7375
2739.83899	806.0375
2742.42786	807.2375
2745.01513	804.9375
2747.60079	805.9375
2750.18486	797.0375
2752.76733	803.2375
2755.3482	801.8375
2757.92747	796.1375
2760.50515	795.4375
2763.08123	792.2375
2765.65573	799.0375
2768.22863	797.2375
2770.79994	797.0375
2773.36967	791.1375
2775.9378	791.7375
2778.50435	796.3375
2781.06932	791.5375
2783.6327	791.0375
2786.1945	793.2375
2788.75471	787.3375
2791.31335	793.2375
2793.87041	792.3375
2796.42589	791.5375
2798.97979	793.0375
2801.53212	798.7375
2804.08288	790.5375
2806.63206	782.5375
2809.17967	782.6375
2811.72571	785.0375
2814.27018	781.6375
2816.81308	781.3375
2819.35442	783.2375
2821.89419	779.9375
2824.43239	783.4375
2826.96904	779.3375
2829.50412	782.8375
2832.03763	782.9375
2834.56959	784.4375
2837.1	777.5375
2839.62884	772.3375
2842.15613	774.5375
2844.68186	774.0375
2847.20604	775.2375
2849.72867	782.5375
2852.24974	788.8375
2854.76927	786.1375
2857.28724	783.2375
2859.80367	779.4375
2862.31855	785.0375
2864.83189	785.8375
2867.34368	788.9375
2869.85393	780.8375
2872.36264	782.2375
2874.8698	788.0375
2877.37543	783.9375
2879.87952	792.5375
2882.38207	792.8375
2884.88308	796.2375
2887.38256	796.9375
2889.88051	794.4375
2892.37692	789.4375
2894.8718	801.5375
2897.36515	798.9375
2899.85698	799.6375
2902.34727	794.9375
2904.83604	803.5375
2907.32328	810.0375
2909.809	814.4375
2912.29319	817.4375
2914.77587	804.4375
2917.25702	814.5375
2919.73665	826.2375
2922.21476	838.2375
2924.69136	828.6375
2927.16644	835.2375
2929.64	838.2375
2932.11205	855.1375
2934.58258	821.2375
2937.05161	812.5375
2939.51912	811.2375
2941.98513	813.3375
2944.44962	806.2375
2946.91261	814.7375
2949.37409	807.7375
2951.83407	812.9375
2954.29254	817.0375
2956.74951	815.5375
2959.20498	817.7375
2961.65895	811.8375
2964.11142	814.6375
2966.56239	809.4375
2969.01186	812.4375
2971.45984	811.4375
2973.90632	815.6375
2976.35131	808.8375
2978.7948	811.6375
2981.23681	815.3375
2983.67732	810.3375
2986.11635	807.6375
2988.55388	807.6375
2990.98993	800.3375
2993.4245	804.8375
2995.85758	813.3375
2998.28917	810.3375
3000.71928	813.2375
3003.14791	811.6375
3005.57506	814.1375
3008.00073	807.7375
3010.42493	811.8375
3012.84764	808.9375
3015.26888	812.0375
3017.68865	822.3375
3020.10694	816.8375
3022.52376	820.3375
3024.9391	818.8375
3027.35298	821.3375
3029.76539	827.1375
3032.17632	826.5375
3034.5858	824.3375
3036.9938	830.6375
3039.40034	831.1375
3041.80542	833.5375
3044.20903	839.7375
3046.61118	843.6375
3049.01187	838.6375
3051.4111	843.6375
3053.80888	846.0375
3056.20519	852.6375
3058.60005	851.7375
3060.99345	857.5375
3063.3854	852.3375
3065.7759	856.8375
3068.16494	861.2375
3070.55254	859.7375
3072.93868	863.3375
3075.32338	863.3375
3077.70662	874.0375
3080.08842	866.2375
3082.46878	878.1375
3084.84769	868.4375
3087.22515	884.4375
3089.60118	892.3375
3091.97576	902.9375
3094.3489	894.8375
3096.72061	903.5375
3099.09087	904.9375
3101.4597	912.6375
3103.82709	915.3375
3106.19305	934.3375
3108.55757	930.0375
3110.92066	933.4375
3113.28232	939.5375
3115.64255	946.2375
3118.00134	946.8375
3120.35871	955.8375
3122.71466	960.0375
3125.06917	967.2375
3127.42226	967.3375
3129.77393	975.8375
3132.12417	982.1375
3134.47299	988.0375
3136.82039	995.8375
3139.16636	1001.8375
3141.51092	1015.7375
3143.85406	1013.6375
3146.19579	1023.3375
3148.53609	1034.6375
3150.87499	1040.1375
3153.21246	1047.1375
3155.54853	1052.5375
3157.88318	1061.2375
3160.21642	1078.8375
3162.54826	1084.6375
3164.87868	1092.5375
3167.2077	1097.2375
3169.5353	1103.9375
3171.86151	1106.2375
