Data from AgNPs_APTES_FTO_UA_100uM_CRN_0uM_R6G_10uM_Scan_RamanShift__63__11-53-11-312.txt Node

Date: Wed Jun 29 11:53:11 BST 2022
User: TCL
Spectrometer: QEP01345
Trigger mode: 4
Integration Time (sec): 7.000000E0
Scans to average: 10
Electric dark correction enabled: true
Nonlinearity correction enabled: false
Boxcar width: 0
XAxis mode: Raman Shifts
Number of Pixels in Spectrum: 1044
>>>>>Begin Spectral Data<<<<<
46.04893	0.525
50.45542	0.025
54.85868	1.425
59.25871	-0.575
63.6555	41.025
68.04907	42.325
72.43941	45.225
76.82654	48.225
81.21044	53.125
85.59113	55.425
89.96862	57.825
94.34289	60.725
98.71396	62.525
103.08183	61.325
107.4465	60.825
111.80798	63.325
116.16626	62.025
120.52136	66.525
124.87327	60.325
129.222	61.825
133.56755	60.025
137.90993	60.825
142.24913	61.125
146.58517	59.025
150.91804	57.425
155.24774	62.225
159.57429	67.525
163.89768	70.225
168.21792	81.725
172.53501	99.725
176.84895	118.525
181.15975	159.125
185.46741	200.325
189.77193	267.425
194.07331	351.825
198.37157	445.325
202.6667	546.325
206.9587	642.725
211.24758	753.625
215.53334	862.625
219.81599	992.025
224.09553	1136.925
228.37195	1287.625
232.64527	1454.825
236.91549	1609.825
241.18261	1740.225
245.44663	1841.125
249.70755	1928.025
253.96539	1990.325
258.22014	2045.725
262.4718	2089.825
266.72039	2098.125
270.96589	2066.825
275.20832	2017.025
279.44768	1940.925
283.68397	1898.125
287.91719	1867.025
292.14735	1875.425
296.37445	1952.325
300.59849	2065.425
304.81948	2223.225
309.03742	2366.925
313.25231	2413.825
317.46415	2313.225
321.67296	2093.525
325.87872	1890.125
330.08145	1817.225
334.28114	1823.625
338.47781	1877.925
342.67145	1954.025
346.86207	2076.025
351.04966	2261.025
355.23424	2464.625
359.4158	2599.325
363.59435	2616.425
367.76989	2584.725
371.94243	2525.425
376.11196	2464.525
380.27849	2424.625
384.44203	2359.625
388.60257	2318.425
392.76012	2300.125
396.91468	2327.925
401.06626	2391.725
405.21485	2440.325
409.36047	2351.725
413.50311	2200.425
417.64277	2031.625
421.77947	1955.325
425.9132	1909.725
430.04396	1896.125
434.17176	1917.725
438.2966	1956.125
442.41849	2000.925
446.53742	2067.325
450.6534	2109.325
454.76644	2120.325
458.87653	2100.025
462.98368	2081.625
467.08789	2054.225
471.18916	2013.025
475.2875	1963.125
479.38291	1929.725
483.4754	1907.725
487.56496	1901.625
491.6516	1900.625
495.73531	1900.025
499.81612	1904.125
503.89401	1918.525
507.96899	1955.525
512.04106	2014.425
516.11023	2058.725
520.1765	2096.925
524.23987	2112.525
528.30034	2100.225
532.35792	2068.525
536.41261	2035.025
540.46441	1978.925
544.51333	1944.725
548.55936	1949.625
552.60252	1982.325
556.64279	2043.225
560.6802	2080.625
564.71473	2191.025
568.7464	2350.425
572.7752	2364.625
576.80114	2154.225
580.82422	1996.525
584.84444	1930.725
588.86181	1912.225
592.87633	1938.825
596.888	1979.625
600.89682	2108.725
604.9028	2515.525
608.90594	3560.625
612.90624	4765.425
616.90371	4455.125
620.89834	2977.125
624.89015	2327.425
628.87913	2262.825
632.86528	2346.725
636.84862	2382.525
640.82913	2286.925
644.80683	2122.525
648.78172	2004.225
652.75379	1995.025
656.72306	2101.825
660.68952	2196.525
664.65319	2154.925
668.61405	1991.225
672.57211	1925.825
676.52738	1929.725
680.47986	1918.725
684.42955	1897.625
688.37646	1908.825
692.32058	1910.825
696.26192	1924.525
700.20048	1961.425
704.13626	1971.125
708.06928	1960.925
711.99952	1949.025
715.927	1945.325
719.85171	1978.525
723.77365	1992.425
727.69284	1980.125
731.60928	1964.225
735.52295	1953.225
739.43388	1953.125
743.34206	1973.525
747.24749	1957.125
751.15017	1964.825
755.05012	1999.425
758.94733	2206.025
762.8418	2616.325
766.73354	3188.525
770.62254	3615.725
774.50882	3778.125
778.39237	3612.225
782.27321	3089.025
786.15132	2521.525
790.02671	2184.325
793.89938	2052.525
797.76935	2010.925
801.6366	2009.025
805.50115	2009.025
809.36299	2021.825
813.22213	2016.825
817.07857	2019.725
820.93231	1997.725
824.78336	2001.225
828.63172	1995.625
832.47738	2007.925
836.32036	1974.725
840.16066	1952.825
843.99827	1934.125
847.8332	1930.425
851.66546	1913.925
855.49504	1916.625
859.32195	1933.025
863.1462	1915.825
866.96777	1907.025
870.78668	1927.025
874.60293	1944.025
878.41652	1985.425
882.22745	2012.225
886.03573	2049.125
889.84136	2039.925
893.64433	2033.825
897.44466	2013.625
901.24235	1994.825
905.0374	1975.025
908.8298	1940.925
912.61957	1912.625
916.40671	1891.625
920.19121	1895.725
923.97308	1927.925
927.75233	1973.025
931.52895	2036.925
935.30295	2010.025
939.07433	1923.225
942.84309	1857.625
946.60924	1843.625
950.37278	1831.725
954.13371	1825.825
957.89203	1815.525
961.64774	1812.125
965.40086	1801.625
969.15137	1793.225
972.89929	1786.525
976.64461	1803.125
980.38733	1787.225
984.12747	1792.125
987.86502	1791.925
991.59999	1816.325
995.33237	1841.825
999.06217	1879.225
1002.78939	1924.825
1006.51404	1987.025
1010.23611	2011.625
1013.95561	2026.325
1017.67255	2021.325
1021.38692	1989.725
1025.09872	1976.225
1028.80796	1970.525
1032.51465	1983.625
1036.21877	2006.625
1039.92035	2020.725
1043.61937	2005.325
1047.31584	1994.625
1051.00976	1981.225
1054.70114	1958.425
1058.38998	1958.025
1062.07627	1950.125
1065.76003	1962.825
1069.44126	1973.025
1073.11995	1996.625
1076.79611	2044.925
1080.46974	2131.525
1084.14085	2246.925
1087.80943	2317.925
1091.47549	2304.225
1095.13903	2224.925
1098.80005	2119.525
1102.45857	2053.125
1106.11456	2059.325
1109.76805	2126.625
1113.41903	2218.225
1117.06751	2371.025
1120.71348	2618.125
1124.35696	2885.825
1127.99793	3028.725
1131.63641	2876.325
1135.2724	2627.025
1138.90589	2435.325
1142.5369	2309.925
1146.16542	2211.125
1149.79145	2144.525
1153.415	2098.725
1157.03607	2097.125
1160.65467	2136.025
1164.27079	2202.225
1167.88443	2331.725
1171.49561	2549.725
1175.10432	2902.825
1178.71056	3367.825
1182.31434	3708.925
1185.91565	3734.125
1189.51451	3545.725
1193.11091	3272.825
1196.70485	3022.125
1200.29634	2880.325
1203.88538	2748.125
1207.47197	2548.725
1211.05612	2358.525
1214.63782	2233.325
1218.21708	2175.925
1221.79391	2121.525
1225.36829	2131.725
1228.94024	2110.225
1232.50976	2112.225
1236.07685	2106.725
1239.6415	2120.025
1243.20374	2148.425
1246.76355	2177.925
1250.32093	2213.525
1253.8759	2274.025
1257.42845	2362.925
1260.97859	2438.325
1264.52631	2555.025
1268.07163	2647.625
1271.61453	2670.525
1275.15503	2683.525
1278.69312	2693.125
1282.22882	2735.525
1285.76211	2852.025
1289.29301	2976.725
1292.82151	3059.725
1296.34761	3184.625
1299.87133	3418.025
1303.39266	3862.025
1306.9116	4603.525
1310.42815	5347.125
1313.94233	5492.125
1317.45412	4960.625
1320.96354	4184.025
1324.47058	3515.825
1327.97525	3098.125
1331.47754	2857.325
1334.97747	2791.725
1338.47502	2883.425
1341.97022	3122.925
1345.46305	3491.525
1348.95352	3943.425
1352.44163	4473.125
1355.92738	5284.925
1359.41078	6573.625
1362.89183	7456.625
1366.37053	6714.925
1369.84688	5097.325
1373.32088	3954.025
1376.79254	3377.425
1380.26186	3040.825
1383.72883	2776.625
1387.19347	2575.825
1390.65578	2409.625
1394.11575	2291.925
1397.57339	2224.825
1401.0287	2192.725
1404.48168	2183.025
1407.93234	2172.625
1411.38068	2210.225
1414.82669	2242.625
1418.27039	2276.425
1421.71177	2252.225
1425.15083	2261.925
1428.58758	2303.125
1432.02203	2371.825
1435.45416	2396.125
1438.88399	2359.225
1442.31151	2314.725
1445.73673	2312.625
1449.15965	2326.525
1452.58027	2306.225
1455.9986	2263.225
1459.41463	2242.725
1462.82837	2287.925
1466.23982	2343.525
1469.64898	2390.625
1473.05586	2414.925
1476.46045	2400.125
1479.86276	2435.425
1483.26279	2520.225
1486.66054	2630.925
1490.05602	2826.125
1493.44922	3126.425
1496.84016	3581.825
1500.22882	4287.025
1503.61521	5267.125
1506.99934	6372.625
1510.38121	7332.125
1513.76081	7402.025
1517.13816	6535.825
1520.51324	5228.625
1523.88607	4120.725
1527.25665	3427.625
1530.62498	3036.825
1533.99105	2793.725
1537.35488	2662.825
1540.71647	2592.525
1544.07581	2607.925
1547.4329	2640.125
1550.78776	2682.025
1554.14038	2742.525
1557.49077	2799.525
1560.83892	2920.825
1564.18484	3107.225
1567.52853	3286.025
1570.86999	3385.425
1574.20922	3429.225
1577.54624	3339.125
1580.88103	3051.925
1584.2136	2696.125
1587.54395	2499.425
1590.87208	2470.825
1594.19801	2612.825
1597.52172	2816.725
1600.84321	2918.425
1604.16251	2793.125
1607.47959	2644.025
1610.79447	2474.025
1614.10715	2318.225
1617.41763	2207.825
1620.7259	2132.925
1624.03199	2130.025
1627.33587	2163.625
1630.63757	2226.725
1633.93707	2368.625
1637.23439	2620.025
1640.52951	3021.425
1643.82246	3675.725
1647.11321	4463.525
1650.40179	4894.825
1653.68819	4612.125
1656.97241	3813.825
1660.25446	3016.925
1663.53433	2492.525
1666.81203	2200.225
1670.08756	2041.925
1673.36092	1945.325
1676.63211	1874.525
1679.90115	1841.425
1683.16801	1803.425
1686.43272	1780.825
1689.69527	1768.425
1692.95567	1751.925
1696.2139	1744.925
1699.46999	1731.625
1702.72392	1730.525
1705.97571	1709.325
1709.22535	1701.025
1712.47284	1691.425
1715.71819	1698.125
1718.96139	1691.625
1722.20246	1684.525
1725.44139	1667.425
1728.67818	1639.225
1731.91284	1623.625
1735.14537	1620.925
1738.37576	1617.925
1741.60403	1600.925
1744.83017	1592.525
1748.05418	1582.125
1751.27607	1579.125
1754.49584	1576.825
1757.71349	1584.325
1760.92903	1567.225
1764.14244	1572.025
1767.35375	1554.625
1770.56294	1551.025
1773.77002	1541.925
1776.97499	1513.325
1780.17785	1529.225
1783.37861	1504.725
1786.57727	1508.225
1789.77382	1505.325
1792.96828	1509.125
1796.16064	1506.725
1799.3509	1497.025
1802.53907	1499.425
1805.72514	1491.325
1808.90913	1493.425
1812.09102	1479.125
1815.27083	1475.325
1818.44856	1472.125
1821.6242	1471.425
1824.79776	1469.625
1827.96924	1466.025
1831.13864	1458.825
1834.30597	1457.025
1837.47122	1453.025
1840.6344	1444.525
1843.7955	1442.925
1846.95454	1435.825
1850.11151	1447.425
1853.26642	1451.525
1856.41926	1435.725
1859.57004	1444.225
1862.71876	1450.925
1865.86542	1441.425
1869.01003	1435.325
1872.15258	1443.925
1875.29308	1444.125
1878.43152	1430.625
1881.56792	1437.125
1884.70227	1430.925
1887.83457	1422.825
1890.96482	1427.725
1894.09304	1424.925
1897.21921	1430.625
1900.34335	1426.125
1903.46544	1429.225
1906.58551	1426.825
1909.70353	1418.125
1912.81953	1429.925
1915.93349	1415.125
1919.04543	1419.325
1922.15534	1412.425
1925.26322	1409.725
1928.36908	1410.525
1931.47292	1404.925
1934.57473	1402.225
1937.67453	1395.725
1940.77232	1390.325
1943.86808	1386.325
1946.96184	1376.725
1950.05358	1385.125
1953.14331	1372.125
1956.23103	1369.625
1959.31675	1371.425
1962.40046	1358.225
1965.48217	1358.625
1968.56188	1361.025
1971.63959	1368.825
1974.7153	1352.725
1977.78901	1350.625
1980.86073	1343.925
1983.93046	1342.125
1986.99819	1341.225
1990.06394	1325.525
1993.1277	1315.225
1996.18947	1316.025
1999.24925	1316.425
2002.30706	1314.025
2005.36288	1296.225
2008.41672	1301.825
2011.46859	1304.825
2014.51848	1291.425
2017.56639	1279.925
2020.61233	1284.725
2023.6563	1275.825
2026.6983	1286.625
2029.73833	1278.525
2032.7764	1275.025
2035.8125	1276.125
2038.84664	1267.025
2041.87881	1265.125
2044.90903	1269.025
2047.93729	1265.825
2050.96359	1273.125
2053.98794	1255.025
2057.01034	1263.525
2060.03078	1249.025
2063.04927	1257.225
2066.06582	1260.125
2069.08042	1244.325
2072.09307	1255.425
2075.10378	1252.525
2078.11255	1250.025
2081.11938	1256.525
2084.12426	1243.525
2087.12722	1257.625
2090.12824	1246.325
2093.12732	1257.325
2096.12447	1244.725
2099.11969	1242.525
2102.11299	1250.225
2105.10435	1250.825
2108.09379	1248.125
2111.08131	1259.825
2114.0669	1251.825
2117.05057	1257.225
2120.03233	1273.525
2123.01216	1273.225
2125.99008	1262.125
2128.96609	1264.525
2131.94018	1271.425
2134.91236	1266.525
2137.88263	1272.525
2140.851	1266.925
2143.81746	1269.225
2146.78201	1264.125
2149.74466	1269.625
2152.7054	1263.025
2155.66425	1254.025
2158.6212	1259.825
2161.57625	1270.825
2164.52941	1264.325
2167.48067	1261.325
2170.43004	1250.825
2173.37752	1259.325
2176.32311	1261.125
2179.26681	1257.525
2182.20863	1266.125
2185.14856	1253.225
2188.08661	1268.125
2191.02278	1266.625
2193.95707	1261.225
2196.88948	1250.225
2199.82001	1252.425
2202.74867	1256.125
2205.67545	1252.225
2208.60037	1249.625
2211.52341	1245.125
2214.44458	1244.425
2217.36388	1245.525
2220.28132	1244.825
2223.1969	1234.025
2226.11061	1241.225
2229.02246	1239.025
2231.93245	1231.625
2234.84058	1226.725
2237.74686	1235.225
2240.65128	1237.825
2243.55385	1223.425
2246.45456	1231.525
2249.35343	1239.925
2252.25044	1237.325
2255.14561	1245.925
2258.03893	1247.425
2260.93041	1235.725
2263.82004	1236.425
2266.70783	1235.225
2269.59378	1221.625
2272.4779	1229.125
2275.36017	1225.925
2278.24061	1218.025
2281.11922	1218.225
2283.996	1210.225
2286.87094	1223.525
2289.74405	1208.725
2292.61534	1211.425
2295.4848	1202.325
2298.35243	1200.425
2301.21824	1206.525
2304.08223	1199.825
2306.94439	1201.025
2309.80474	1204.325
2312.66327	1202.925
2315.51999	1208.625
2318.37489	1207.125
2321.22797	1193.525
2324.07925	1202.625
2326.92871	1196.125
2329.77637	1202.725
2332.62222	1195.825
2335.46626	1193.025
2338.3085	1195.125
2341.14893	1194.525
2343.98756	1196.225
2346.8244	1191.525
2349.65943	1195.425
2352.49267	1199.325
2355.32411	1193.925
2358.15376	1200.325
2360.98161	1200.325
2363.80768	1206.325
2366.63195	1207.825
2369.45444	1208.025
2372.27514	1202.625
2375.09405	1211.225
2377.91118	1209.325
2380.72652	1200.325
2383.54009	1185.125
2386.35187	1188.825
2389.16188	1190.125
2391.97011	1189.025
2394.77657	1183.825
2397.58125	1171.925
2400.38416	1178.125
2403.18529	1171.225
2405.98466	1160.625
2408.78226	1163.025
2411.57809	1153.225
2414.37216	1167.525
2417.16446	1162.825
2419.955	1161.825
2422.74378	1160.125
2425.5308	1166.625
2428.31606	1161.025
2431.09956	1159.825
2433.88131	1158.125
2436.6613	1168.625
2439.43954	1163.125
2442.21603	1163.525
2444.99077	1165.125
2447.76377	1162.925
2450.53501	1169.425
2453.30451	1167.925
2456.07226	1169.125
2458.83827	1158.025
2461.60254	1157.525
2464.36507	1160.025
2467.12586	1158.325
2469.88492	1160.725
2472.64224	1162.325
2475.39782	1160.225
2478.15167	1160.725
2480.90379	1165.225
2483.65417	1179.125
2486.40283	1176.525
2489.14976	1184.025
2491.89497	1182.625
2494.63845	1175.425
2497.3802	1183.525
2500.12024	1178.725
2502.85855	1173.125
2505.59514	1165.125
2508.33002	1160.125
2511.06318	1156.225
2513.79462	1156.025
2516.52435	1141.825
2519.25237	1140.525
2521.97867	1141.025
2524.70327	1137.425
2527.42616	1138.425
2530.14734	1133.125
2532.86681	1140.225
2535.58458	1139.825
2538.30065	1132.425
2541.01501	1139.325
2543.72768	1138.625
2546.43864	1147.325
2549.14791	1134.825
2551.85548	1134.725
2554.56136	1133.425
2557.26554	1132.825
2559.96803	1126.625
2562.66883	1131.825
2565.36794	1124.525
2568.06536	1128.725
2570.7611	1128.425
2573.45514	1128.125
2576.14751	1121.125
2578.83819	1114.325
2581.52719	1123.225
2584.21451	1118.125
2586.90015	1113.225
2589.58411	1117.025
2592.2664	1116.125
2594.94701	1116.725
2597.62594	1106.425
2600.30321	1112.425
2602.9788	1113.825
2605.65273	1115.825
2608.32498	1108.525
2610.99557	1105.925
2613.66449	1113.525
2616.33175	1106.525
2618.99734	1109.725
2621.66128	1101.325
2624.32355	1110.425
2626.98416	1106.525
2629.64311	1100.725
2632.30041	1102.825
2634.95605	1097.425
2637.61004	1105.225
2640.26238	1101.525
2642.91306	1096.025
2645.56209	1094.625
2648.20948	1099.825
2650.85521	1092.325
2653.4993	1097.525
2656.14175	1098.325
2658.78255	1097.125
2661.42171	1098.125
2664.05923	1100.325
2666.6951	1107.325
2669.32934	1104.825
2671.96194	1095.325
2674.59291	1106.925
2677.22224	1095.625
2679.84993	1102.225
2682.476	1101.025
2685.10043	1103.225
2687.72324	1110.525
2690.34441	1102.325
2692.96396	1103.225
2695.58188	1104.225
2698.19818	1098.925
2700.81285	1109.325
2703.4259	1110.325
2706.03733	1107.325
2708.64714	1103.025
2711.25533	1095.525
2713.86191	1106.125
2716.46687	1110.825
2719.07021	1110.425
2721.67194	1115.125
2724.27206	1110.825
2726.87057	1103.425
2729.46747	1117.125
2732.06276	1111.825
2734.65644	1110.225
2737.24852	1106.225
2739.83899	1110.625
2742.42786	1105.225
2745.01513	1102.925
2747.60079	1105.625
2750.18486	1101.725
2752.76733	1095.225
2755.3482	1091.425
2757.92747	1094.525
2760.50515	1084.225
2763.08123	1083.325
2765.65573	1097.125
2768.22863	1085.725
2770.79994	1091.125
2773.36967	1097.825
2775.9378	1092.325
2778.50435	1095.925
2781.06932	1101.225
2783.6327	1089.225
2786.1945	1094.825
2788.75471	1091.825
2791.31335	1095.825
2793.87041	1102.425
2796.42589	1100.425
2798.97979	1101.325
2801.53212	1088.525
2804.08288	1095.625
2806.63206	1082.325
2809.17967	1097.025
2811.72571	1081.125
2814.27018	1087.225
2816.81308	1092.725
2819.35442	1092.225
2821.89419	1095.825
2824.43239	1094.325
2826.96904	1089.125
2829.50412	1096.725
2832.03763	1091.425
2834.56959	1095.125
2837.1	1098.625
2839.62884	1092.525
2842.15613	1095.125
2844.68186	1088.925
2847.20604	1090.325
2849.72867	1099.725
2852.24974	1101.025
2854.76927	1100.325
2857.28724	1108.425
2859.80367	1109.125
2862.31855	1115.825
2864.83189	1109.025
2867.34368	1115.325
2869.85393	1116.125
2872.36264	1118.025
2874.8698	1116.125
2877.37543	1109.425
2879.87952	1117.025
2882.38207	1110.225
2884.88308	1115.025
2887.38256	1116.325
2889.88051	1102.325
2892.37692	1121.125
2894.8718	1119.725
2897.36515	1121.325
2899.85698	1116.925
2902.34727	1120.225
2904.83604	1119.025
2907.32328	1127.025
2909.809	1121.525
2912.29319	1122.925
2914.77587	1112.125
2917.25702	1111.425
2919.73665	1116.925
2922.21476	1108.225
2924.69136	1109.625
2927.16644	1114.325
2929.64	1105.325
2932.11205	1112.125
2934.58258	1111.425
2937.05161	1105.825
2939.51912	1105.125
2941.98513	1113.725
2944.44962	1115.225
2946.91261	1109.425
2949.37409	1112.025
2951.83407	1112.925
2954.29254	1128.125
2956.74951	1117.825
2959.20498	1113.125
2961.65895	1121.725
2964.11142	1123.825
2966.56239	1114.425
2969.01186	1125.025
2971.45984	1118.825
2973.90632	1115.425
2976.35131	1110.825
2978.7948	1115.025
2981.23681	1112.925
2983.67732	1107.625
2986.11635	1107.525
2988.55388	1108.725
2990.98993	1103.225
2993.4245	1108.825
2995.85758	1109.625
2998.28917	1116.225
3000.71928	1115.125
3003.14791	1121.325
3005.57506	1118.025
3008.00073	1116.125
3010.42493	1123.425
3012.84764	1116.025
3015.26888	1133.725
3017.68865	1127.525
3020.10694	1119.525
3022.52376	1126.425
3024.9391	1121.025
3027.35298	1124.825
3029.76539	1120.225
3032.17632	1125.225
3034.5858	1123.625
3036.9938	1130.025
3039.40034	1131.825
3041.80542	1130.025
3044.20903	1129.825
3046.61118	1131.125
3049.01187	1126.125
3051.4111	1136.725
3053.80888	1133.225
3056.20519	1144.425
3058.60005	1141.025
3060.99345	1149.225
3063.3854	1141.925
3065.7759	1141.825
3068.16494	1147.825
3070.55254	1141.625
3072.93868	1145.025
3075.32338	1146.725
3077.70662	1160.025
3080.08842	1152.125
3082.46878	1155.225
3084.84769	1155.525
3087.22515	1157.325
3089.60118	1168.325
3091.97576	1170.225
3094.3489	1182.125
3096.72061	1181.625
3099.09087	1183.425
3101.4597	1186.025
3103.82709	1204.625
3106.19305	1212.025
3108.55757	1214.825
3110.92066	1221.225
3113.28232	1230.825
3115.64255	1230.725
3118.00134	1244.225
3120.35871	1240.825
3122.71466	1246.925
3125.06917	1239.125
3127.42226	1245.125
3129.77393	1252.125
3132.12417	1265.225
3134.47299	1259.125
3136.82039	1271.325
3139.16636	1279.825
3141.51092	1291.325
3143.85406	1298.125
3146.19579	1305.125
3148.53609	1304.725
3150.87499	1317.525
3153.21246	1324.325
3155.54853	1337.225
3157.88318	1338.525
3160.21642	1359.525
3162.54826	1364.025
3164.87868	1371.825
3167.2077	1376.825
3169.5353	1388.325
3171.86151	1390.625
3174.18631	1393.925
3176.5097	1401.025
3178.83169	1414.825
3181.15228	1416.625
3183.47147	1415.025
3185.78926	1429.725
3188.10565	1433.425
3190.42065	1436.225
3192.73424	1443.025
3195.04645	1439.325
3197.35725	1453.925
3199.66667	1454.625
3201.97469	1467.425
3204.28132	1474.425
3206.58656	1485.725
3208.8904	1478.925
3211.19287	1483.725
3213.49394	1487.325
3215.79363	1497.025
3218.09193	1506.225
3220.38884	1518.525
3222.68438	1526.125
3224.97853	1523.525
3227.2713	1524.425
3229.56269	1520.725
3231.8527	1524.225
3234.14133	1524.225
3236.42858	1522.225
3238.71446	1526.725
