Data from AgNPs_APTES_FTO_UA_50uM_CRN_0uM_R6G_10uM_Scan_RamanShift__51__12-10-33-718.txt Node

Date: Tue Jul 05 12:10:33 BST 2022
User: TCL
Spectrometer: QEP01345
Trigger mode: 4
Integration Time (sec): 7.000000E0
Scans to average: 10
Electric dark correction enabled: true
Nonlinearity correction enabled: false
Boxcar width: 0
XAxis mode: Raman Shifts
Number of Pixels in Spectrum: 1044
>>>>>Begin Spectral Data<<<<<
46.04893	-1.3
50.45542	-1.1
54.85868	-1.1
59.25871	0.4
63.6555	72.2
68.04907	76.9
72.43941	83.3
76.82654	87.3
81.21044	90.5
85.59113	93.7
89.96862	97
94.34289	100.8
98.71396	104.3
103.08183	107.9
107.4465	105.7
111.80798	110.5
116.16626	113.2
120.52136	115.3
124.87327	123.7
129.222	127
133.56755	130.1
137.90993	135.4
142.24913	147.1
146.58517	160.4
150.91804	189.6
155.24774	223.3
159.57429	266.8
163.89768	341.4
168.21792	451.9
172.53501	609.6
176.84895	860
181.15975	1204.5
185.46741	1681
189.77193	2331
194.07331	3117.1
198.37157	4004.1
202.6667	4936.1
206.9587	5878.4
211.24758	6804.6
215.53334	7708.5
219.81599	8670.4
224.09553	9708
228.37195	10852.8
232.64527	12122.7
236.91549	13495.2
241.18261	14863.6
245.44663	16215.2
249.70755	17456.9
253.96539	18511.6
258.22014	19349.1
262.4718	20020.1
266.72039	20429.7
270.96589	20567.4
275.20832	20514.4
279.44768	20279.8
283.68397	19919.8
287.91719	19635.8
292.14735	19383.2
296.37445	19237.8
300.59849	19160.9
304.81948	19115.5
309.03742	19102.1
313.25231	19036.6
317.46415	18832.5
321.67296	18567.9
325.87872	18409.6
330.08145	18345.2
334.28114	18360.7
338.47781	18538.2
342.67145	18786.2
346.86207	19040.2
351.04966	19300.5
355.23424	19615.7
359.4158	19893
363.59435	20094.3
367.76989	20269.9
371.94243	20432.6
376.11196	20522.7
380.27849	20577.1
384.44203	20723.5
388.60257	20866.7
392.76012	20972.9
396.91468	21132
401.06626	21377.2
405.21485	21553.4
409.36047	21555.5
413.50311	21439.3
417.64277	21343.1
421.77947	21392.2
425.9132	21433.6
430.04396	21519.5
434.17176	21593.4
438.2966	21696
442.41849	21905
446.53742	22197.9
450.6534	22516.3
454.76644	22743.7
458.87653	22893.1
462.98368	22967.3
467.08789	22943.1
471.18916	22923.2
475.2875	22782.7
479.38291	22756.3
483.4754	22740.4
487.56496	22701.2
491.6516	22670.7
495.73531	22631.5
499.81612	22594.2
503.89401	22685.7
507.96899	22820.3
512.04106	22874.3
516.11023	22824.9
520.1765	22718.3
524.23987	22587.8
528.30034	22517.1
532.35792	22420.3
536.41261	22304.3
540.46441	22200.1
544.51333	22185.6
548.55936	22252.3
552.60252	22467.5
556.64279	22727.4
560.6802	22955.7
564.71473	23086
568.7464	23319.6
572.7752	23689.9
576.80114	23895.5
580.82422	24117.6
584.84444	24399.2
588.86181	24850.9
592.87633	25219.4
596.888	25249.2
600.89682	25023.8
604.9028	25228.1
608.90594	26353
612.90624	27462.9
616.90371	26571.5
620.89834	24448.7
624.89015	23497.5
628.87913	23338.8
632.86528	23463.5
636.84862	23563
640.82913	23509.9
644.80683	23204.7
648.78172	23002.9
652.75379	23041.6
656.72306	23190.6
660.68952	23413.9
664.65319	23405.6
668.61405	23311.2
672.57211	23336.4
676.52738	23449
680.47986	23461.4
684.42955	23439.9
688.37646	23411.8
692.32058	23467.2
696.26192	23528.2
700.20048	23612
704.13626	23675.8
708.06928	23655.2
711.99952	23647.7
715.927	23560.8
719.85171	23562
723.77365	23490.7
727.69284	23353
731.60928	23245.2
735.52295	23252.9
739.43388	23272
743.34206	23369.7
747.24749	23448.2
751.15017	23557.8
755.05012	23709.7
758.94733	24029.3
762.8418	24554.7
766.73354	25379.7
770.62254	26176.7
774.50882	26435.9
778.39237	25975.8
782.27321	25191.7
786.15132	24402.4
790.02671	23910.6
793.89938	23626.1
797.76935	23514.9
801.6366	23479.6
805.50115	23481.1
809.36299	23432.6
813.22213	23385
817.07857	23370.3
820.93231	23318.4
824.78336	23241.2
828.63172	23204
832.47738	23175.2
836.32036	23148.4
840.16066	23207.5
843.99827	23236.8
847.8332	23285.1
851.66546	23312.4
855.49504	23283.6
859.32195	23323.9
863.1462	23297.3
866.96777	23253.3
870.78668	23300.4
874.60293	23348.3
878.41652	23392.1
882.22745	23448.3
886.03573	23456.8
889.84136	23510.2
893.64433	23481.2
897.44466	23509.4
901.24235	23480.2
905.0374	23478.8
908.8298	23408.6
912.61957	23379.7
916.40671	23424.3
920.19121	23514.2
923.97308	23557
927.75233	23596.3
931.52895	23494.6
935.30295	23371.8
939.07433	23170.8
942.84309	23000.7
946.60924	22886.9
950.37278	22880.3
954.13371	22834.2
957.89203	22859.8
961.64774	22833.6
965.40086	22766.1
969.15137	22732.3
972.89929	22715.9
976.64461	22686.9
980.38733	22686.5
984.12747	22670.5
987.86502	22680.2
991.59999	22715.4
995.33237	22823.8
999.06217	22939.5
1002.78939	23100.8
1006.51404	23264.2
1010.23611	23507.7
1013.95561	23636.3
1017.67255	23697.6
1021.38692	23585.1
1025.09872	23413.9
1028.80796	23245.1
1032.51465	23213.1
1036.21877	23188.9
1039.92035	23232.9
1043.61937	23280.8
1047.31584	23334.6
1051.00976	23375.8
1054.70114	23403.8
1058.38998	23540.8
1062.07627	23645.7
1065.76003	23846.7
1069.44126	23955.9
1073.11995	24151.4
1076.79611	24435
1080.46974	24590.3
1084.14085	24595.3
1087.80943	24636.8
1091.47549	24753.3
1095.13903	24749.1
1098.80005	24606.3
1102.45857	24364.4
1106.11456	24212
1109.76805	24104.5
1113.41903	24007.4
1117.06751	24068.9
1120.71348	24151
1124.35696	24305.3
1127.99793	24487.1
1131.63641	24643.8
1135.2724	24620.9
1138.90589	24578.2
1142.5369	24582.9
1146.16542	24529.3
1149.79145	24484.1
1153.415	24436.1
1157.03607	24437.5
1160.65467	24586.2
1164.27079	24870.9
1167.88443	25377.6
1171.49561	25975
1175.10432	26758.7
1178.71056	27747.1
1182.31434	28697.2
1185.91565	29218.7
1189.51451	29284.4
1193.11091	29042.5
1196.70485	28620.8
1200.29634	28093.8
1203.88538	27715.1
1207.47197	27431.2
1211.05612	27186.3
1214.63782	26966.3
1218.21708	26673.5
1221.79391	26339.2
1225.36829	26091.5
1228.94024	25952.9
1232.50976	25838.5
1236.07685	25664.6
1239.6415	25553.9
1243.20374	25544.3
1246.76355	25661
1250.32093	25780.6
1253.8759	26045.7
1257.42845	26370.9
1260.97859	26771
1264.52631	27155.5
1268.07163	27561.7
1271.61453	27930.7
1275.15503	28199
1278.69312	28473.4
1282.22882	28716.7
1285.76211	29020.2
1289.29301	29477.5
1292.82151	30028.6
1296.34761	30723.5
1299.87133	31519
1303.39266	32340.7
1306.9116	33186.6
1310.42815	34052.2
1313.94233	34454.8
1317.45412	34396.4
1320.96354	34076
1324.47058	33769.6
1327.97525	33424.5
1331.47754	33151.5
1334.97747	32951.5
1338.47502	32815
1341.97022	32815.4
1345.46305	33015.2
1348.95352	33259.8
1352.44163	33389.1
1355.92738	33602
1359.41078	34030.5
1362.89183	34621.9
1366.37053	34332.7
1369.84688	32804
1373.32088	30791.3
1376.79254	29382.2
1380.26186	28762.9
1383.72883	28552.2
1387.19347	28356.7
1390.65578	28070.8
1394.11575	27830.9
1397.57339	27684.2
1401.0287	27625.3
1404.48168	27626.9
1407.93234	27459.6
1411.38068	27285.1
1414.82669	26939.7
1418.27039	26482.4
1421.71177	26086.2
1425.15083	25755.7
1428.58758	25583.4
1432.02203	25621.3
1435.45416	25892
1438.88399	26146.5
1442.31151	26309.4
1445.73673	26450.7
1449.15965	26495.7
1452.58027	26580.3
1455.9986	26588.6
1459.41463	26659.4
1462.82837	26895.5
1466.23982	27132.4
1469.64898	27436.2
1473.05586	27551.6
1476.46045	27614.7
1479.86276	27653.5
1483.26279	27684.8
1486.66054	27728
1490.05602	27861.9
1493.44922	28213.6
1496.84016	28647.9
1500.22882	29248.9
1503.61521	29924.1
1506.99934	30659.3
1510.38121	31178.8
1513.76081	31224.1
1517.13816	30717.8
1520.51324	29854.1
1523.88607	29202.3
1527.25665	28755.3
1530.62498	28521.5
1533.99105	28366
1537.35488	28169.4
1540.71647	27828.6
1544.07581	27548.2
1547.4329	27312.5
1550.78776	27105.9
1554.14038	27016.4
1557.49077	27042.5
1560.83892	27088.6
1564.18484	27191.7
1567.52853	27351.7
1570.86999	27556.7
1574.20922	27824
1577.54624	27937.6
1580.88103	27970.5
1584.2136	27842.7
1587.54395	27922.7
1590.87208	28223.2
1594.19801	28809.7
1597.52172	29451.3
1600.84321	29606
1604.16251	29037.5
1607.47959	28139.3
1610.79447	27086.7
1614.10715	25980
1617.41763	25040
1620.7259	24396.3
1624.03199	24060.2
1627.33587	24031.4
1630.63757	24231.2
1633.93707	24742.4
1637.23439	25684.6
1640.52951	27113.3
1643.82246	28901.5
1647.11321	30478.6
1650.40179	30985.7
1653.68819	30066.4
1656.97241	28023.2
1660.25446	25844.6
1663.53433	24260.5
1666.81203	23226.7
1670.08756	22518.2
1673.36092	22088.5
1676.63211	21788.8
1679.90115	21545.5
1683.16801	21294.3
1686.43272	21168.6
1689.69527	21076.3
1692.95567	20937.2
1696.2139	20903
1699.46999	20830.4
1702.72392	20802.4
1705.97571	20744.7
1709.22535	20754.3
1712.47284	20701.9
1715.71819	20692.6
1718.96139	20657.5
1722.20246	20619.1
1725.44139	20538.5
1728.67818	20477.3
1731.91284	20375.2
1735.14537	20324.4
1738.37576	20213.9
1741.60403	20146.4
1744.83017	20110.6
1748.05418	20096.3
1751.27607	20094.5
1754.49584	20059
1757.71349	20018.1
1760.92903	19943.8
1764.14244	19924.2
1767.35375	19916.3
1770.56294	19891
1773.77002	19883.1
1776.97499	19870.2
1780.17785	19836.2
1783.37861	19849.3
1786.57727	19799.9
1789.77382	19736
1792.96828	19674.9
1796.16064	19649.8
1799.3509	19586.5
1802.53907	19569.2
1805.72514	19503.8
1808.90913	19473.5
1812.09102	19503.1
1815.27083	19476.2
1818.44856	19431.6
1821.6242	19377.7
1824.79776	19366.2
1827.96924	19313.7
1831.13864	19283.6
1834.30597	19299.8
1837.47122	19280.9
1840.6344	19226
1843.7955	19207
1846.95454	19203.3
1850.11151	19173
1853.26642	19193.7
1856.41926	19163.8
1859.57004	19182.7
1862.71876	19140.8
1865.86542	19112.3
1869.01003	19087.3
1872.15258	19109
1875.29308	19092.5
1878.43152	19064
1881.56792	19009.7
1884.70227	18956.6
1887.83457	18972.7
1890.96482	18878.1
1894.09304	18884.8
1897.21921	18826.4
1900.34335	18810
1903.46544	18801.4
1906.58551	18786.2
1909.70353	18745.1
1912.81953	18756.9
1915.93349	18695
1919.04543	18709.7
1922.15534	18610.1
1925.26322	18594
1928.36908	18518.3
1931.47292	18547.4
1934.57473	18480.5
1937.67453	18457.7
1940.77232	18387.8
1943.86808	18343
1946.96184	18263.6
1950.05358	18232.1
1953.14331	18175.1
1956.23103	18117.6
1959.31675	18074.6
1962.40046	18019.4
1965.48217	17964.1
1968.56188	17931.2
1971.63959	17853.9
1974.7153	17784.9
1977.78901	17755
1980.86073	17702
1983.93046	17660
1986.99819	17563.4
1990.06394	17515.5
1993.1277	17493.3
1996.18947	17444.7
1999.24925	17365.9
2002.30706	17284.2
2005.36288	17231.6
2008.41672	17254.7
2011.46859	17174.7
2014.51848	17173.9
2017.56639	17102.5
2020.61233	17052.5
2023.6563	17014.1
2026.6983	16922.1
2029.73833	16880.9
2032.7764	16857.2
2035.8125	16790.6
2038.84664	16718.1
2041.87881	16745.3
2044.90903	16716.7
2047.93729	16648.8
2050.96359	16664.8
2053.98794	16608
2057.01034	16597.1
2060.03078	16596.9
2063.04927	16577.6
2066.06582	16568.7
2069.08042	16521.5
2072.09307	16462.5
2075.10378	16482.5
2078.11255	16506.9
2081.11938	16520.6
2084.12426	16487.7
2087.12722	16485.8
2090.12824	16425.6
2093.12732	16450
2096.12447	16448.5
2099.11969	16448.8
2102.11299	16479.8
2105.10435	16471
2108.09379	16433.2
2111.08131	16453.9
2114.0669	16503.7
2117.05057	16521.5
2120.03233	16529.6
2123.01216	16546.6
2125.99008	16495.2
2128.96609	16537.6
2131.94018	16525.2
2134.91236	16538.7
2137.88263	16569.4
2140.851	16601.6
2143.81746	16588.6
2146.78201	16529.8
2149.74466	16544.1
2152.7054	16549.8
2155.66425	16547.8
2158.6212	16540.8
2161.57625	16497.6
2164.52941	16475
2167.48067	16496
2170.43004	16523.5
2173.37752	16513.8
2176.32311	16525.6
2179.26681	16506
2182.20863	16490.2
2185.14856	16509.3
2188.08661	16479.2
2191.02278	16480.2
2193.95707	16446.9
2196.88948	16470.2
2199.82001	16442.5
2202.74867	16413.7
2205.67545	16372.7
2208.60037	16313.7
2211.52341	16304.9
2214.44458	16230.7
2217.36388	16216.4
2220.28132	16191.4
2223.1969	16153.3
2226.11061	16128.4
2229.02246	16120
2231.93245	16114.7
2234.84058	16057.9
2237.74686	16074.5
2240.65128	16042
2243.55385	15965.4
2246.45456	15962.2
2249.35343	15909.5
2252.25044	15908.7
2255.14561	15877.2
2258.03893	15867.6
2260.93041	15826.7
2263.82004	15766.6
2266.70783	15768.3
2269.59378	15692.4
2272.4779	15656.5
2275.36017	15622.9
2278.24061	15550.7
2281.11922	15515.4
2283.996	15498.7
2286.87094	15486.3
2289.74405	15452.9
2292.61534	15419.4
2295.4848	15379.7
2298.35243	15383.9
2301.21824	15410.6
2304.08223	15387
2306.94439	15359
2309.80474	15340.7
2312.66327	15348.3
2315.51999	15347.7
2318.37489	15306.4
2321.22797	15293
2324.07925	15244
2326.92871	15190.1
2329.77637	15173.4
2332.62222	15136.4
2335.46626	15133.8
2338.3085	15090.7
2341.14893	15078.4
2343.98756	15059.3
2346.8244	15046.2
2349.65943	15029.6
2352.49267	15004.5
2355.32411	15001.7
2358.15376	14995.7
2360.98161	14977.7
2363.80768	14983.8
2366.63195	14998.9
2369.45444	14983.3
2372.27514	14947.4
2375.09405	14932.4
2377.91118	14870.4
2380.72652	14840
2383.54009	14821.8
2386.35187	14785.5
2389.16188	14723.2
2391.97011	14717.4
2394.77657	14676.1
2397.58125	14653.1
2400.38416	14630.3
2403.18529	14580.9
2405.98466	14556.6
2408.78226	14566.1
2411.57809	14520.1
2414.37216	14512.5
2417.16446	14481.9
2419.955	14465.9
2422.74378	14489.8
2425.5308	14465.5
2428.31606	14462.8
2431.09956	14440.8
2433.88131	14409.3
2436.6613	14400.4
2439.43954	14390.1
2442.21603	14354.8
2444.99077	14358.7
2447.76377	14365.6
2450.53501	14298.9
2453.30451	14294.7
2456.07226	14247.7
2458.83827	14236.8
2461.60254	14216.4
2464.36507	14227.3
2467.12586	14221.5
2469.88492	14151.9
2472.64224	14152.5
2475.39782	14154.8
2478.15167	14175
2480.90379	14141.1
2483.65417	14168.9
2486.40283	14130
2489.14976	14111.4
2491.89497	14120.6
2494.63845	14075.5
2497.3802	14071.1
2500.12024	14062.9
2502.85855	14026.2
2505.59514	14062.5
2508.33002	14015.4
2511.06318	13985.6
2513.79462	13974.2
2516.52435	13944
2519.25237	13939.1
2521.97867	13907.8
2524.70327	13890.3
2527.42616	13882.5
2530.14734	13828.8
2532.86681	13825.4
2535.58458	13824.9
2538.30065	13786.4
2541.01501	13764.4
2543.72768	13704.9
2546.43864	13695.1
2549.14791	13643.1
2551.85548	13651.7
2554.56136	13617.2
2557.26554	13627.9
2559.96803	13564.7
2562.66883	13551.3
2565.36794	13485.6
2568.06536	13478.4
2570.7611	13447
2573.45514	13451.3
2576.14751	13428.8
2578.83819	13406.8
2581.52719	13366.7
2584.21451	13320.5
2586.90015	13346.3
2589.58411	13306.3
2592.2664	13289.2
2594.94701	13276.5
2597.62594	13215
2600.30321	13152.8
2602.9788	13135.6
2605.65273	13135
2608.32498	13121.3
2610.99557	13116.9
2613.66449	13102.9
2616.33175	13097.6
2618.99734	13069.5
2621.66128	13076.6
2624.32355	13022.4
2626.98416	13021.3
2629.64311	12992
2632.30041	12973.3
2634.95605	12940.3
2637.61004	12941.7
2640.26238	12897.8
2642.91306	12891.6
2645.56209	12900.7
2648.20948	12877.4
2650.85521	12884.1
2653.4993	12875.1
2656.14175	12834.8
2658.78255	12849.6
2661.42171	12837.2
2664.05923	12833.1
2666.6951	12810.8
2669.32934	12832.3
2671.96194	12797.3
2674.59291	12790.8
2677.22224	12780.6
2679.84993	12799.7
2682.476	12750.5
2685.10043	12791.9
2687.72324	12782.8
2690.34441	12750.5
2692.96396	12801.1
2695.58188	12772.8
2698.19818	12744.5
2700.81285	12759.4
2703.4259	12706.7
2706.03733	12744.2
2708.64714	12765.5
2711.25533	12740.4
2713.86191	12718.9
2716.46687	12720.7
2719.07021	12703.7
2721.67194	12757.5
2724.27206	12712.8
2726.87057	12720.1
2729.46747	12721.5
2732.06276	12718
2734.65644	12688.6
2737.24852	12701.7
2739.83899	12682.9
2742.42786	12687.8
2745.01513	12625.4
2747.60079	12640.9
2750.18486	12602.9
2752.76733	12606.9
2755.3482	12577.9
2757.92747	12589.5
2760.50515	12573
2763.08123	12554
2765.65573	12508.4
2768.22863	12486.3
2770.79994	12452.4
2773.36967	12453.2
2775.9378	12429.4
2778.50435	12398.1
2781.06932	12403
2783.6327	12378.9
2786.1945	12349.5
2788.75471	12333.7
2791.31335	12310.5
2793.87041	12323.8
2796.42589	12254.6
2798.97979	12249.9
2801.53212	12202.7
2804.08288	12181.8
2806.63206	12139.7
2809.17967	12092.6
2811.72571	12100.6
2814.27018	12059.5
2816.81308	12015.9
2819.35442	11966.9
2821.89419	11903.7
2824.43239	11946.8
2826.96904	11932.7
2829.50412	11906.1
2832.03763	11888.9
2834.56959	11884
2837.1	11847.5
2839.62884	11826.7
2842.15613	11828.4
2844.68186	11833.5
2847.20604	11792.5
2849.72867	11796.5
2852.24974	11787.1
2854.76927	11775.8
2857.28724	11754.5
2859.80367	11740.1
2862.31855	11722.5
2864.83189	11684
2867.34368	11664.4
2869.85393	11668.5
2872.36264	11633.3
2874.8698	11634.7
2877.37543	11667.3
2879.87952	11666.1
2882.38207	11643.7
2884.88308	11605.9
2887.38256	11590.2
2889.88051	11599.2
2892.37692	11595.9
2894.8718	11583.3
2897.36515	11572.9
2899.85698	11561.7
2902.34727	11574.2
2904.83604	11557.9
2907.32328	11585.7
2909.809	11595.4
2912.29319	11586.7
2914.77587	11576.2
2917.25702	11603.3
2919.73665	11555.9
2922.21476	11568.6
2924.69136	11542
2927.16644	11552.2
2929.64	11477.9
2932.11205	11491
2934.58258	11499.5
2937.05161	11479.3
2939.51912	11463.1
2941.98513	11470.4
2944.44962	11446.2
2946.91261	11424.9
2949.37409	11411.5
2951.83407	11409
2954.29254	11387.9
2956.74951	11396.4
2959.20498	11376.6
2961.65895	11343.4
2964.11142	11365.7
2966.56239	11334
2969.01186	11329.7
2971.45984	11339.9
2973.90632	11344.1
2976.35131	11328.6
2978.7948	11305.9
2981.23681	11278.7
2983.67732	11234.1
2986.11635	11216.2
2988.55388	11192.6
2990.98993	11205.3
2993.4245	11188.5
2995.85758	11108.2
2998.28917	11117
3000.71928	11078.8
3003.14791	11061.2
3005.57506	11035.2
3008.00073	11025.1
3010.42493	11003.6
3012.84764	10966.5
3015.26888	10989.7
3017.68865	10936.3
3020.10694	10936.4
3022.52376	10887.7
3024.9391	10871.5
3027.35298	10900
3029.76539	10883.8
3032.17632	10872.6
3034.5858	10837.6
3036.9938	10845
3039.40034	10803
3041.80542	10839.2
3044.20903	10794.5
3046.61118	10772.2
3049.01187	10740.1
3051.4111	10737.2
3053.80888	10726.9
3056.20519	10705.6
3058.60005	10694.4
3060.99345	10662.8
3063.3854	10637.8
3065.7759	10598.4
3068.16494	10571.9
3070.55254	10531.6
3072.93868	10523.5
3075.32338	10497.8
3077.70662	10493.1
3080.08842	10436.7
3082.46878	10426.8
3084.84769	10412.2
3087.22515	10462.2
3089.60118	10450
3091.97576	10429.7
3094.3489	10431.4
3096.72061	10443.6
3099.09087	10427
3101.4597	10410.7
3103.82709	10408.8
3106.19305	10408.6
3108.55757	10431.9
3110.92066	10399.4
3113.28232	10362.9
3115.64255	10338.3
3118.00134	10320.2
3120.35871	10291.4
3122.71466	10286.4
3125.06917	10300.6
3127.42226	10266.4
3129.77393	10277
3132.12417	10234.6
3134.47299	10249.1
3136.82039	10229.9
3139.16636	10235.7
3141.51092	10219.2
3143.85406	10226.6
3146.19579	10219
3148.53609	10233
3150.87499	10250.2
3153.21246	10230.1
3155.54853	10223.4
3157.88318	10215
3160.21642	10251.6
3162.54826	10240.6
3164.87868	10232.5
3167.2077	10267.6
3169.5353	10267.5
3171.86151	10270
3174.18631	10238.5
3176.5097	10237.2
3178.83169	10202.4
3181.15228	10187.4
3183.47147	10181.2
3185.78926	10165.4
3188.10565	10133
3190.42065	10123.7
3192.73424	10136.5
3195.04645	10111.9
3197.35725	10124.5
3199.66667	10096.9
3201.97469	10110
3204.28132	10120
3206.58656	10111.1
3208.8904	10092.4
3211.19287	10071
3213.49394	10120.2
3215.79363	10110
3218.09193	10117.3
3220.38884	10113
3222.68438	10135.7
3224.97853	10099.3
3227.2713	10093.4
3229.56269	10093
3231.8527	10075.3
3234.14133	10081.1
3236.42858	10047
3238.71446	10016.3
3240.99896	9974.7
3243.28209	9961
3245.56384	9939.6
3247.84423	9931.2
3250.12324	9919.9
3252.40088	9923.1
3254.67715	9917.3
3256.95205	9904.7
3259.22558	9864.4
3261.49775	9860.5
3263.76855	9884.8
3266.03799	9854.3
3268.30606	9820.2
3270.57277	9834.4
3272.83812	9795.8
3275.10211	9771.6
3277.36474	9740.8
3279.62601	9739.3
3281.88593	9710.6
3284.14448	9712.6
3286.40168	9711.3
3288.65753	9679.1
3290.91202	9669.8
3293.16516	9645.3
3295.41695	9638.1
3297.66738	9611.9
3299.91647	9576.5
3302.16421	9530.6
3304.4106	9485.2
3306.65564	9429.5
3308.89933	9339.5
3311.14169	9317.5
3313.38269	9233.6
3315.62236	9172.3
3317.86068	9103.4
3320.09766	9043.1
3322.3333	9004.3
3324.5676	8993.4
3326.80056	8873.5
3329.03219	8794.7
3331.26248	2.7
3333.49143	0.5
3335.71905	-0.7
