Data from AgNPs_APTES_FTO_UA_50uM_CRN_0uM_R6G_10uM_Scan_RamanShift__44__12-02-23-708.txt Node

Date: Tue Jul 05 12:02:23 BST 2022
User: TCL
Spectrometer: QEP01345
Trigger mode: 4
Integration Time (sec): 7.000000E0
Scans to average: 10
Electric dark correction enabled: true
Nonlinearity correction enabled: false
Boxcar width: 0
XAxis mode: Raman Shifts
Number of Pixels in Spectrum: 1044
>>>>>Begin Spectral Data<<<<<
46.04893	0.675
50.45542	-0.525
54.85868	-1.025
59.25871	0.375
63.6555	54.175
68.04907	56.575
72.43941	61.975
76.82654	67.175
81.21044	67.875
85.59113	70.175
89.96862	73.875
94.34289	77.175
98.71396	78.275
103.08183	82.475
107.4465	81.775
111.80798	87.075
116.16626	85.275
120.52136	82.075
124.87327	92.275
129.222	94.975
133.56755	93.375
137.90993	98.575
142.24913	105.275
146.58517	116.475
150.91804	128.375
155.24774	146.575
159.57429	181.075
163.89768	226.375
168.21792	292.775
172.53501	388.375
176.84895	539.375
181.15975	748.875
185.46741	1052.375
189.77193	1447.575
194.07331	1931.675
198.37157	2475.775
202.6667	3040.375
206.9587	3601.275
211.24758	4182.375
215.53334	4734.575
219.81599	5326.675
224.09553	5986.075
228.37195	6732.975
232.64527	7544.275
236.91549	8374.475
241.18261	9192.575
245.44663	9962.575
249.70755	10633.975
253.96539	11203.075
258.22014	11623.275
262.4718	11994.775
266.72039	12208.075
270.96589	12294.475
275.20832	12279.675
279.44768	12080.075
283.68397	11853.075
287.91719	11665.375
292.14735	11537.275
296.37445	11512.175
300.59849	11563.675
304.81948	11658.875
309.03742	11778.275
313.25231	11749.875
317.46415	11625.275
321.67296	11415.575
325.87872	11191.575
330.08145	11119.975
334.28114	11115.475
338.47781	11168.675
342.67145	11318.775
346.86207	11527.675
351.04966	11741.275
355.23424	12010.275
359.4158	12235.275
363.59435	12356.175
367.76989	12476.175
371.94243	12548.675
376.11196	12611.975
380.27849	12641.975
384.44203	12675.375
388.60257	12776.275
392.76012	12852.675
396.91468	12921.975
401.06626	13055.675
405.21485	13188.475
409.36047	13161.675
413.50311	13017.775
417.64277	12863.975
421.77947	12839.275
425.9132	12870.175
430.04396	12891.775
434.17176	12927.275
438.2966	13017.275
442.41849	13217.375
446.53742	13489.475
450.6534	13755.575
454.76644	13919.975
458.87653	13899.175
462.98368	13850.775
467.08789	13738.575
471.18916	13621.775
475.2875	13433.775
479.38291	13325.975
483.4754	13286.075
487.56496	13270.975
491.6516	13333.075
495.73531	13443.575
499.81612	13531.075
503.89401	13625.275
507.96899	13706.375
512.04106	13692.675
516.11023	13673.375
520.1765	13640.775
524.23987	13597.575
528.30034	13557.275
532.35792	13500.975
536.41261	13399.875
540.46441	13222.975
544.51333	13140.075
548.55936	13141.575
552.60252	13272.475
556.64279	13450.075
560.6802	13601.575
564.71473	13627.875
568.7464	13708.475
572.7752	13858.775
576.80114	13862.775
580.82422	13982.375
584.84444	14318.475
588.86181	14825.775
592.87633	15330.975
596.888	15455.775
600.89682	15168.775
604.9028	15344.275
608.90594	16548.575
612.90624	18009.875
616.90371	17344.075
620.89834	15118.775
624.89015	14131.175
628.87913	14078.375
632.86528	14296.875
636.84862	14509.475
640.82913	14469.675
644.80683	14203.175
648.78172	13943.975
652.75379	13875.875
656.72306	13917.875
660.68952	14037.175
664.65319	13870.075
668.61405	13611.775
672.57211	13534.675
676.52738	13597.175
680.47986	13607.375
684.42955	13516.675
688.37646	13443.775
692.32058	13459.075
696.26192	13503.775
700.20048	13596.075
704.13626	13650.175
708.06928	13613.175
711.99952	13557.975
715.927	13525.775
719.85171	13626.875
723.77365	13595.575
727.69284	13530.875
731.60928	13453.475
735.52295	13433.775
739.43388	13466.575
743.34206	13494.575
747.24749	13563.875
751.15017	13623.275
755.05012	13760.175
758.94733	14019.675
762.8418	14502.775
766.73354	15337.075
770.62254	16190.875
774.50882	16496.475
778.39237	16053.175
782.27321	15157.175
786.15132	14371.475
790.02671	13905.675
793.89938	13669.675
797.76935	13611.375
801.6366	13630.375
805.50115	13668.375
809.36299	13669.875
813.22213	13674.475
817.07857	13567.475
820.93231	13486.775
824.78336	13384.875
828.63172	13325.975
832.47738	13296.175
836.32036	13296.475
840.16066	13318.375
843.99827	13348.675
847.8332	13357.075
851.66546	13332.775
855.49504	13329.975
859.32195	13304.275
863.1462	13294.175
866.96777	13313.875
870.78668	13346.275
874.60293	13411.875
878.41652	13458.575
882.22745	13588.075
886.03573	13655.475
889.84136	13694.775
893.64433	13651.475
897.44466	13572.575
901.24235	13473.975
905.0374	13423.175
908.8298	13351.975
912.61957	13291.275
916.40671	13311.775
920.19121	13369.975
923.97308	13430.575
927.75233	13460.275
931.52895	13492.675
935.30295	13413.875
939.07433	13235.075
942.84309	13071.175
946.60924	13026.175
950.37278	12973.375
954.13371	12924.675
957.89203	12909.375
961.64774	12900.175
965.40086	12849.875
969.15137	12836.775
972.89929	12835.575
976.64461	12846.175
980.38733	12858.575
984.12747	12862.775
987.86502	12926.575
991.59999	12961.375
995.33237	13063.175
999.06217	13243.675
1002.78939	13456.575
1006.51404	13600.275
1010.23611	13776.975
1013.95561	13880.975
1017.67255	13945.775
1021.38692	13865.675
1025.09872	13712.775
1028.80796	13624.575
1032.51465	13662.575
1036.21877	13795.375
1039.92035	13826.875
1043.61937	13772.075
1047.31584	13704.975
1051.00976	13570.975
1054.70114	13489.475
1058.38998	13514.275
1062.07627	13571.875
1065.76003	13673.175
1069.44126	13740.475
1073.11995	13878.475
1076.79611	14115.275
1080.46974	14245.775
1084.14085	14308.775
1087.80943	14406.975
1091.47549	14455.975
1095.13903	14368.775
1098.80005	14161.675
1102.45857	13973.275
1106.11456	13850.175
1109.76805	13810.675
1113.41903	13911.175
1117.06751	14034.275
1120.71348	14282.875
1124.35696	14599.675
1127.99793	14940.575
1131.63641	15158.675
1135.2724	15147.575
1138.90589	15013.075
1142.5369	14891.075
1146.16542	14693.675
1149.79145	14537.075
1153.415	14343.975
1157.03607	14226.475
1160.65467	14220.575
1164.27079	14467.775
1167.88443	14807.675
1171.49561	15298.475
1175.10432	16046.375
1178.71056	17076.775
1182.31434	17948.775
1185.91565	18353.775
1189.51451	18211.875
1193.11091	17777.975
1196.70485	17317.975
1200.29634	16909.675
1203.88538	16609.375
1207.47197	16275.875
1211.05612	15979.275
1214.63782	15740.975
1218.21708	15554.275
1221.79391	15420.875
1225.36829	15415.975
1228.94024	15359.875
1232.50976	15218.275
1236.07685	15060.475
1239.6415	14921.675
1243.20374	14914.375
1246.76355	14990.175
1250.32093	15144.975
1253.8759	15325.375
1257.42845	15592.875
1260.97859	15889.775
1264.52631	16171.375
1268.07163	16489.775
1271.61453	16803.475
1275.15503	17004.075
1278.69312	17222.475
1282.22882	17342.275
1285.76211	17587.275
1289.29301	17979.975
1292.82151	18406.375
1296.34761	18938.375
1299.87133	19631.475
1303.39266	20501.475
1306.9116	21452.475
1310.42815	22474.975
1313.94233	23039.675
1317.45412	22763.775
1320.96354	21996.875
1324.47058	21155.675
1327.97525	20429.775
1331.47754	19940.375
1334.97747	19623.275
1338.47502	19499.175
1341.97022	19464.675
1345.46305	19597.575
1348.95352	20064.075
1352.44163	20755.175
1355.92738	21718.675
1359.41078	23111.675
1362.89183	24372.075
1366.37053	24315.475
1369.84688	22529.575
1373.32088	20214.375
1376.79254	18649.775
1380.26186	17933.275
1383.72883	17595.575
1387.19347	17323.575
1390.65578	16960.575
1394.11575	16697.275
1397.57339	16557.675
1401.0287	16480.875
1404.48168	16452.575
1407.93234	16342.275
1411.38068	16201.675
1414.82669	16050.475
1418.27039	15832.275
1421.71177	15628.375
1425.15083	15431.575
1428.58758	15377.975
1432.02203	15496.175
1435.45416	15708.275
1438.88399	15883.075
1442.31151	15894.275
1445.73673	15922.875
1449.15965	15850.575
1452.58027	15824.075
1455.9986	15730.075
1459.41463	15738.475
1462.82837	15911.275
1466.23982	16096.575
1469.64898	16346.375
1473.05586	16528.775
1476.46045	16589.975
1479.86276	16662.375
1483.26279	16750.675
1486.66054	16855.975
1490.05602	17016.175
1493.44922	17297.875
1496.84016	17656.575
1500.22882	18200.375
1503.61521	18921.875
1506.99934	19825.675
1510.38121	20620.975
1513.76081	20951.075
1517.13816	20392.975
1520.51324	19322.375
1523.88607	18352.975
1527.25665	17707.175
1530.62498	17369.575
1533.99105	17218.775
1537.35488	17083.275
1540.71647	16878.975
1544.07581	16658.275
1547.4329	16505.775
1550.78776	16321.275
1554.14038	16268.475
1557.49077	16275.975
1560.83892	16333.075
1564.18484	16448.975
1567.52853	16610.475
1570.86999	16747.475
1574.20922	16928.875
1577.54624	16939.175
1580.88103	16747.175
1584.2136	16501.075
1587.54395	16485.375
1590.87208	16812.475
1594.19801	17399.875
1597.52172	18132.875
1600.84321	18383.075
1604.16251	18020.475
1607.47959	17187.675
1610.79447	16338.175
1614.10715	15490.175
1617.41763	14868.775
1620.7259	14480.275
1624.03199	14300.275
1627.33587	14337.575
1630.63757	14568.275
1633.93707	14962.975
1637.23439	15706.675
1640.52951	16839.775
1643.82246	18300.275
1647.11321	19612.475
1650.40179	20105.975
1653.68819	19322.275
1656.97241	17600.775
1660.25446	15871.975
1663.53433	14632.375
1666.81203	13875.975
1670.08756	13431.575
1673.36092	13177.675
1676.63211	12973.775
1679.90115	12802.075
1683.16801	12643.875
1686.43272	12489.275
1689.69527	12427.075
1692.95567	12303.475
1696.2139	12220.675
1699.46999	12159.575
1702.72392	12055.275
1705.97571	11974.175
1709.22535	11921.675
1712.47284	11864.675
1715.71819	11840.775
1718.96139	11837.275
1722.20246	11764.675
1725.44139	11714.575
1728.67818	11686.175
1731.91284	11597.175
1735.14537	11567.775
1738.37576	11497.775
1741.60403	11438.175
1744.83017	11432.975
1748.05418	11422.775
1751.27607	11399.975
1754.49584	11393.175
1757.71349	11373.875
1760.92903	11346.075
1764.14244	11349.875
1767.35375	11320.575
1770.56294	11319.875
1773.77002	11309.275
1776.97499	11293.475
1780.17785	11280.475
1783.37861	11290.275
1786.57727	11245.375
1789.77382	11242.175
1792.96828	11202.175
1796.16064	11206.375
1799.3509	11157.175
1802.53907	11153.975
1805.72514	11116.075
1808.90913	11093.575
1812.09102	11086.775
1815.27083	11070.675
1818.44856	11043.775
1821.6242	11025.775
1824.79776	11055.075
1827.96924	10992.975
1831.13864	10977.275
1834.30597	10983.375
1837.47122	10973.975
1840.6344	10966.575
1843.7955	10954.675
1846.95454	10942.175
1850.11151	10947.675
1853.26642	10932.775
1856.41926	10955.075
1859.57004	10933.175
1862.71876	10920.875
1865.86542	10928.975
1869.01003	10940.075
1872.15258	10910.975
1875.29308	10903.675
1878.43152	10888.975
1881.56792	10856.075
1884.70227	10845.175
1887.83457	10822.475
1890.96482	10790.775
1894.09304	10814.875
1897.21921	10810.875
1900.34335	10779.575
1903.46544	10764.375
1906.58551	10770.875
1909.70353	10734.575
1912.81953	10737.675
1915.93349	10742.575
1919.04543	10697.475
1922.15534	10683.975
1925.26322	10668.175
1928.36908	10640.175
1931.47292	10647.975
1934.57473	10607.475
1937.67453	10594.275
1940.77232	10554.575
1943.86808	10500.775
1946.96184	10500.075
1950.05358	10462.675
1953.14331	10453.175
1956.23103	10441.375
1959.31675	10400.475
1962.40046	10353.375
1965.48217	10346.675
1968.56188	10320.975
1971.63959	10264.775
1974.7153	10256.875
1977.78901	10231.475
1980.86073	10210.575
1983.93046	10192.475
1986.99819	10118.175
1990.06394	10116.175
1993.1277	10114.075
1996.18947	10079.175
1999.24925	10035.575
2002.30706	10011.075
2005.36288	9980.875
2008.41672	9961.475
2011.46859	9952.675
2014.51848	9911.075
2017.56639	9888.175
2020.61233	9871.175
2023.6563	9833.275
2026.6983	9785.875
2029.73833	9769.175
2032.7764	9743.775
2035.8125	9754.875
2038.84664	9709.775
2041.87881	9702.575
2044.90903	9672.575
2047.93729	9675.575
2050.96359	9659.575
2053.98794	9642.975
2057.01034	9647.475
2060.03078	9644.075
2063.04927	9663.775
2066.06582	9628.075
2069.08042	9617.775
2072.09307	9565.475
2075.10378	9567.375
2078.11255	9590.175
2081.11938	9602.375
2084.12426	9594.875
2087.12722	9600.075
2090.12824	9583.175
2093.12732	9571.975
2096.12447	9573.575
2099.11969	9583.975
2102.11299	9591.975
2105.10435	9590.975
2108.09379	9601.975
2111.08131	9594.275
2114.0669	9599.875
2117.05057	9624.675
2120.03233	9635.075
2123.01216	9648.675
2125.99008	9651.675
2128.96609	9663.775
2131.94018	9652.775
2134.91236	9678.575
2137.88263	9709.375
2140.851	9693.475
2143.81746	9696.975
2146.78201	9696.375
2149.74466	9697.875
2152.7054	9683.575
2155.66425	9682.675
2158.6212	9676.275
2161.57625	9670.675
2164.52941	9659.875
2167.48067	9661.075
2170.43004	9694.275
2173.37752	9678.175
2176.32311	9677.975
2179.26681	9671.375
2182.20863	9650.775
2185.14856	9674.175
2188.08661	9675.475
2191.02278	9665.075
2193.95707	9643.775
2196.88948	9657.975
2199.82001	9672.675
2202.74867	9627.675
2205.67545	9621.475
2208.60037	9598.575
2211.52341	9640.075
2214.44458	9562.775
2217.36388	9540.875
2220.28132	9542.775
2223.1969	9544.775
2226.11061	9513.775
2229.02246	9501.275
2231.93245	9464.775
2234.84058	9495.475
2237.74686	9477.275
2240.65128	9459.475
2243.55385	9443.175
2246.45456	9413.175
2249.35343	9382.275
2252.25044	9391.675
2255.14561	9369.175
2258.03893	9367.275
2260.93041	9358.175
2263.82004	9337.475
2266.70783	9297.175
2269.59378	9266.575
2272.4779	9247.675
2275.36017	9253.975
2278.24061	9210.375
2281.11922	9203.075
2283.996	9190.175
2286.87094	9192.775
2289.74405	9153.975
2292.61534	9138.575
2295.4848	9155.375
2298.35243	9157.875
2301.21824	9146.075
2304.08223	9161.875
2306.94439	9138.275
2309.80474	9131.575
2312.66327	9143.375
2315.51999	9130.475
2318.37489	9123.475
2321.22797	9100.475
2324.07925	9082.975
2326.92871	9050.475
2329.77637	9041.675
2332.62222	9070.075
2335.46626	9034.075
2338.3085	9026.175
2341.14893	9020.375
2343.98756	9027.175
2346.8244	8997.475
2349.65943	9011.275
2352.49267	8985.175
2355.32411	8972.975
2358.15376	8990.875
2360.98161	8957.975
2363.80768	9004.575
2366.63195	9003.375
2369.45444	9005.875
2372.27514	8973.975
2375.09405	8973.675
2377.91118	8943.875
2380.72652	8913.975
2383.54009	8893.875
2386.35187	8887.675
2389.16188	8861.275
2391.97011	8846.875
2394.77657	8826.275
2397.58125	8816.475
2400.38416	8796.075
2403.18529	8773.175
2405.98466	8750.475
2408.78226	8754.775
2411.57809	8711.075
2414.37216	8728.875
2417.16446	8712.675
2419.955	8691.675
2422.74378	8721.375
2425.5308	8717.775
2428.31606	8697.875
2431.09956	8703.675
2433.88131	8657.675
2436.6613	8664.175
2439.43954	8677.075
2442.21603	8675.975
2444.99077	8652.875
2447.76377	8644.475
2450.53501	8681.375
2453.30451	8641.375
2456.07226	8643.175
2458.83827	8615.475
2461.60254	8605.175
2464.36507	8615.275
2467.12586	8593.575
2469.88492	8584.975
2472.64224	8593.375
2475.39782	8618.975
2478.15167	8600.075
2480.90379	8602.575
2483.65417	8613.575
2486.40283	8603.275
2489.14976	8598.975
2491.89497	8598.575
2494.63845	8572.075
2497.3802	8585.175
2500.12024	8566.775
2502.85855	8551.075
2505.59514	8556.375
2508.33002	8549.575
2511.06318	8524.075
2513.79462	8501.175
2516.52435	8500.375
2519.25237	8481.275
2521.97867	8479.075
2524.70327	8477.975
2527.42616	8462.275
2530.14734	8445.775
2532.86681	8432.675
2535.58458	8424.475
2538.30065	8416.275
2541.01501	8411.375
2543.72768	8379.875
2546.43864	8358.575
2549.14791	8359.275
2551.85548	8355.675
2554.56136	8360.775
2557.26554	8351.975
2559.96803	8341.775
2562.66883	8298.875
2565.36794	8303.075
2568.06536	8265.275
2570.7611	8278.475
2573.45514	8261.675
2576.14751	8275.975
2578.83819	8233.475
2581.52719	8231.875
2584.21451	8223.675
2586.90015	8218.875
2589.58411	8198.975
2592.2664	8170.475
2594.94701	8167.375
2597.62594	8147.975
2600.30321	8123.975
2602.9788	8123.375
2605.65273	8093.075
2608.32498	8104.375
2610.99557	8105.175
2613.66449	8122.075
2616.33175	8106.175
2618.99734	8092.175
2621.66128	8087.775
2624.32355	8077.475
2626.98416	8078.175
2629.64311	8041.175
2632.30041	8030.475
2634.95605	8027.175
2637.61004	8020.875
2640.26238	8018.275
2642.91306	8001.575
2645.56209	7990.475
2648.20948	7994.775
2650.85521	8001.175
2653.4993	7983.675
2656.14175	7969.175
2658.78255	7986.875
2661.42171	7993.075
2664.05923	7995.275
2666.6951	7999.475
2669.32934	8007.275
2671.96194	8000.675
2674.59291	7977.475
2677.22224	7995.975
2679.84993	7998.075
2682.476	7955.275
2685.10043	7999.675
2687.72324	7972.375
2690.34441	7976.375
2692.96396	7997.275
2695.58188	7973.175
2698.19818	7965.175
2700.81285	7966.175
2703.4259	7966.775
2706.03733	7971.975
2708.64714	7962.475
2711.25533	7974.375
2713.86191	7977.175
2716.46687	7959.175
2719.07021	7988.175
2721.67194	7991.275
2724.27206	7990.175
2726.87057	8006.575
2729.46747	8008.975
2732.06276	7986.275
2734.65644	7996.875
2737.24852	7972.075
2739.83899	7962.675
2742.42786	7979.275
2745.01513	7960.275
2747.60079	7963.475
2750.18486	7938.575
2752.76733	7935.275
2755.3482	7906.675
2757.92747	7936.375
2760.50515	7915.075
2763.08123	7914.075
2765.65573	7892.475
2768.22863	7877.875
2770.79994	7844.575
2773.36967	7858.375
2775.9378	7840.175
2778.50435	7847.475
2781.06932	7826.175
2783.6327	7828.675
2786.1945	7832.575
2788.75471	7826.875
2791.31335	7789.675
2793.87041	7781.975
2796.42589	7773.675
2798.97979	7760.275
2801.53212	7743.075
2804.08288	7740.675
2806.63206	7688.275
2809.17967	7683.475
2811.72571	7676.275
2814.27018	7664.175
2816.81308	7635.175
2819.35442	7627.275
2821.89419	7603.475
2824.43239	7587.275
2826.96904	7584.175
2829.50412	7615.275
2832.03763	7605.775
2834.56959	7606.675
2837.1	7589.775
2839.62884	7586.575
2842.15613	7562.675
2844.68186	7611.675
2847.20604	7564.175
2849.72867	7585.875
2852.24974	7588.475
2854.76927	7568.275
2857.28724	7541.375
2859.80367	7552.375
2862.31855	7575.175
2864.83189	7571.275
2867.34368	7556.875
2869.85393	7561.875
2872.36264	7541.775
2874.8698	7539.975
2877.37543	7550.175
2879.87952	7548.475
2882.38207	7529.775
2884.88308	7519.975
2887.38256	7526.175
2889.88051	7535.775
2892.37692	7532.875
2894.8718	7527.375
2897.36515	7517.975
2899.85698	7507.175
2902.34727	7527.075
2904.83604	7507.875
2907.32328	7568.075
2909.809	7554.375
2912.29319	7554.875
2914.77587	7549.975
2917.25702	7568.675
2919.73665	7557.175
2922.21476	7541.575
2924.69136	7534.475
2927.16644	7536.475
2929.64	7507.775
2932.11205	7498.575
2934.58258	7513.275
2937.05161	7516.375
2939.51912	7515.475
2941.98513	7467.375
2944.44962	7473.775
2946.91261	7456.675
2949.37409	7458.375
2951.83407	7462.975
2954.29254	7438.975
2956.74951	7431.075
2959.20498	7395.775
2961.65895	7428.075
2964.11142	7416.775
2966.56239	7425.175
2969.01186	7413.875
2971.45984	7428.075
2973.90632	7428.575
2976.35131	7406.875
2978.7948	7386.275
2981.23681	7367.875
2983.67732	7366.375
2986.11635	7336.375
2988.55388	7336.875
2990.98993	7336.175
2993.4245	7348.375
2995.85758	7303.175
2998.28917	7299.875
3000.71928	7275.775
3003.14791	7249.375
3005.57506	7258.975
3008.00073	7252.475
3010.42493	7247.175
3012.84764	7220.175
3015.26888	7238.275
3017.68865	7209.475
3020.10694	7199.275
3022.52376	7181.675
3024.9391	7187.575
3027.35298	7180.375
3029.76539	7161.875
3032.17632	7169.375
3034.5858	7170.175
3036.9938	7171.375
3039.40034	7143.275
3041.80542	7151.475
3044.20903	7149.875
3046.61118	7170.775
3049.01187	7139.975
3051.4111	7131.775
3053.80888	7110.075
3056.20519	7125.075
3058.60005	7110.675
3060.99345	7104.375
3063.3854	7073.075
3065.7759	7068.975
3068.16494	7035.475
3070.55254	7037.475
3072.93868	7029.975
3075.32338	7028.675
3077.70662	7015.475
3080.08842	6984.475
3082.46878	6963.975
3084.84769	6992.075
3087.22515	6965.275
3089.60118	7002.075
3091.97576	6993.875
3094.3489	6997.075
3096.72061	6999.475
3099.09087	6995.675
3101.4597	6999.975
3103.82709	7011.675
3106.19305	7016.375
3108.55757	7025.275
3110.92066	7000.575
3113.28232	7012.575
3115.64255	6983.275
3118.00134	6951.075
3120.35871	6963.175
3122.71466	6923.575
3125.06917	6967.075
3127.42226	6955.575
3129.77393	6956.775
3132.12417	6942.375
3134.47299	6948.675
3136.82039	6963.775
3139.16636	6946.675
3141.51092	6940.375
3143.85406	6958.575
3146.19579	6981.775
3148.53609	6989.375
3150.87499	6990.875
3153.21246	6987.475
3155.54853	6991.875
3157.88318	6987.775
3160.21642	7027.575
3162.54826	7003.475
3164.87868	7028.275
3167.2077	7019.075
3169.5353	7041.175
3171.86151	7040.375
3174.18631	7050.175
3176.5097	7039.775
3178.83169	7026.975
3181.15228	7021.975
