Data from AgNPs_APTES_FTO_UA_50uM_CRN_0uM_R6G_10uM_Scan_RamanShift__2__11-13-23-649.txt Node

Date: Tue Jul 05 11:13:23 BST 2022
User: TCL
Spectrometer: QEP01345
Trigger mode: 4
Integration Time (sec): 7.000000E0
Scans to average: 10
Electric dark correction enabled: true
Nonlinearity correction enabled: false
Boxcar width: 0
XAxis mode: Raman Shifts
Number of Pixels in Spectrum: 1044
>>>>>Begin Spectral Data<<<<<
46.04893	-0.7125
50.45542	0.8875
54.85868	-1.1125
59.25871	1.3875
63.6555	45.5875
68.04907	46.5875
72.43941	50.5875
76.82654	55.1875
81.21044	57.4875
85.59113	63.9875
89.96862	63.3875
94.34289	65.2875
98.71396	68.3875
103.08183	74.2875
107.4465	70.1875
111.80798	73.8875
116.16626	71.3875
120.52136	69.4875
124.87327	73.9875
129.222	74.0875
133.56755	76.5875
137.90993	76.5875
142.24913	79.0875
146.58517	82.0875
150.91804	91.1875
155.24774	101.4875
159.57429	120.4875
163.89768	143.6875
168.21792	181.4875
172.53501	232.8875
176.84895	313.8875
181.15975	431.1875
185.46741	593.9875
189.77193	816.2875
194.07331	1112.5875
198.37157	1433.4875
202.6667	1806.4875
206.9587	2175.8875
211.24758	2559.0875
215.53334	2967.6875
219.81599	3393.0875
224.09553	3886.1875
228.37195	4388.9875
232.64527	4932.1875
236.91549	5504.7875
241.18261	6021.2875
245.44663	6478.6875
249.70755	6888.6875
253.96539	7207.4875
258.22014	7430.2875
262.4718	7573.2875
266.72039	7603.4875
270.96589	7498.9875
275.20832	7297.9875
279.44768	6972.4875
283.68397	6647.6875
287.91719	6301.7875
292.14735	6067.4875
296.37445	5916.2875
300.59849	5905.0875
304.81948	5957.8875
309.03742	6034.5875
313.25231	6020.9875
317.46415	5777.3875
321.67296	5315.7875
325.87872	4863.2875
330.08145	4608.3875
334.28114	4519.1875
338.47781	4549.8875
342.67145	4659.5875
346.86207	4838.5875
351.04966	5094.4875
355.23424	5369.9875
359.4158	5502.0875
363.59435	5428.4875
367.76989	5339.4875
371.94243	5208.7875
376.11196	5111.5875
380.27849	4995.2875
384.44203	4920.0875
388.60257	4822.8875
392.76012	4781.6875
396.91468	4818.2875
401.06626	4897.7875
405.21485	4955.4875
409.36047	4836.6875
413.50311	4568.7875
417.64277	4285.2875
421.77947	4148.1875
425.9132	4063.6875
430.04396	4067.7875
434.17176	4075.5875
438.2966	4118.4875
442.41849	4188.1875
446.53742	4268.3875
450.6534	4343.3875
454.76644	4368.3875
458.87653	4361.9875
462.98368	4329.1875
467.08789	4288.5875
471.18916	4237.8875
475.2875	4166.4875
479.38291	4104.7875
483.4754	4069.8875
487.56496	4042.3875
491.6516	4035.2875
495.73531	4033.4875
499.81612	4069.0875
503.89401	4125.6875
507.96899	4177.4875
512.04106	4257.6875
516.11023	4357.0875
520.1765	4423.4875
524.23987	4444.6875
528.30034	4390.7875
532.35792	4334.0875
536.41261	4267.7875
540.46441	4205.5875
544.51333	4156.6875
548.55936	4152.4875
552.60252	4217.8875
556.64279	4296.9875
560.6802	4383.8875
564.71473	4500.0875
568.7464	4742.7875
572.7752	4783.1875
576.80114	4512.1875
580.82422	4271.5875
584.84444	4168.0875
588.86181	4189.6875
592.87633	4234.7875
596.888	4374.4875
600.89682	4662.9875
604.9028	5365.7875
608.90594	7142.7875
612.90624	9435.2875
616.90371	9537.5875
620.89834	7078.2875
624.89015	5715.1875
628.87913	5353.1875
632.86528	5200.0875
636.84862	5102.9875
640.82913	4844.8875
644.80683	4499.8875
648.78172	4290.2875
652.75379	4260.9875
656.72306	4433.3875
660.68952	4697.1875
664.65319	4700.1875
668.61405	4533.3875
672.57211	4506.0875
676.52738	4653.7875
680.47986	4889.2875
684.42955	5149.7875
688.37646	5306.9875
692.32058	5277.4875
696.26192	5099.7875
700.20048	4931.4875
704.13626	4841.5875
708.06928	4780.7875
711.99952	4687.7875
715.927	4633.3875
719.85171	4579.4875
723.77365	4536.7875
727.69284	4464.4875
731.60928	4415.7875
735.52295	4382.1875
739.43388	4348.2875
743.34206	4336.9875
747.24749	4335.9875
751.15017	4333.7875
755.05012	4373.6875
758.94733	4585.1875
762.8418	5150.6875
766.73354	6109.9875
770.62254	6968.4875
774.50882	7248.4875
778.39237	6928.8875
782.27321	6179.2875
786.15132	5319.7875
790.02671	4767.0875
793.89938	4529.6875
797.76935	4440.0875
801.6366	4414.4875
805.50115	4431.9875
809.36299	4445.4875
813.22213	4462.5875
817.07857	4470.5875
820.93231	4459.2875
824.78336	4465.6875
828.63172	4471.6875
832.47738	4473.1875
836.32036	4468.0875
840.16066	4435.5875
843.99827	4437.5875
847.8332	4443.4875
851.66546	4450.0875
855.49504	4430.7875
859.32195	4447.1875
863.1462	4451.2875
866.96777	4468.2875
870.78668	4521.1875
874.60293	4570.6875
878.41652	4618.3875
882.22745	4691.2875
886.03573	4805.9875
889.84136	4923.2875
893.64433	5026.8875
897.44466	5151.2875
901.24235	5251.3875
905.0374	5344.9875
908.8298	5453.1875
912.61957	5574.3875
916.40671	5735.2875
920.19121	5898.4875
923.97308	6083.5875
927.75233	6270.5875
931.52895	6339.4875
935.30295	6261.3875
939.07433	5978.2875
942.84309	5697.7875
946.60924	5452.1875
950.37278	5237.8875
954.13371	5089.7875
957.89203	4977.4875
961.64774	4852.8875
965.40086	4743.3875
969.15137	4676.4875
972.89929	4598.9875
976.64461	4518.1875
980.38733	4473.1875
984.12747	4407.8875
987.86502	4390.0875
991.59999	4382.5875
995.33237	4372.5875
999.06217	4377.1875
1002.78939	4400.6875
1006.51404	4470.7875
1010.23611	4501.0875
1013.95561	4497.3875
1017.67255	4485.3875
1021.38692	4452.2875
1025.09872	4415.8875
1028.80796	4414.8875
1032.51465	4416.5875
1036.21877	4458.1875
1039.92035	4524.8875
1043.61937	4571.9875
1047.31584	4638.1875
1051.00976	4665.3875
1054.70114	4661.1875
1058.38998	4614.5875
1062.07627	4558.5875
1065.76003	4492.9875
1069.44126	4407.3875
1073.11995	4359.6875
1076.79611	4367.2875
1080.46974	4420.9875
1084.14085	4548.7875
1087.80943	4670.6875
1091.47549	4700.3875
1095.13903	4566.0875
1098.80005	4384.1875
1102.45857	4266.6875
1106.11456	4219.8875
1109.76805	4244.1875
1113.41903	4364.1875
1117.06751	4498.4875
1120.71348	4736.4875
1124.35696	5026.4875
1127.99793	5326.1875
1131.63641	5372.1875
1135.2724	5042.0875
1138.90589	4745.6875
1142.5369	4566.9875
1146.16542	4427.4875
1149.79145	4323.5875
1153.415	4273.6875
1157.03607	4238.6875
1160.65467	4269.1875
1164.27079	4380.2875
1167.88443	4543.3875
1171.49561	4779.2875
1175.10432	5303.4875
1178.71056	6071.3875
1182.31434	6702.4875
1185.91565	6790.8875
1189.51451	6415.4875
1193.11091	5915.3875
1196.70485	5479.1875
1200.29634	5220.6875
1203.88538	5049.6875
1207.47197	4770.1875
1211.05612	4504.0875
1214.63782	4351.3875
1218.21708	4271.5875
1221.79391	4249.9875
1225.36829	4242.0875
1228.94024	4274.5875
1232.50976	4278.3875
1236.07685	4279.1875
1239.6415	4299.7875
1243.20374	4363.6875
1246.76355	4456.9875
1250.32093	4572.7875
1253.8759	4522.4875
1257.42845	4630.8875
1260.97859	4773.9875
1264.52631	4942.2875
1268.07163	5100.5875
1271.61453	5262.7875
1275.15503	5330.6875
1278.69312	5328.9875
1282.22882	5331.3875
1285.76211	5453.7875
1289.29301	5729.8875
1292.82151	5995.7875
1296.34761	6191.0875
1299.87133	6497.7875
1303.39266	7087.7875
1306.9116	8033.2875
1310.42815	9208.5875
1313.94233	9804.9875
1317.45412	9236.5875
1320.96354	8141.6875
1324.47058	7155.8875
1327.97525	6404.3875
1331.47754	6006.0875
1334.97747	5834.1875
1338.47502	5858.0875
1341.97022	6090.0875
1345.46305	6597.3875
1348.95352	7345.7875
1352.44163	8238.3875
1355.92738	9248.4875
1359.41078	10819.0875
1362.89183	12748.4875
1366.37053	13021.6875
1369.84688	10940.0875
1373.32088	8627.0875
1376.79254	7341.2875
1380.26186	6824.2875
1383.72883	6483.6875
1387.19347	6231.3875
1390.65578	6018.9875
1394.11575	5838.1875
1397.57339	5725.7875
1401.0287	5647.2875
1404.48168	5552.4875
1407.93234	5465.3875
1411.38068	5394.8875
1414.82669	5377.7875
1418.27039	5406.4875
1421.71177	5435.4875
1425.15083	5372.9875
1428.58758	5268.0875
1432.02203	5240.9875
1435.45416	5256.3875
1438.88399	5212.8875
1442.31151	5145.2875
1445.73673	5078.1875
1449.15965	5039.8875
1452.58027	5013.2875
1455.9986	4954.4875
1459.41463	4904.7875
1462.82837	4899.1875
1466.23982	4967.5875
1469.64898	5050.5875
1473.05586	5085.4875
1476.46045	5110.8875
1479.86276	5138.3875
1483.26279	5206.4875
1486.66054	5358.2875
1490.05602	5587.8875
1493.44922	5912.4875
1496.84016	6487.8875
1500.22882	7429.5875
1503.61521	8783.9875
1506.99934	10425.0875
1510.38121	11953.7875
1513.76081	12497.0875
1517.13816	11557.8875
1520.51324	9702.2875
1523.88607	7918.7875
1527.25665	6755.9875
1530.62498	6099.2875
1533.99105	5737.4875
1537.35488	5496.3875
1540.71647	5324.9875
1544.07581	5257.2875
1547.4329	5269.1875
1550.78776	5301.1875
1554.14038	5368.4875
1557.49077	5457.5875
1560.83892	5551.3875
1564.18484	5769.1875
1567.52853	6086.4875
1570.86999	6414.2875
1574.20922	6616.4875
1577.54624	6582.3875
1580.88103	6204.8875
1584.2136	5580.1875
1587.54395	5114.5875
1590.87208	4925.8875
1594.19801	4945.5875
1597.52172	5113.3875
1600.84321	5158.2875
1604.16251	5022.3875
1607.47959	4832.6875
1610.79447	4709.6875
1614.10715	4585.9875
1617.41763	4489.9875
1620.7259	4426.9875
1624.03199	4399.1875
1627.33587	4430.1875
1630.63757	4490.9875
1633.93707	4612.7875
1637.23439	4775.5875
1640.52951	5118.9875
1643.82246	5734.1875
1647.11321	6678.7875
1650.40179	7603.7875
1653.68819	7730.5875
1656.97241	6908.1875
1660.25446	5740.3875
1663.53433	4908.8875
1666.81203	4410.2875
1670.08756	4118.4875
1673.36092	3967.9875
1676.63211	3855.5875
1679.90115	3779.1875
1683.16801	3733.6875
1686.43272	3686.9875
1689.69527	3652.1875
1692.95567	3626.1875
1696.2139	3604.6875
1699.46999	3579.2875
1702.72392	3558.3875
1705.97571	3537.4875
1709.22535	3521.7875
1712.47284	3500.1875
1715.71819	3456.4875
1718.96139	3458.9875
1722.20246	3442.3875
1725.44139	3413.0875
1728.67818	3388.2875
1731.91284	3363.0875
1735.14537	3348.7875
1738.37576	3324.5875
1741.60403	3308.2875
1744.83017	3304.7875
1748.05418	3301.1875
1751.27607	3309.0875
1754.49584	3297.6875
1757.71349	3286.9875
1760.92903	3290.3875
1764.14244	3280.9875
1767.35375	3297.3875
1770.56294	3278.2875
1773.77002	3272.4875
1776.97499	3270.5875
1780.17785	3247.3875
1783.37861	3235.3875
1786.57727	3223.7875
1789.77382	3208.7875
1792.96828	3186.7875
1796.16064	3175.9875
1799.3509	3159.1875
1802.53907	3134.1875
1805.72514	3104.8875
1808.90913	3092.5875
1812.09102	3071.2875
1815.27083	3049.5875
1818.44856	3027.6875
1821.6242	3022.0875
1824.79776	3008.1875
1827.96924	3002.6875
1831.13864	2985.2875
1834.30597	2972.8875
1837.47122	2979.5875
1840.6344	2953.5875
1843.7955	2951.2875
1846.95454	2942.0875
1850.11151	2932.4875
1853.26642	2939.4875
1856.41926	2935.0875
1859.57004	2922.0875
1862.71876	2921.5875
1865.86542	2921.7875
1869.01003	2912.6875
1872.15258	2918.9875
1875.29308	2921.5875
1878.43152	2905.8875
1881.56792	2904.8875
1884.70227	2903.1875
1887.83457	2895.1875
1890.96482	2892.7875
1894.09304	2880.7875
1897.21921	2880.4875
1900.34335	2874.6875
1903.46544	2885.5875
1906.58551	2894.9875
1909.70353	2884.4875
1912.81953	2886.8875
1915.93349	2875.4875
1919.04543	2878.5875
1922.15534	2873.0875
1925.26322	2864.3875
1928.36908	2879.8875
1931.47292	2874.4875
1934.57473	2861.5875
1937.67453	2856.7875
1940.77232	2855.1875
1943.86808	2845.4875
1946.96184	2840.6875
1950.05358	2818.9875
1953.14331	2822.5875
1956.23103	2814.8875
1959.31675	2799.3875
1962.40046	2794.1875
1965.48217	2778.3875
1968.56188	2781.0875
1971.63959	2767.6875
1974.7153	2766.3875
1977.78901	2756.0875
1980.86073	2748.8875
1983.93046	2740.7875
1986.99819	2716.2875
1990.06394	2711.7875
1993.1277	2706.2875
1996.18947	2684.0875
1999.24925	2677.6875
2002.30706	2671.2875
2005.36288	2656.5875
2008.41672	2653.0875
2011.46859	2637.5875
2014.51848	2654.0875
2017.56639	2620.8875
2020.61233	2625.5875
2023.6563	2622.3875
2026.6983	2613.1875
2029.73833	2608.3875
2032.7764	2605.2875
2035.8125	2605.2875
2038.84664	2599.6875
2041.87881	2613.0875
2044.90903	2614.5875
2047.93729	2619.4875
2050.96359	2634.1875
2053.98794	2646.3875
2057.01034	2644.6875
2060.03078	2676.4875
2063.04927	2690.5875
2066.06582	2714.5875
2069.08042	2725.7875
2072.09307	2739.6875
2075.10378	2780.1875
2078.11255	2801.6875
2081.11938	2827.9875
2084.12426	2854.4875
2087.12722	2888.5875
2090.12824	2882.0875
2093.12732	2887.0875
2096.12447	2900.2875
2099.11969	2909.8875
2102.11299	2903.4875
2105.10435	2891.4875
2108.09379	2897.7875
2111.08131	2867.5875
2114.0669	2842.1875
2117.05057	2841.9875
2120.03233	2828.3875
2123.01216	2804.2875
2125.99008	2780.9875
2128.96609	2765.6875
2131.94018	2746.5875
2134.91236	2733.9875
2137.88263	2710.7875
2140.851	2680.1875
2143.81746	2684.8875
2146.78201	2650.5875
2149.74466	2632.3875
2152.7054	2604.8875
2155.66425	2590.6875
2158.6212	2563.8875
2161.57625	2558.1875
2164.52941	2538.9875
2167.48067	2526.7875
2170.43004	2529.7875
2173.37752	2511.1875
2176.32311	2512.7875
2179.26681	2510.8875
2182.20863	2503.6875
2185.14856	2493.5875
2188.08661	2494.1875
2191.02278	2488.6875
2193.95707	2478.9875
2196.88948	2467.7875
2199.82001	2481.4875
2202.74867	2478.0875
2205.67545	2464.2875
2208.60037	2462.0875
2211.52341	2462.9875
2214.44458	2447.2875
2217.36388	2436.8875
2220.28132	2433.6875
2223.1969	2424.5875
2226.11061	2429.1875
2229.02246	2422.7875
2231.93245	2417.1875
2234.84058	2408.5875
2237.74686	2403.5875
2240.65128	2396.4875
2243.55385	2396.3875
2246.45456	2383.7875
2249.35343	2379.9875
2252.25044	2378.6875
2255.14561	2379.4875
2258.03893	2391.3875
2260.93041	2379.9875
2263.82004	2380.3875
2266.70783	2367.6875
2269.59378	2371.6875
2272.4779	2357.3875
2275.36017	2352.3875
2278.24061	2345.8875
2281.11922	2346.7875
2283.996	2336.9875
2286.87094	2325.1875
2289.74405	2324.6875
2292.61534	2322.1875
2295.4848	2300.0875
2298.35243	2311.6875
2301.21824	2306.0875
2304.08223	2298.9875
2306.94439	2307.4875
2309.80474	2302.6875
2312.66327	2299.0875
2315.51999	2304.5875
2318.37489	2291.2875
2321.22797	2300.9875
2324.07925	2284.2875
2326.92871	2280.5875
2329.77637	2295.6875
2332.62222	2278.3875
2335.46626	2273.9875
2338.3085	2274.0875
2341.14893	2266.5875
2343.98756	2267.0875
2346.8244	2256.4875
2349.65943	2257.2875
2352.49267	2260.4875
2355.32411	2257.1875
2358.15376	2260.3875
2360.98161	2275.4875
2363.80768	2267.0875
2366.63195	2279.3875
2369.45444	2271.8875
2372.27514	2277.9875
2375.09405	2278.0875
2377.91118	2261.3875
2380.72652	2261.3875
2383.54009	2244.3875
2386.35187	2231.2875
2389.16188	2228.8875
2391.97011	2223.9875
2394.77657	2207.2875
2397.58125	2194.3875
2400.38416	2199.5875
2403.18529	2189.4875
2405.98466	2188.2875
2408.78226	2185.9875
2411.57809	2177.6875
2414.37216	2177.0875
2417.16446	2163.4875
2419.955	2164.8875
2422.74378	2169.6875
2425.5308	2164.3875
2428.31606	2161.3875
2431.09956	2164.8875
2433.88131	2162.1875
2436.6613	2160.3875
2439.43954	2159.5875
2442.21603	2159.6875
2444.99077	2161.1875
2447.76377	2161.7875
2450.53501	2161.5875
2453.30451	2166.3875
2456.07226	2143.3875
2458.83827	2146.0875
2461.60254	2140.7875
2464.36507	2147.8875
2467.12586	2140.7875
2469.88492	2136.9875
2472.64224	2142.4875
2475.39782	2134.1875
2478.15167	2136.0875
2480.90379	2139.7875
2483.65417	2144.0875
2486.40283	2141.3875
2489.14976	2139.2875
2491.89497	2154.0875
2494.63845	2152.9875
2497.3802	2159.3875
2500.12024	2133.2875
2502.85855	2129.6875
2505.59514	2141.7875
2508.33002	2125.0875
2511.06318	2109.2875
2513.79462	2097.4875
2516.52435	2086.5875
2519.25237	2093.5875
2521.97867	2074.3875
2524.70327	2068.0875
2527.42616	2063.1875
2530.14734	2056.8875
2532.86681	2042.5875
2535.58458	2051.4875
2538.30065	2059.5875
2541.01501	2039.7875
2543.72768	2045.7875
2546.43864	2039.5875
2549.14791	2034.7875
2551.85548	2030.4875
2554.56136	2031.2875
2557.26554	2027.7875
2559.96803	2021.8875
2562.66883	2032.6875
2565.36794	2022.9875
2568.06536	2019.9875
2570.7611	2020.0875
2573.45514	2011.3875
2576.14751	2004.9875
2578.83819	1996.6875
2581.52719	1994.8875
2584.21451	1989.5875
2586.90015	1987.8875
2589.58411	1976.9875
2592.2664	1985.2875
2594.94701	1974.3875
2597.62594	1967.3875
2600.30321	1954.6875
2602.9788	1971.6875
2605.65273	1961.8875
2608.32498	1959.6875
2610.99557	1963.6875
2613.66449	1951.1875
2616.33175	1961.6875
2618.99734	1948.9875
2621.66128	1948.8875
2624.32355	1947.8875
2626.98416	1941.0875
2629.64311	1947.9875
2632.30041	1932.7875
2634.95605	1936.0875
2637.61004	1934.3875
2640.26238	1921.5875
2642.91306	1924.5875
2645.56209	1913.8875
2648.20948	1919.7875
2650.85521	1913.4875
2653.4993	1922.6875
2656.14175	1946.4875
2658.78255	2065.9875
2661.42171	1919.9875
2664.05923	1921.8875
2666.6951	1920.6875
2669.32934	1927.5875
2671.96194	1928.7875
2674.59291	1934.5875
2677.22224	1918.9875
2679.84993	1926.0875
2682.476	1930.8875
2685.10043	1925.2875
2687.72324	1927.8875
2690.34441	1923.4875
2692.96396	1935.6875
2695.58188	1920.4875
2698.19818	1912.5875
2700.81285	1920.2875
2703.4259	1927.2875
2706.03733	1926.0875
2708.64714	1906.2875
2711.25533	1919.0875
2713.86191	1913.5875
2716.46687	1928.6875
2719.07021	1921.2875
2721.67194	1933.1875
2724.27206	1937.2875
2726.87057	1930.9875
2729.46747	1925.7875
2732.06276	1926.0875
2734.65644	1921.8875
2737.24852	1921.3875
2739.83899	1907.4875
2742.42786	1906.0875
2745.01513	1910.9875
2747.60079	1901.4875
2750.18486	1899.5875
2752.76733	1899.2875
2755.3482	1892.6875
2757.92747	1883.2875
2760.50515	1882.6875
2763.08123	1877.4875
2765.65573	1874.4875
2768.22863	1868.0875
2770.79994	1867.6875
2773.36967	1865.3875
2775.9378	1874.9875
2778.50435	1848.1875
2781.06932	1850.2875
2783.6327	1856.2875
2786.1945	1855.4875
2788.75471	1851.9875
2791.31335	1845.2875
2793.87041	1841.6875
2796.42589	1835.2875
2798.97979	1832.9875
2801.53212	1826.2875
2804.08288	1823.7875
2806.63206	1824.8875
2809.17967	1827.1875
2811.72571	1824.2875
2814.27018	1822.2875
2816.81308	1817.0875
2819.35442	1808.5875
2821.89419	1799.3875
2824.43239	1809.5875
2826.96904	1812.0875
2829.50412	1804.4875
2832.03763	1802.4875
2834.56959	1806.3875
2837.1	1812.0875
2839.62884	1809.2875
2842.15613	1807.4875
2844.68186	1825.3875
2847.20604	1822.9875
2849.72867	1838.3875
2852.24974	1822.3875
2854.76927	1840.2875
2857.28724	1847.8875
2859.80367	1833.9875
2862.31855	1829.9875
2864.83189	1842.5875
2867.34368	1850.6875
2869.85393	1846.6875
2872.36264	1842.9875
2874.8698	1842.1875
2877.37543	1853.7875
2879.87952	1854.2875
2882.38207	1853.3875
2884.88308	1847.3875
2887.38256	1846.2875
2889.88051	1853.5875
2892.37692	1848.4875
2894.8718	1867.2875
2897.36515	1860.5875
2899.85698	1876.3875
2902.34727	1884.9875
2904.83604	1883.9875
2907.32328	1906.4875
2909.809	1914.4875
2912.29319	1921.8875
2914.77587	1932.3875
2917.25702	1944.1875
2919.73665	1943.5875
2922.21476	1946.3875
2924.69136	1956.3875
2927.16644	1966.3875
2929.64	1941.3875
2932.11205	1942.5875
2934.58258	1931.4875
2937.05161	1942.6875
2939.51912	1922.6875
2941.98513	1920.2875
2944.44962	1912.9875
2946.91261	1898.0875
2949.37409	1884.9875
2951.83407	1874.3875
2954.29254	1856.6875
2956.74951	1851.5875
2959.20498	1840.0875
2961.65895	1844.9875
2964.11142	1825.1875
2966.56239	1827.6875
2969.01186	1781.5875
2971.45984	1800.3875
2973.90632	1811.1875
2976.35131	1803.8875
2978.7948	1801.2875
2981.23681	1789.9875
2983.67732	1778.3875
2986.11635	1785.4875
2988.55388	1770.9875
2990.98993	1777.3875
2993.4245	1764.3875
2995.85758	1764.3875
2998.28917	1768.9875
3000.71928	1756.0875
3003.14791	1758.0875
3005.57506	1759.1875
3008.00073	1744.0875
3010.42493	1748.8875
3012.84764	1748.7875
3015.26888	1748.7875
3017.68865	1752.4875
3020.10694	1748.8875
3022.52376	1744.5875
3024.9391	1743.0875
3027.35298	1738.8875
3029.76539	1732.0875
3032.17632	1738.5875
3034.5858	1733.6875
3036.9938	1733.9875
3039.40034	1737.6875
3041.80542	1734.0875
3044.20903	1732.7875
3046.61118	1728.1875
3049.01187	1720.4875
3051.4111	1723.3875
3053.80888	1734.8875
3056.20519	1720.7875
3058.60005	1720.6875
3060.99345	1732.9875
3063.3854	1721.4875
3065.7759	1730.7875
3068.16494	1719.8875
3070.55254	1727.6875
3072.93868	1728.4875
3075.32338	1724.4875
3077.70662	1723.1875
3080.08842	1719.3875
3082.46878	1716.9875
3084.84769	1709.7875
3087.22515	1718.8875
3089.60118	1729.6875
3091.97576	1722.8875
3094.3489	1733.2875
3096.72061	1739.7875
3099.09087	1748.8875
3101.4597	1734.4875
3103.82709	1747.0875
3106.19305	1766.0875
3108.55757	1757.3875
3110.92066	1761.8875
3113.28232	1768.9875
3115.64255	1763.9875
3118.00134	1756.4875
3120.35871	1764.1875
3122.71466	1776.0875
3125.06917	1776.5875
