Data from AgNPs_APTES_FTO_UA_50uM_CRN_0uM_R6G_10uM_Scan_RamanShift__64__12-25-43-735.txt Node

Date: Tue Jul 05 12:25:43 BST 2022
User: TCL
Spectrometer: QEP01345
Trigger mode: 4
Integration Time (sec): 7.000000E0
Scans to average: 10
Electric dark correction enabled: true
Nonlinearity correction enabled: false
Boxcar width: 0
XAxis mode: Raman Shifts
Number of Pixels in Spectrum: 1044
>>>>>Begin Spectral Data<<<<<
46.04893	-0.025
50.45542	-0.725
54.85868	0.175
59.25871	-0.325
63.6555	50.075
68.04907	50.075
72.43941	53.775
76.82654	55.475
81.21044	60.775
85.59113	65.575
89.96862	68.875
94.34289	65.675
98.71396	70.375
103.08183	72.575
107.4465	70.475
111.80798	75.875
116.16626	76.975
120.52136	75.975
124.87327	77.975
129.222	77.075
133.56755	85.875
137.90993	84.775
142.24913	88.975
146.58517	103.975
150.91804	110.075
155.24774	124.275
159.57429	149.775
163.89768	186.775
168.21792	240.075
172.53501	318.075
176.84895	442.575
181.15975	619.975
185.46741	860.475
189.77193	1201.175
194.07331	1603.775
198.37157	2053.475
202.6667	2541.275
206.9587	3015.875
211.24758	3487.475
215.53334	3952.475
219.81599	4415.375
224.09553	4930.175
228.37195	5510.075
232.64527	6139.975
236.91549	6836.175
241.18261	7574.775
245.44663	8301.775
249.70755	8999.075
253.96539	9593.475
258.22014	10091.575
262.4718	10463.575
266.72039	10690.275
270.96589	10761.775
275.20832	10776.275
279.44768	10639.275
283.68397	10455.375
287.91719	10274.275
292.14735	10163.375
296.37445	10033.875
300.59849	9929.675
304.81948	9829.775
309.03742	9793.675
313.25231	9731.275
317.46415	9702.075
321.67296	9635.075
325.87872	9643.775
330.08145	9676.175
334.28114	9716.075
338.47781	9817.675
342.67145	9927.975
346.86207	10056.775
351.04966	10184.575
355.23424	10305.875
359.4158	10445.975
363.59435	10538.175
367.76989	10641.175
371.94243	10764.375
376.11196	10850.375
380.27849	10883.275
384.44203	10960.075
388.60257	11031.275
392.76012	11130.875
396.91468	11194.975
401.06626	11289.675
405.21485	11390.275
409.36047	11428.175
413.50311	11448.375
417.64277	11446.175
421.77947	11448.475
425.9132	11541.975
430.04396	11581.175
434.17176	11666.275
438.2966	11709.175
442.41849	11811.275
446.53742	11917.775
450.6534	12047.975
454.76644	12144.675
458.87653	12228.475
462.98368	12258.575
467.08789	12317.075
471.18916	12331.575
475.2875	12304.575
479.38291	12307.375
483.4754	12333.275
487.56496	12321.675
491.6516	12306.175
495.73531	12351.475
499.81612	12361.875
503.89401	12418.475
507.96899	12485.975
512.04106	12485.275
516.11023	12557.175
520.1765	12511.475
524.23987	12507.875
528.30034	12528.975
532.35792	12530.075
536.41261	12529.275
540.46441	12475.075
544.51333	12516.275
548.55936	12562.175
552.60252	12603.575
556.64279	12724.175
560.6802	12782.875
564.71473	12833.675
568.7464	12878.075
572.7752	12966.575
576.80114	13012.675
580.82422	13116.975
584.84444	13212.275
588.86181	13301.175
592.87633	13445.475
596.888	13515.975
600.89682	13565.175
604.9028	13677.075
608.90594	14006.575
612.90624	14340.575
616.90371	14082.875
620.89834	13504.475
624.89015	13295.775
628.87913	13274.475
632.86528	13298.475
636.84862	13321.775
640.82913	13292.175
644.80683	13207.175
648.78172	13194.875
652.75379	13203.375
656.72306	13250.175
660.68952	13383.975
664.65319	13451.475
668.61405	13462.575
672.57211	13520.175
676.52738	13583.275
680.47986	13633.575
684.42955	13672.075
688.37646	13750.975
692.32058	13775.975
696.26192	13853.075
700.20048	13850.375
704.13626	13885.175
708.06928	13877.375
711.99952	13871.775
715.927	13883.475
719.85171	13850.975
723.77365	13825.575
727.69284	13763.575
731.60928	13741.375
735.52295	13719.275
739.43388	13734.675
743.34206	13770.875
747.24749	13816.675
751.15017	13827.175
755.05012	13894.875
758.94733	13994.375
762.8418	14144.875
766.73354	14378.875
770.62254	14609.375
774.50882	14727.675
778.39237	14669.075
782.27321	14490.975
786.15132	14247.375
790.02671	14088.475
793.89938	13991.275
797.76935	13942.475
801.6366	13910.075
805.50115	13932.275
809.36299	13922.975
813.22213	13891.175
817.07857	13899.475
820.93231	13920.175
824.78336	13928.675
828.63172	13961.675
832.47738	13931.875
836.32036	13962.775
840.16066	13987.875
843.99827	14028.975
847.8332	14062.075
851.66546	14079.575
855.49504	14071.975
859.32195	14094.875
863.1462	14106.375
866.96777	14129.975
870.78668	14173.375
874.60293	14166.775
878.41652	14225.775
882.22745	14214.975
886.03573	14236.875
889.84136	14249.075
893.64433	14246.475
897.44466	14269.275
901.24235	14256.075
905.0374	14251.275
908.8298	14298.375
912.61957	14303.675
916.40671	14296.875
920.19121	14314.675
923.97308	14303.275
927.75233	14331.175
931.52895	14291.575
935.30295	14259.475
939.07433	14170.175
942.84309	14115.275
946.60924	14102.975
950.37278	14079.775
954.13371	14066.175
957.89203	14078.775
961.64774	14044.975
965.40086	13998.975
969.15137	13993.875
972.89929	13978.475
976.64461	13984.975
980.38733	13992.475
984.12747	13995.475
987.86502	13981.375
991.59999	14042.075
995.33237	14040.675
999.06217	14098.175
1002.78939	14123.975
1006.51404	14226.675
1010.23611	14271.975
1013.95561	14322.975
1017.67255	14355.575
1021.38692	14308.975
1025.09872	14268.975
1028.80796	14223.675
1032.51465	14210.475
1036.21877	14197.175
1039.92035	14242.475
1043.61937	14283.875
1047.31584	14320.075
1051.00976	14289.875
1054.70114	14338.675
1058.38998	14390.075
1062.07627	14416.075
1065.76003	14449.475
1069.44126	14470.575
1073.11995	14500.775
1076.79611	14631.175
1080.46974	14647.675
1084.14085	14646.375
1087.80943	14675.175
1091.47549	14712.475
1095.13903	14685.575
1098.80005	14681.975
1102.45857	14646.775
1106.11456	14598.375
1109.76805	14578.975
1113.41903	14523.575
1117.06751	14503.275
1120.71348	14514.675
1124.35696	14514.875
1127.99793	14560.175
1131.63641	14631.575
1135.2724	14592.775
1138.90589	14553.475
1142.5369	14570.375
1146.16542	14536.075
1149.79145	14511.175
1153.415	14479.075
1157.03607	14460.875
1160.65467	14504.575
1164.27079	14593.175
1167.88443	14681.875
1171.49561	14842.775
1175.10432	15068.075
1178.71056	15325.875
1182.31434	15572.175
1185.91565	15773.075
1189.51451	15855.175
1193.11091	15875.775
1196.70485	15783.675
1200.29634	15652.675
1203.88538	15524.075
1207.47197	15382.775
1211.05612	15278.575
1214.63782	15205.675
1218.21708	15144.175
1221.79391	15072.875
1225.36829	14992.975
1228.94024	14956.175
1232.50976	14991.875
1236.07685	14918.175
1239.6415	14910.475
1243.20374	14912.475
1246.76355	14959.775
1250.32093	14968.575
1253.8759	15050.075
1257.42845	15157.975
1260.97859	15243.375
1264.52631	15335.475
1268.07163	15425.475
1271.61453	15544.675
1275.15503	15584.175
1278.69312	15661.075
1282.22882	15693.975
1285.76211	15732.575
1289.29301	15824.675
1292.82151	15967.375
1296.34761	16099.575
1299.87133	16275.375
1303.39266	16503.175
1306.9116	16726.575
1310.42815	16986.375
1313.94233	17135.075
1317.45412	17120.675
1320.96354	17137.075
1324.47058	17031.475
1327.97525	16888.875
1331.47754	16799.175
1334.97747	16714.675
1338.47502	16745.175
1341.97022	16853.175
1345.46305	17024.875
1348.95352	17184.175
1352.44163	17215.975
1355.92738	17160.475
1359.41078	17195.375
1362.89183	17173.375
1366.37053	16986.075
1369.84688	16580.675
1373.32088	16114.275
1376.79254	15769.775
1380.26186	15514.875
1383.72883	15421.075
1387.19347	15295.475
1390.65578	15166.475
1394.11575	15062.775
1397.57339	14979.075
1401.0287	14959.175
1404.48168	14928.475
1407.93234	14896.475
1411.38068	14890.075
1414.82669	14849.575
1418.27039	14687.375
1421.71177	14600.175
1425.15083	14448.475
1428.58758	14384.175
1432.02203	14354.475
1435.45416	14359.475
1438.88399	14366.575
1442.31151	14408.175
1445.73673	14439.075
1449.15965	14446.875
1452.58027	14479.975
1455.9986	14494.375
1459.41463	14530.475
1462.82837	14604.475
1466.23982	14689.275
1469.64898	14788.175
1473.05586	14845.775
1476.46045	14879.875
1479.86276	14901.475
1483.26279	14974.475
1486.66054	14970.875
1490.05602	15013.975
1493.44922	15147.575
1496.84016	15281.475
1500.22882	15438.875
1503.61521	15646.975
1506.99934	15833.475
1510.38121	15946.575
1513.76081	15892.275
1517.13816	15785.575
1520.51324	15575.275
1523.88607	15452.475
1527.25665	15362.775
1530.62498	15286.875
1533.99105	15260.375
1537.35488	15222.675
1540.71647	15180.675
1544.07581	15154.975
1547.4329	15116.575
1550.78776	15062.875
1554.14038	15068.975
1557.49077	15075.675
1560.83892	15085.375
1564.18484	15146.475
1567.52853	15224.875
1570.86999	15207.475
1574.20922	15268.175
1577.54624	15258.775
1580.88103	15217.975
1584.2136	15156.175
1587.54395	15126.875
1590.87208	15209.875
1594.19801	15344.775
1597.52172	15523.175
1600.84321	15587.475
1604.16251	15478.575
1607.47959	15297.375
1610.79447	15007.975
1614.10715	14671.175
1617.41763	14408.775
1620.7259	14173.075
1624.03199	14039.775
1627.33587	14022.675
1630.63757	13988.275
1633.93707	14090.175
1637.23439	14311.175
1640.52951	14641.375
1643.82246	15058.975
1647.11321	15436.075
1650.40179	15566.175
1653.68819	15324.375
1656.97241	14854.275
1660.25446	14296.275
1663.53433	13883.575
1666.81203	13576.375
1670.08756	13357.475
1673.36092	13186.875
1676.63211	13081.075
1679.90115	13024.975
1683.16801	12922.975
1686.43272	12897.675
1689.69527	12855.175
1692.95567	12836.575
1696.2139	12827.775
1699.46999	12795.575
1702.72392	12746.675
1705.97571	12739.275
1709.22535	12756.475
1712.47284	12774.375
1715.71819	12744.075
1718.96139	12737.175
1722.20246	12678.775
1725.44139	12654.275
1728.67818	12628.175
1731.91284	12613.875
1735.14537	12539.675
1738.37576	12475.375
1741.60403	12429.075
1744.83017	12431.475
1748.05418	12387.975
1751.27607	12409.575
1754.49584	12392.375
1757.71349	12330.175
1760.92903	12289.475
1764.14244	12300.875
1767.35375	12317.475
1770.56294	12263.175
1773.77002	12280.475
1776.97499	12261.775
1780.17785	12266.775
1783.37861	12261.375
1786.57727	12230.075
1789.77382	12191.875
1792.96828	12160.875
1796.16064	12147.175
1799.3509	12104.175
1802.53907	12103.375
1805.72514	12050.775
1808.90913	12068.275
1812.09102	12070.375
1815.27083	12029.975
1818.44856	11982.975
1821.6242	12004.175
1824.79776	11970.975
1827.96924	11942.175
1831.13864	11916.075
1834.30597	11923.075
1837.47122	11880.475
1840.6344	11861.775
1843.7955	11889.675
1846.95454	11836.775
1850.11151	11869.075
1853.26642	11856.775
1856.41926	11862.275
1859.57004	11872.075
1862.71876	11843.875
1865.86542	11819.075
1869.01003	11835.975
1872.15258	11764.175
1875.29308	11796.375
1878.43152	11766.775
1881.56792	11740.275
1884.70227	11743.375
1887.83457	11691.775
1890.96482	11678.575
1894.09304	11667.075
1897.21921	11623.375
1900.34335	11630.675
1903.46544	11622.875
1906.58551	11576.775
1909.70353	11555.175
1912.81953	11588.575
1915.93349	11548.475
1919.04543	11525.375
1922.15534	11536.375
1925.26322	11475.775
1928.36908	11486.475
1931.47292	11449.475
1934.57473	11406.775
1937.67453	11415.175
1940.77232	11350.175
1943.86808	11325.775
1946.96184	11269.275
1950.05358	11245.675
1953.14331	11234.775
1956.23103	11194.775
1959.31675	11139.975
1962.40046	11125.075
1965.48217	11091.475
1968.56188	11045.775
1971.63959	11022.175
1974.7153	10968.075
1977.78901	10937.975
1980.86073	10926.375
1983.93046	10887.475
1986.99819	10826.375
1990.06394	10793.175
1993.1277	10782.775
1996.18947	10753.475
1999.24925	10716.975
2002.30706	10674.275
2005.36288	10624.075
2008.41672	10618.375
2011.46859	10587.275
2014.51848	10575.875
2017.56639	10517.675
2020.61233	10494.175
2023.6563	10457.775
2026.6983	10408.775
2029.73833	10384.675
2032.7764	10359.475
2035.8125	10335.975
2038.84664	10308.575
2041.87881	10271.975
2044.90903	10260.575
2047.93729	10255.575
2050.96359	10214.075
2053.98794	10190.375
2057.01034	10186.775
2060.03078	10194.675
2063.04927	10206.675
2066.06582	10175.075
2069.08042	10127.275
2072.09307	10131.775
2075.10378	10133.575
2078.11255	10156.175
2081.11938	10131.175
2084.12426	10146.675
2087.12722	10132.675
2090.12824	10098.975
2093.12732	10098.475
2096.12447	10076.075
2099.11969	10067.575
2102.11299	10102.875
2105.10435	10090.475
2108.09379	10081.875
2111.08131	10104.675
2114.0669	10114.375
2117.05057	10118.275
2120.03233	10123.175
2123.01216	10120.875
2125.99008	10113.175
2128.96609	10132.475
2131.94018	10150.375
2134.91236	10155.975
2137.88263	10188.075
2140.851	10178.575
2143.81746	10185.175
2146.78201	10181.375
2149.74466	10159.475
2152.7054	10135.775
2155.66425	10142.975
2158.6212	10145.175
2161.57625	10145.275
2164.52941	10118.475
2167.48067	10114.475
2170.43004	10121.375
2173.37752	10124.575
2176.32311	10093.975
2179.26681	10109.275
2182.20863	10097.575
2185.14856	10087.975
2188.08661	10077.875
2191.02278	10074.175
2193.95707	10054.675
2196.88948	10065.975
2199.82001	10077.875
2202.74867	10028.175
2205.67545	10004.875
2208.60037	9988.275
2211.52341	9963.275
2214.44458	9931.475
2217.36388	9918.375
2220.28132	9893.975
2223.1969	9886.175
2226.11061	9863.175
2229.02246	9846.875
2231.93245	9811.675
2234.84058	9830.275
2237.74686	9791.175
2240.65128	9794.075
2243.55385	9784.075
2246.45456	9735.575
2249.35343	9711.875
2252.25044	9695.675
2255.14561	9702.075
2258.03893	9673.875
2260.93041	9667.275
2263.82004	9617.775
2266.70783	9599.075
2269.59378	9558.475
2272.4779	9540.075
2275.36017	9529.675
2278.24061	9487.475
2281.11922	9481.575
2283.996	9467.075
2286.87094	9424.075
2289.74405	9412.275
2292.61534	9415.375
2295.4848	9366.075
2298.35243	9370.675
2301.21824	9369.475
2304.08223	9374.575
2306.94439	9340.875
2309.80474	9334.775
2312.66327	9335.675
2315.51999	9318.575
2318.37489	9292.475
2321.22797	9295.475
2324.07925	9241.175
2326.92871	9246.775
2329.77637	9244.275
2332.62222	9214.275
2335.46626	9174.075
2338.3085	9163.975
2341.14893	9144.075
2343.98756	9141.475
2346.8244	9102.375
2349.65943	9104.975
2352.49267	9083.775
2355.32411	9075.475
2358.15376	9070.975
2360.98161	9090.175
2363.80768	9066.475
2366.63195	9083.375
2369.45444	9059.775
2372.27514	9043.975
2375.09405	9034.175
2377.91118	9018.875
2380.72652	8989.675
2383.54009	8958.375
2386.35187	8932.775
2389.16188	8913.575
2391.97011	8894.075
2394.77657	8846.375
2397.58125	8816.475
2400.38416	8819.075
2403.18529	8815.975
2405.98466	8797.975
2408.78226	8763.675
2411.57809	8759.775
2414.37216	8741.775
2417.16446	8744.075
2419.955	8745.475
2422.74378	8751.275
2425.5308	8740.775
2428.31606	8708.175
2431.09956	8710.275
2433.88131	8673.875
2436.6613	8651.975
2439.43954	8661.575
2442.21603	8641.075
2444.99077	8624.475
2447.76377	8622.875
2450.53501	8619.375
2453.30451	8600.075
2456.07226	8546.475
2458.83827	8543.275
2461.60254	8567.775
2464.36507	8542.575
2467.12586	8533.175
2469.88492	8491.775
2472.64224	8485.575
2475.39782	8497.075
2478.15167	8485.275
2480.90379	8482.275
2483.65417	8480.675
2486.40283	8477.375
2489.14976	8475.075
2491.89497	8432.475
2494.63845	8427.275
2497.3802	8430.375
2500.12024	8412.175
2502.85855	8375.375
2505.59514	8391.675
2508.33002	8400.175
2511.06318	8372.175
2513.79462	8355.175
2516.52435	8328.875
2519.25237	8307.675
2521.97867	8313.775
2524.70327	8307.675
2527.42616	8292.575
2530.14734	8262.375
2532.86681	8234.875
2535.58458	8217.875
2538.30065	8230.075
2541.01501	8218.375
2543.72768	8194.975
2546.43864	8161.875
2549.14791	8128.175
2551.85548	8103.475
2554.56136	8130.775
2557.26554	8086.475
2559.96803	8085.475
2562.66883	8048.075
2565.36794	8047.475
2568.06536	8021.975
2570.7611	8002.275
2573.45514	7989.175
2576.14751	7971.775
2578.83819	7958.275
2581.52719	7937.475
2584.21451	7935.675
2586.90015	7909.675
2589.58411	7878.675
2592.2664	7866.475
2594.94701	7850.275
2597.62594	7818.575
2600.30321	7815.375
2602.9788	7795.675
2605.65273	7773.775
2608.32498	7777.975
2610.99557	7751.775
2613.66449	7743.275
2616.33175	7736.475
2618.99734	7724.475
2621.66128	7714.775
2624.32355	7700.975
2626.98416	7691.475
2629.64311	7659.575
2632.30041	7651.475
2634.95605	7664.275
2637.61004	7657.275
2640.26238	7611.275
2642.91306	7608.575
2645.56209	7598.575
2648.20948	7593.475
2650.85521	7565.875
2653.4993	7572.375
2656.14175	7567.275
2658.78255	7569.475
2661.42171	7566.975
2664.05923	7567.875
2666.6951	7549.675
2669.32934	7556.875
2671.96194	7515.275
2674.59291	7526.475
2677.22224	7520.075
2679.84993	7542.975
2682.476	7521.675
2685.10043	7535.075
2687.72324	7507.775
2690.34441	7499.875
2692.96396	7504.375
2695.58188	7491.175
2698.19818	7472.575
2700.81285	7481.375
2703.4259	7461.575
2706.03733	7466.875
2708.64714	7452.775
2711.25533	7454.675
2713.86191	7447.175
2716.46687	7446.875
2719.07021	7460.075
2721.67194	7467.475
2724.27206	7460.275
2726.87057	7464.575
2729.46747	7421.375
2732.06276	7457.675
2734.65644	7427.375
2737.24852	7413.975
2739.83899	7423.575
2742.42786	7415.575
2745.01513	7390.875
2747.60079	7376.675
2750.18486	7372.975
2752.76733	7371.775
2755.3482	7351.175
2757.92747	7330.675
2760.50515	7328.375
2763.08123	7310.375
2765.65573	7297.575
2768.22863	7275.375
2770.79994	7249.775
2773.36967	7232.975
2775.9378	7232.075
2778.50435	7212.575
2781.06932	7201.075
2783.6327	7199.975
2786.1945	7202.175
2788.75471	7171.775
2791.31335	7161.075
2793.87041	7127.475
2796.42589	7115.275
2798.97979	7122.275
2801.53212	7087.675
2804.08288	7069.775
2806.63206	7033.375
2809.17967	7000.275
2811.72571	7003.675
2814.27018	6990.675
2816.81308	6957.275
2819.35442	6949.175
2821.89419	6921.175
2824.43239	6914.875
2826.96904	6891.575
2829.50412	6898.575
2832.03763	6888.775
2834.56959	6883.375
2837.1	6867.575
2839.62884	6842.375
2842.15613	6829.475
2844.68186	6831.575
2847.20604	6822.875
2849.72867	6819.575
2852.24974	6806.175
2854.76927	6794.275
2857.28724	6766.175
2859.80367	6762.275
2862.31855	6744.075
2864.83189	6758.775
2867.34368	6720.275
2869.85393	6733.775
2872.36264	6711.575
2874.8698	6721.775
2877.37543	6716.175
2879.87952	6708.675
2882.38207	6709.275
2884.88308	6684.875
2887.38256	6685.975
2889.88051	6666.975
2892.37692	6662.875
2894.8718	6655.575
2897.36515	6664.375
2899.85698	6656.275
2902.34727	6647.575
2904.83604	6639.275
2907.32328	6653.375
2909.809	6648.375
2912.29319	6669.975
2914.77587	6648.275
2917.25702	6656.275
2919.73665	6636.175
2922.21476	6627.275
2924.69136	6627.575
2927.16644	6618.175
2929.64	6594.775
2932.11205	6600.375
2934.58258	6572.575
2937.05161	6596.975
2939.51912	6584.375
2941.98513	6591.475
2944.44962	6579.975
2946.91261	6567.275
2949.37409	6554.675
2951.83407	6570.175
2954.29254	6545.675
2956.74951	6520.775
2959.20498	6544.675
2961.65895	6539.475
2964.11142	6537.975
2966.56239	6523.875
2969.01186	6513.275
2971.45984	6519.075
2973.90632	6547.875
2976.35131	6523.875
2978.7948	6485.875
2981.23681	6489.875
2983.67732	6482.675
2986.11635	6476.275
2988.55388	6445.675
2990.98993	6466.675
2993.4245	6429.675
2995.85758	6430.875
2998.28917	6398.875
3000.71928	6393.775
3003.14791	6366.275
3005.57506	6361.075
3008.00073	6357.275
3010.42493	6349.475
3012.84764	6335.675
3015.26888	6319.175
3017.68865	6294.075
3020.10694	6294.275
3022.52376	6286.275
3024.9391	6309.275
3027.35298	6274.775
3029.76539	6275.275
3032.17632	6287.875
3034.5858	6266.675
3036.9938	6254.175
3039.40034	6240.075
3041.80542	6231.775
3044.20903	6226.975
3046.61118	6242.575
3049.01187	6202.275
3051.4111	6198.175
3053.80888	6180.475
3056.20519	6196.075
3058.60005	6166.375
3060.99345	6170.675
3063.3854	6161.375
3065.7759	6131.475
3068.16494	6104.475
3070.55254	6094.875
3072.93868	6088.875
3075.32338	6079.475
3077.70662	6078.375
3080.08842	6061.975
3082.46878	6036.375
3084.84769	6042.675
3087.22515	6038.375
3089.60118	6046.975
3091.97576	6062.675
3094.3489	6060.475
3096.72061	6038.175
3099.09087	6038.875
3101.4597	6039.775
3103.82709	6067.175
3106.19305	6057.875
3108.55757	6056.875
3110.92066	6056.875
3113.28232	6053.975
3115.64255	6021.375
3118.00134	6014.575
3120.35871	5989.975
3122.71466	5989.875
3125.06917	5999.475
3127.42226	5976.675
3129.77393	6000.475
3132.12417	5983.675
3134.47299	5989.475
3136.82039	5974.675
3139.16636	5983.675
3141.51092	5970.175
3143.85406	5984.275
3146.19579	6002.075
3148.53609	6001.375
3150.87499	6010.375
3153.21246	6008.675
3155.54853	6001.875
3157.88318	5971.675
3160.21642	6019.875
3162.54826	6013.475
3164.87868	6005.375
3167.2077	6009.975
3169.5353	6032.175
3171.86151	6029.675
3174.18631	6033.475
