Data from AgNPs_APTES_FTO_UA_50uM_CRN_0uM_R6G_10uM_Scan_RamanShift__74__12-37-23-749.txt Node

Date: Tue Jul 05 12:37:23 BST 2022
User: TCL
Spectrometer: QEP01345
Trigger mode: 4
Integration Time (sec): 7.000000E0
Scans to average: 10
Electric dark correction enabled: true
Nonlinearity correction enabled: false
Boxcar width: 0
XAxis mode: Raman Shifts
Number of Pixels in Spectrum: 1044
>>>>>Begin Spectral Data<<<<<
46.04893	-0.9125
50.45542	-0.4125
54.85868	-1.2125
59.25871	0.0875
63.6555	39.7875
68.04907	42.2875
72.43941	43.8875
76.82654	48.1875
81.21044	50.3875
85.59113	54.2875
89.96862	54.5875
94.34289	52.5875
98.71396	59.4875
103.08183	60.2875
107.4465	59.0875
111.80798	63.3875
116.16626	63.4875
120.52136	62.1875
124.87327	66.9875
129.222	66.8875
133.56755	65.2875
137.90993	71.8875
142.24913	71.8875
146.58517	81.7875
150.91804	90.1875
155.24774	101.6875
159.57429	118.3875
163.89768	150.2875
168.21792	191.7875
172.53501	255.1875
176.84895	358.4875
181.15975	504.0875
185.46741	703.5875
189.77193	959.5875
194.07331	1295.4875
198.37157	1663.6875
202.6667	2065.8875
206.9587	2439.3875
211.24758	2810.3875
215.53334	3181.6875
219.81599	3565.2875
224.09553	3990.6875
228.37195	4421.3875
232.64527	4938.9875
236.91549	5495.6875
241.18261	6069.1875
245.44663	6661.3875
249.70755	7222.8875
253.96539	7732.0875
258.22014	8149.7875
262.4718	8483.6875
266.72039	8694.4875
270.96589	8776.5875
275.20832	8786.5875
279.44768	8695.3875
283.68397	8578.7875
287.91719	8459.5875
292.14735	8335.1875
296.37445	8236.3875
300.59849	8165.8875
304.81948	8098.8875
309.03742	8059.3875
313.25231	8025.9875
317.46415	8011.8875
321.67296	8008.3875
325.87872	8007.9875
330.08145	8068.1875
334.28114	8119.8875
338.47781	8232.6875
342.67145	8330.0875
346.86207	8456.3875
351.04966	8553.4875
355.23424	8662.5875
359.4158	8795.7875
363.59435	8869.2875
367.76989	9047.1875
371.94243	9136.3875
376.11196	9223.5875
380.27849	9336.3875
384.44203	9430.6875
388.60257	9514.1875
392.76012	9592.9875
396.91468	9667.0875
401.06626	9749.2875
405.21485	9839.3875
409.36047	9878.0875
413.50311	9912.6875
417.64277	9922.1875
421.77947	9952.6875
425.9132	10012.4875
430.04396	10092.2875
434.17176	10147.4875
438.2966	10236.5875
442.41849	10323.1875
446.53742	10419.4875
450.6534	10528.6875
454.76644	10616.5875
458.87653	10697.8875
462.98368	10783.7875
467.08789	10820.4875
471.18916	10833.5875
475.2875	10845.1875
479.38291	10856.1875
483.4754	10874.1875
487.56496	10899.5875
491.6516	10908.1875
495.73531	10918.3875
499.81612	10946.2875
503.89401	11009.1875
507.96899	11056.9875
512.04106	11113.3875
516.11023	11153.7875
520.1765	11175.9875
524.23987	11218.0875
528.30034	11247.4875
532.35792	11330.1875
536.41261	11295.6875
540.46441	11300.5875
544.51333	11341.3875
548.55936	11377.7875
552.60252	11423.7875
556.64279	11498.6875
560.6802	11585.8875
564.71473	11641.3875
568.7464	11647.9875
572.7752	11643.2875
576.80114	11640.1875
580.82422	11673.0875
584.84444	11710.2875
588.86181	11753.6875
592.87633	11815.5875
596.888	11903.6875
600.89682	11958.3875
604.9028	12122.8875
608.90594	12413.0875
612.90624	12685.7875
616.90371	12562.2875
620.89834	12207.8875
624.89015	12089.2875
628.87913	12075.7875
632.86528	12144.7875
636.84862	12215.2875
640.82913	12209.3875
644.80683	12166.4875
648.78172	12156.2875
652.75379	12217.9875
656.72306	12275.7875
660.68952	12353.8875
664.65319	12406.7875
668.61405	12455.0875
672.57211	12508.1875
676.52738	12579.4875
680.47986	12603.2875
684.42955	12676.6875
688.37646	12730.2875
692.32058	12832.1875
696.26192	12862.5875
700.20048	12908.1875
704.13626	12931.7875
708.06928	12953.5875
711.99952	12976.7875
715.927	12985.6875
719.85171	12990.2875
723.77365	12985.6875
727.69284	12927.0875
731.60928	12918.1875
735.52295	12908.9875
739.43388	12930.5875
743.34206	12934.0875
747.24749	13005.0875
751.15017	13011.4875
755.05012	13032.5875
758.94733	13095.0875
762.8418	13141.1875
766.73354	13279.2875
770.62254	13525.5875
774.50882	13608.1875
778.39237	13635.8875
782.27321	13548.6875
786.15132	13433.5875
790.02671	13323.5875
793.89938	13247.9875
797.76935	13219.1875
801.6366	13245.2875
805.50115	13220.0875
809.36299	13233.8875
813.22213	13234.9875
817.07857	13234.1875
820.93231	13270.1875
824.78336	13301.3875
828.63172	13345.5875
832.47738	13344.2875
836.32036	13343.2875
840.16066	13409.6875
843.99827	13425.6875
847.8332	13445.7875
851.66546	13508.3875
855.49504	13499.2875
859.32195	13485.1875
863.1462	13543.8875
866.96777	13531.0875
870.78668	13592.9875
874.60293	13620.6875
878.41652	13696.5875
882.22745	13687.9875
886.03573	13712.2875
889.84136	13717.0875
893.64433	13730.3875
897.44466	13774.8875
901.24235	13809.7875
905.0374	13844.1875
908.8298	13859.1875
912.61957	13889.2875
916.40671	13888.5875
920.19121	13887.0875
923.97308	13878.7875
927.75233	13859.5875
931.52895	13864.9875
935.30295	13836.8875
939.07433	13790.0875
942.84309	13754.8875
946.60924	13753.9875
950.37278	13757.1875
954.13371	13734.4875
957.89203	13726.0875
961.64774	13703.5875
965.40086	13668.0875
969.15137	13671.2875
972.89929	13654.2875
976.64461	13668.1875
980.38733	13678.0875
984.12747	13664.8875
987.86502	13670.5875
991.59999	13714.2875
995.33237	13746.4875
999.06217	13799.9875
1002.78939	13845.6875
1006.51404	13880.4875
1010.23611	13927.4875
1013.95561	13997.3875
1017.67255	14045.8875
1021.38692	14018.1875
1025.09872	14003.1875
1028.80796	13967.4875
1032.51465	13925.2875
1036.21877	13949.9875
1039.92035	13997.5875
1043.61937	13998.2875
1047.31584	14004.9875
1051.00976	14022.7875
1054.70114	14056.0875
1058.38998	14089.7875
1062.07627	14127.9875
1065.76003	14162.7875
1069.44126	14152.9875
1073.11995	14209.3875
1076.79611	14332.9875
1080.46974	14376.4875
1084.14085	14337.2875
1087.80943	14336.8875
1091.47549	14366.4875
1095.13903	14363.9875
1098.80005	14392.7875
1102.45857	14388.9875
1106.11456	14405.3875
1109.76805	14329.9875
1113.41903	14281.5875
1117.06751	14250.8875
1120.71348	14252.4875
1124.35696	14253.3875
1127.99793	14249.5875
1131.63641	14274.7875
1135.2724	14267.5875
1138.90589	14242.8875
1142.5369	14248.8875
1146.16542	14199.0875
1149.79145	14177.5875
1153.415	14128.5875
1157.03607	14086.7875
1160.65467	14105.9875
1164.27079	14123.4875
1167.88443	14202.9875
1171.49561	14270.6875
1175.10432	14381.9875
1178.71056	14533.7875
1182.31434	14692.5875
1185.91565	14811.8875
1189.51451	14933.4875
1193.11091	14986.5875
1196.70485	14995.2875
1200.29634	14928.0875
1203.88538	14878.2875
1207.47197	14786.8875
1211.05612	14669.6875
1214.63782	14623.6875
1218.21708	14581.0875
1221.79391	14469.7875
1225.36829	14428.1875
1228.94024	14408.9875
1232.50976	14383.0875
1236.07685	14365.8875
1239.6415	14371.0875
1243.20374	14394.5875
1246.76355	14464.8875
1250.32093	14493.5875
1253.8759	14544.4875
1257.42845	14637.9875
1260.97859	14708.1875
1264.52631	14705.7875
1268.07163	14802.6875
1271.61453	14840.4875
1275.15503	14851.3875
1278.69312	14864.9875
1282.22882	14828.6875
1285.76211	14815.9875
1289.29301	14825.0875
1292.82151	14825.1875
1296.34761	14906.9875
1299.87133	14960.0875
1303.39266	15057.1875
1306.9116	15206.7875
1310.42815	15351.9875
1313.94233	15480.1875
1317.45412	15548.2875
1320.96354	15526.8875
1324.47058	15478.8875
1327.97525	15317.5875
1331.47754	15203.7875
1334.97747	15131.6875
1338.47502	15176.5875
1341.97022	15299.0875
1345.46305	15490.6875
1348.95352	15719.8875
1352.44163	15748.4875
1355.92738	15735.2875
1359.41078	15703.5875
1362.89183	15639.7875
1366.37053	15486.1875
1369.84688	15206.8875
1373.32088	14903.2875
1376.79254	14652.4875
1380.26186	14491.8875
1383.72883	14378.7875
1387.19347	14272.2875
1390.65578	14150.4875
1394.11575	14102.2875
1397.57339	13983.6875
1401.0287	13964.0875
1404.48168	13937.3875
1407.93234	13920.2875
1411.38068	13898.0875
1414.82669	13908.3875
1418.27039	13887.6875
1421.71177	13817.5875
1425.15083	13798.9875
1428.58758	13753.6875
1432.02203	13715.1875
1435.45416	13678.6875
1438.88399	13670.5875
1442.31151	13684.7875
1445.73673	13691.8875
1449.15965	13642.8875
1452.58027	13646.0875
1455.9986	13651.8875
1459.41463	13647.0875
1462.82837	13716.7875
1466.23982	13792.7875
1469.64898	13870.2875
1473.05586	13904.1875
1476.46045	13937.2875
1479.86276	13956.7875
1483.26279	13968.5875
1486.66054	14008.7875
1490.05602	14017.9875
1493.44922	14136.2875
1496.84016	14235.5875
1500.22882	14377.7875
1503.61521	14561.9875
1506.99934	14693.5875
1510.38121	14742.8875
1513.76081	14727.1875
1517.13816	14621.9875
1520.51324	14469.0875
1523.88607	14389.1875
1527.25665	14269.6875
1530.62498	14249.1875
1533.99105	14198.7875
1537.35488	14203.5875
1540.71647	14212.0875
1544.07581	14246.5875
1547.4329	14237.6875
1550.78776	14220.4875
1554.14038	14218.1875
1557.49077	14227.7875
1560.83892	14220.6875
1564.18484	14243.0875
1567.52853	14258.9875
1570.86999	14288.7875
1574.20922	14310.7875
1577.54624	14272.2875
1580.88103	14242.8875
1584.2136	14191.2875
1587.54395	14150.2875
1590.87208	14181.1875
1594.19801	14232.1875
1597.52172	14382.4875
1600.84321	14459.7875
1604.16251	14435.8875
1607.47959	14390.3875
1610.79447	14276.1875
1614.10715	14067.3875
1617.41763	13849.5875
1620.7259	13693.9875
1624.03199	13588.4875
1627.33587	13542.6875
1630.63757	13570.7875
1633.93707	13585.6875
1637.23439	13659.8875
1640.52951	13794.2875
1643.82246	13987.8875
1647.11321	14164.0875
1650.40179	14206.9875
1653.68819	14087.6875
1656.97241	13849.8875
1660.25446	13577.9875
1663.53433	13396.2875
1666.81203	13278.2875
1670.08756	13189.0875
1673.36092	13137.6875
1676.63211	13045.2875
1679.90115	13010.3875
1683.16801	12959.7875
1686.43272	12950.9875
1689.69527	12948.7875
1692.95567	12905.1875
1696.2139	12855.9875
1699.46999	12881.8875
1702.72392	12851.7875
1705.97571	12879.8875
1709.22535	12882.2875
1712.47284	12904.0875
1715.71819	12900.5875
1718.96139	12912.7875
1722.20246	12903.8875
1725.44139	12822.3875
1728.67818	12830.7875
1731.91284	12802.7875
1735.14537	12739.3875
1738.37576	12693.5875
1741.60403	12671.3875
1744.83017	12657.9875
1748.05418	12636.2875
1751.27607	12624.9875
1754.49584	12586.9875
1757.71349	12554.3875
1760.92903	12519.1875
1764.14244	12529.8875
1767.35375	12529.3875
1770.56294	12474.7875
1773.77002	12503.4875
1776.97499	12493.2875
1780.17785	12509.2875
1783.37861	12505.6875
1786.57727	12483.7875
1789.77382	12443.5875
1792.96828	12436.5875
1796.16064	12407.6875
1799.3509	12398.7875
1802.53907	12372.0875
1805.72514	12378.0875
1808.90913	12345.0875
1812.09102	12317.3875
1815.27083	12290.1875
1818.44856	12305.9875
1821.6242	12271.5875
1824.79776	12247.9875
1827.96924	12237.3875
1831.13864	12211.4875
1834.30597	12192.1875
1837.47122	12188.4875
1840.6344	12201.2875
1843.7955	12153.3875
1846.95454	12133.8875
1850.11151	12131.0875
1853.26642	12150.7875
1856.41926	12177.0875
1859.57004	12155.7875
1862.71876	12112.5875
1865.86542	12137.0875
1869.01003	12119.2875
1872.15258	12099.5875
1875.29308	12065.0875
1878.43152	12074.2875
1881.56792	12031.5875
1884.70227	12028.7875
1887.83457	11993.8875
1890.96482	11984.2875
1894.09304	11968.6875
1897.21921	11939.8875
1900.34335	11928.4875
1903.46544	11924.2875
1906.58551	11887.1875
1909.70353	11898.1875
1912.81953	11879.2875
1915.93349	11867.0875
1919.04543	11869.6875
1922.15534	11816.3875
1925.26322	11800.1875
1928.36908	11816.3875
1931.47292	11770.2875
1934.57473	11740.3875
1937.67453	11717.7875
1940.77232	11703.2875
1943.86808	11667.3875
1946.96184	11616.9875
1950.05358	11616.4875
1953.14331	11587.6875
1956.23103	11523.9875
1959.31675	11494.7875
1962.40046	11463.6875
1965.48217	11414.2875
1968.56188	11400.8875
1971.63959	11350.7875
1974.7153	11320.8875
1977.78901	11266.3875
1980.86073	11243.9875
1983.93046	11213.7875
1986.99819	11181.6875
1990.06394	11138.3875
1993.1277	11120.8875
1996.18947	11079.2875
1999.24925	11059.4875
2002.30706	11004.5875
2005.36288	10957.9875
2008.41672	10976.4875
2011.46859	10937.0875
2014.51848	10903.1875
2017.56639	10838.7875
2020.61233	10857.7875
2023.6563	10786.9875
2026.6983	10765.8875
2029.73833	10713.2875
2032.7764	10711.0875
2035.8125	10666.4875
2038.84664	10626.1875
2041.87881	10627.0875
2044.90903	10608.0875
2047.93729	10608.2875
2050.96359	10576.2875
2053.98794	10543.4875
2057.01034	10518.0875
2060.03078	10524.4875
2063.04927	10545.8875
2066.06582	10499.5875
2069.08042	10494.5875
2072.09307	10450.8875
2075.10378	10466.5875
2078.11255	10453.5875
2081.11938	10467.2875
2084.12426	10484.0875
2087.12722	10444.7875
2090.12824	10447.7875
2093.12732	10413.2875
2096.12447	10447.1875
2099.11969	10439.1875
2102.11299	10410.7875
2105.10435	10437.3875
2108.09379	10438.1875
2111.08131	10445.3875
2114.0669	10478.6875
2117.05057	10472.5875
2120.03233	10457.2875
2123.01216	10494.5875
2125.99008	10454.9875
2128.96609	10498.1875
2131.94018	10481.0875
2134.91236	10502.8875
2137.88263	10524.8875
2140.851	10526.4875
2143.81746	10525.7875
2146.78201	10476.2875
2149.74466	10495.0875
2152.7054	10470.8875
2155.66425	10491.7875
2158.6212	10492.3875
2161.57625	10451.1875
2164.52941	10479.5875
2167.48067	10438.1875
2170.43004	10482.2875
2173.37752	10462.4875
2176.32311	10471.7875
2179.26681	10467.2875
2182.20863	10477.9875
2185.14856	10466.9875
2188.08661	10437.5875
2191.02278	10417.1875
2193.95707	10400.0875
2196.88948	10402.9875
2199.82001	10430.3875
2202.74867	10413.4875
2205.67545	10384.0875
2208.60037	10356.1875
2211.52341	10319.5875
2214.44458	10302.4875
2217.36388	10298.2875
2220.28132	10283.0875
2223.1969	10240.8875
2226.11061	10247.2875
2229.02246	10200.0875
2231.93245	10173.5875
2234.84058	10168.5875
2237.74686	10176.3875
2240.65128	10150.2875
2243.55385	10107.1875
2246.45456	10107.2875
2249.35343	10072.2875
2252.25044	10064.6875
2255.14561	10055.2875
2258.03893	10050.1875
2260.93041	10037.7875
2263.82004	9988.1875
2266.70783	9968.8875
2269.59378	9930.3875
2272.4779	9915.3875
2275.36017	9907.6875
2278.24061	9851.1875
2281.11922	9832.2875
2283.996	9809.6875
2286.87094	9787.9875
2289.74405	9757.3875
2292.61534	9773.2875
2295.4848	9737.2875
2298.35243	9738.5875
2301.21824	9755.0875
2304.08223	9751.7875
2306.94439	9697.4875
2309.80474	9701.0875
2312.66327	9695.5875
2315.51999	9703.9875
2318.37489	9664.9875
2321.22797	9645.8875
2324.07925	9626.8875
2326.92871	9581.6875
2329.77637	9591.3875
2332.62222	9580.7875
2335.46626	9549.2875
2338.3085	9543.8875
2341.14893	9522.3875
2343.98756	9503.5875
2346.8244	9461.0875
2349.65943	9466.3875
2352.49267	9435.3875
2355.32411	9431.0875
2358.15376	9434.9875
2360.98161	9445.1875
2363.80768	9445.7875
2366.63195	9437.2875
2369.45444	9413.1875
2372.27514	9409.2875
2375.09405	9386.8875
2377.91118	9358.9875
2380.72652	9342.7875
2383.54009	9311.4875
2386.35187	9277.7875
2389.16188	9256.5875
2391.97011	9257.3875
2394.77657	9227.2875
2397.58125	9189.9875
2400.38416	9178.6875
2403.18529	9148.0875
2405.98466	9165.1875
2408.78226	9135.6875
2411.57809	9130.0875
2414.37216	9101.3875
2417.16446	9091.8875
2419.955	9072.3875
2422.74378	9073.8875
2425.5308	9081.5875
2428.31606	9085.9875
2431.09956	9044.1875
2433.88131	9032.2875
2436.6613	9044.2875
2439.43954	9026.6875
2442.21603	8978.0875
2444.99077	8998.9875
2447.76377	8980.2875
2450.53501	8948.9875
2453.30451	8942.8875
2456.07226	8917.1875
2458.83827	8912.5875
2461.60254	8914.8875
2464.36507	8903.0875
2467.12586	8867.8875
2469.88492	8867.6875
2472.64224	8828.4875
2475.39782	8841.0875
2478.15167	8840.6875
2480.90379	8829.4875
2483.65417	8831.1875
2486.40283	8800.0875
2489.14976	8795.4875
2491.89497	8768.6875
2494.63845	8741.5875
2497.3802	8752.8875
2500.12024	8743.6875
2502.85855	8731.9875
2505.59514	8727.3875
2508.33002	8727.8875
2511.06318	8683.5875
2513.79462	8664.2875
2516.52435	8649.0875
2519.25237	8650.6875
2521.97867	8633.8875
2524.70327	8646.7875
2527.42616	8613.7875
2530.14734	8595.8875
2532.86681	8575.4875
2535.58458	8563.8875
2538.30065	8554.0875
2541.01501	8527.9875
2543.72768	8516.6875
2546.43864	8490.0875
2549.14791	8435.7875
2551.85548	8453.7875
2554.56136	8456.3875
2557.26554	8446.8875
2559.96803	8403.1875
2562.66883	8374.8875
2565.36794	8366.7875
2568.06536	8356.8875
2570.7611	8317.5875
2573.45514	8305.7875
2576.14751	8293.9875
2578.83819	8271.9875
2581.52719	8245.4875
2584.21451	8223.2875
2586.90015	8226.7875
2589.58411	8211.2875
2592.2664	8176.4875
2594.94701	8177.5875
2597.62594	8130.3875
2600.30321	8094.1875
2602.9788	8098.2875
2605.65273	8085.9875
2608.32498	8068.9875
2610.99557	8057.6875
2613.66449	8050.7875
2616.33175	8058.0875
2618.99734	8036.1875
2621.66128	7992.6875
2624.32355	8003.6875
2626.98416	7984.7875
2629.64311	7972.9875
2632.30041	7947.1875
2634.95605	7929.4875
2637.61004	7906.3875
2640.26238	7926.7875
2642.91306	7885.7875
2645.56209	7870.7875
2648.20948	7875.0875
2650.85521	7879.8875
2653.4993	7865.5875
2656.14175	7869.8875
2658.78255	7830.0875
2661.42171	7850.9875
2664.05923	7834.6875
2666.6951	7829.4875
2669.32934	7846.1875
2671.96194	7790.3875
2674.59291	7827.0875
2677.22224	7825.7875
2679.84993	7802.4875
2682.476	7782.5875
2685.10043	7798.4875
2687.72324	7789.2875
2690.34441	7785.1875
2692.96396	7764.4875
2695.58188	7754.7875
2698.19818	7764.4875
2700.81285	7767.2875
2703.4259	7733.0875
2706.03733	7710.2875
2708.64714	7709.5875
2711.25533	7726.6875
2713.86191	7719.7875
2716.46687	7721.4875
2719.07021	7745.1875
2721.67194	7750.3875
2724.27206	7726.7875
2726.87057	7706.1875
2729.46747	7740.1875
2732.06276	7733.7875
2734.65644	7722.8875
2737.24852	7700.8875
2739.83899	7677.8875
2742.42786	7689.1875
2745.01513	7676.7875
2747.60079	7630.3875
2750.18486	7625.1875
2752.76733	7614.4875
2755.3482	7609.3875
2757.92747	7584.9875
2760.50515	7596.2875
2763.08123	7585.3875
2765.65573	7560.8875
2768.22863	7557.6875
2770.79994	7521.6875
2773.36967	7513.4875
2775.9378	7518.4875
2778.50435	7492.0875
2781.06932	7475.5875
2783.6327	7464.5875
2786.1945	7455.2875
2788.75471	7452.6875
2791.31335	7404.5875
2793.87041	7394.7875
2796.42589	7383.4875
2798.97979	7363.4875
2801.53212	7330.2875
2804.08288	7341.0875
2806.63206	7297.4875
2809.17967	7275.0875
2811.72571	7249.4875
2814.27018	7235.6875
2816.81308	7218.3875
2819.35442	7214.8875
2821.89419	7162.6875
2824.43239	7148.7875
2826.96904	7141.5875
2829.50412	7135.0875
2832.03763	7139.8875
2834.56959	7122.8875
2837.1	7114.8875
2839.62884	7087.0875
2842.15613	7081.6875
2844.68186	7080.5875
2847.20604	7053.5875
2849.72867	7054.4875
2852.24974	7045.8875
2854.76927	7011.2875
2857.28724	6999.9875
2859.80367	7011.1875
2862.31855	7010.3875
2864.83189	6989.0875
2867.34368	6983.4875
2869.85393	6958.4875
2872.36264	6939.6875
2874.8698	6950.8875
2877.37543	6946.9875
2879.87952	6939.5875
2882.38207	6942.6875
2884.88308	6916.9875
2887.38256	6919.4875
2889.88051	6891.2875
2892.37692	6892.9875
2894.8718	6894.2875
2897.36515	6900.0875
2899.85698	6871.1875
2902.34727	6874.6875
2904.83604	6861.1875
2907.32328	6904.9875
2909.809	6907.3875
2912.29319	6895.4875
2914.77587	6882.7875
2917.25702	6887.1875
2919.73665	6876.6875
2922.21476	6865.3875
2924.69136	6844.2875
2927.16644	6852.2875
2929.64	6810.4875
2932.11205	6822.7875
2934.58258	6800.2875
2937.05161	6822.2875
2939.51912	6809.0875
2941.98513	6812.4875
2944.44962	6798.1875
2946.91261	6782.2875
2949.37409	6781.1875
2951.83407	6778.5875
2954.29254	6790.0875
2956.74951	6760.5875
2959.20498	6752.9875
2961.65895	6751.6875
2964.11142	6766.9875
2966.56239	6774.8875
2969.01186	6740.7875
2971.45984	6774.4875
2973.90632	6774.9875
2976.35131	6760.1875
2978.7948	6739.0875
2981.23681	6707.1875
2983.67732	6718.8875
2986.11635	6681.4875
2988.55388	6677.8875
2990.98993	6684.0875
2993.4245	6658.1875
2995.85758	6662.7875
2998.28917	6634.7875
3000.71928	6626.2875
3003.14791	6609.0875
3005.57506	6591.3875
3008.00073	6581.2875
3010.42493	6585.4875
3012.84764	6568.0875
3015.26888	6575.7875
3017.68865	6546.8875
3020.10694	6540.8875
3022.52376	6520.4875
3024.9391	6534.3875
3027.35298	6518.5875
3029.76539	6502.3875
3032.17632	6491.5875
3034.5858	6493.0875
3036.9938	6478.1875
3039.40034	6456.7875
3041.80542	6457.0875
3044.20903	6456.4875
3046.61118	6455.0875
3049.01187	6444.5875
3051.4111	6415.4875
3053.80888	6411.4875
3056.20519	6417.4875
3058.60005	6397.6875
3060.99345	6381.4875
3063.3854	6383.8875
3065.7759	6344.5875
