Data from AgNPs_APTES_FTO_UA_50uM_CRN_0uM_R6G_10uM_Scan_RamanShift__69__12-31-33-742.txt Node

Date: Tue Jul 05 12:31:33 BST 2022
User: TCL
Spectrometer: QEP01345
Trigger mode: 4
Integration Time (sec): 7.000000E0
Scans to average: 10
Electric dark correction enabled: true
Nonlinearity correction enabled: false
Boxcar width: 0
XAxis mode: Raman Shifts
Number of Pixels in Spectrum: 1044
>>>>>Begin Spectral Data<<<<<
46.04893	0.4625
50.45542	-0.0375
54.85868	-1.1375
59.25871	0.4625
63.6555	36.3625
68.04907	39.8625
72.43941	42.3625
76.82654	44.9625
81.21044	48.0625
85.59113	52.0625
89.96862	52.1625
94.34289	53.6625
98.71396	53.8625
103.08183	57.4625
107.4465	55.8625
111.80798	58.5625
116.16626	56.1625
120.52136	59.0625
124.87327	61.8625
129.222	64.2625
133.56755	65.7625
137.90993	64.4625
142.24913	70.2625
146.58517	75.8625
150.91804	82.1625
155.24774	90.2625
159.57429	106.2625
163.89768	130.3625
168.21792	168.7625
172.53501	221.9625
176.84895	306.0625
181.15975	422.2625
185.46741	593.7625
189.77193	825.2625
194.07331	1092.7625
198.37157	1389.6625
202.6667	1718.6625
206.9587	2041.8625
211.24758	2355.7625
215.53334	2673.1625
219.81599	2975.3625
224.09553	3325.9625
228.37195	3711.3625
232.64527	4144.6625
236.91549	4595.1625
241.18261	5073.7625
245.44663	5568.9625
249.70755	6038.5625
253.96539	6451.3625
258.22014	6793.2625
262.4718	7056.5625
266.72039	7262.0625
270.96589	7319.8625
275.20832	7315.3625
279.44768	7260.9625
283.68397	7165.0625
287.91719	7035.6625
292.14735	6923.3625
296.37445	6843.2625
300.59849	6769.2625
304.81948	6712.7625
309.03742	6679.3625
313.25231	6661.0625
317.46415	6633.3625
321.67296	6629.2625
325.87872	6641.2625
330.08145	6672.6625
334.28114	6734.2625
338.47781	6809.3625
342.67145	6891.3625
346.86207	6972.7625
351.04966	7064.2625
355.23424	7162.8625
359.4158	7237.4625
363.59435	7326.6625
367.76989	7428.5625
371.94243	7526.7625
376.11196	7611.9625
380.27849	7676.7625
384.44203	7761.5625
388.60257	7838.2625
392.76012	7882.6625
396.91468	7958.4625
401.06626	8018.8625
405.21485	8075.5625
409.36047	8126.7625
413.50311	8140.8625
417.64277	8155.4625
421.77947	8208.6625
425.9132	8248.4625
430.04396	8294.4625
434.17176	8345.2625
438.2966	8399.3625
442.41849	8507.7625
446.53742	8576.1625
450.6534	8654.5625
454.76644	8735.0625
458.87653	8786.0625
462.98368	8814.4625
467.08789	8883.8625
471.18916	8890.0625
475.2875	8908.9625
479.38291	8908.9625
483.4754	8925.1625
487.56496	8948.6625
491.6516	8938.6625
495.73531	8976.4625
499.81612	8977.4625
503.89401	9031.9625
507.96899	9069.8625
512.04106	9080.1625
516.11023	9134.3625
520.1765	9146.0625
524.23987	9176.3625
528.30034	9216.4625
532.35792	9250.1625
536.41261	9265.5625
540.46441	9302.5625
544.51333	9288.4625
548.55936	9310.9625
552.60252	9349.7625
556.64279	9417.9625
560.6802	9483.5625
564.71473	9523.8625
568.7464	9513.8625
572.7752	9526.8625
576.80114	9541.0625
580.82422	9573.1625
584.84444	9601.1625
588.86181	9660.1625
592.87633	9744.0625
596.888	9775.6625
600.89682	9803.5625
604.9028	9920.8625
608.90594	10116.4625
612.90624	10312.0625
616.90371	10210.9625
620.89834	9958.2625
624.89015	9860.2625
628.87913	9864.5625
632.86528	9907.9625
636.84862	9928.1625
640.82913	9922.0625
644.80683	9923.7625
648.78172	9916.2625
652.75379	9904.3625
656.72306	9979.6625
660.68952	10049.2625
664.65319	10093.8625
668.61405	10128.6625
672.57211	10190.9625
676.52738	10233.0625
680.47986	10266.7625
684.42955	10312.3625
688.37646	10393.8625
692.32058	10445.1625
696.26192	10489.3625
700.20048	10502.4625
704.13626	10532.0625
708.06928	10546.6625
711.99952	10576.8625
715.927	10585.6625
719.85171	10578.2625
723.77365	10569.8625
727.69284	10507.5625
731.60928	10504.7625
735.52295	10502.9625
739.43388	10503.9625
743.34206	10520.3625
747.24749	10558.0625
751.15017	10562.3625
755.05012	10604.5625
758.94733	10624.8625
762.8418	10702.1625
766.73354	10792.2625
770.62254	10963.5625
774.50882	11033.5625
778.39237	11049.5625
782.27321	10976.4625
786.15132	10879.7625
790.02671	10790.7625
793.89938	10728.3625
797.76935	10732.4625
801.6366	10719.1625
805.50115	10735.2625
809.36299	10723.1625
813.22213	10713.1625
817.07857	10729.7625
820.93231	10755.1625
824.78336	10782.6625
828.63172	10810.5625
832.47738	10786.5625
836.32036	10839.4625
840.16066	10839.7625
843.99827	10887.5625
847.8332	10924.5625
851.66546	10923.8625
855.49504	10918.2625
859.32195	10951.6625
863.1462	10948.7625
866.96777	10989.8625
870.78668	11023.6625
874.60293	11035.5625
878.41652	11066.7625
882.22745	11066.7625
886.03573	11098.6625
889.84136	11107.6625
893.64433	11121.5625
897.44466	11148.7625
901.24235	11190.8625
905.0374	11207.6625
908.8298	11234.4625
912.61957	11255.9625
916.40671	11260.1625
920.19121	11274.7625
923.97308	11239.2625
927.75233	11256.4625
931.52895	11253.7625
935.30295	11202.0625
939.07433	11190.7625
942.84309	11139.8625
946.60924	11131.1625
950.37278	11118.8625
954.13371	11099.3625
957.89203	11104.2625
961.64774	11099.8625
965.40086	11068.8625
969.15137	11069.8625
972.89929	11056.7625
976.64461	11066.6625
980.38733	11059.8625
984.12747	11060.1625
987.86502	11056.7625
991.59999	11086.5625
995.33237	11104.3625
999.06217	11132.1625
1002.78939	11169.7625
1006.51404	11243.7625
1010.23611	11276.4625
1013.95561	11313.2625
1017.67255	11366.2625
1021.38692	11330.2625
1025.09872	11292.7625
1028.80796	11289.0625
1032.51465	11255.1625
1036.21877	11256.4625
1039.92035	11300.0625
1043.61937	11292.0625
1047.31584	11300.7625
1051.00976	11340.0625
1054.70114	11348.5625
1058.38998	11363.6625
1062.07627	11404.6625
1065.76003	11424.1625
1069.44126	11435.0625
1073.11995	11463.7625
1076.79611	11546.6625
1080.46974	11575.4625
1084.14085	11570.6625
1087.80943	11539.3625
1091.47549	11575.2625
1095.13903	11573.4625
1098.80005	11561.6625
1102.45857	11570.4625
1106.11456	11564.8625
1109.76805	11517.2625
1113.41903	11484.2625
1117.06751	11466.6625
1120.71348	11467.3625
1124.35696	11496.3625
1127.99793	11483.6625
1131.63641	11497.2625
1135.2724	11486.4625
1138.90589	11481.1625
1142.5369	11470.3625
1146.16542	11450.1625
1149.79145	11441.6625
1153.415	11370.9625
1157.03607	11387.6625
1160.65467	11366.0625
1164.27079	11407.2625
1167.88443	11436.9625
1171.49561	11542.6625
1175.10432	11613.9625
1178.71056	11733.6625
1182.31434	11858.4625
1185.91565	11954.2625
1189.51451	12035.7625
1193.11091	12072.3625
1196.70485	12076.7625
1200.29634	12041.6625
1203.88538	12002.0625
1207.47197	11920.8625
1211.05612	11837.9625
1214.63782	11807.7625
1218.21708	11766.1625
1221.79391	11721.0625
1225.36829	11668.7625
1228.94024	11670.4625
1232.50976	11659.2625
1236.07685	11605.0625
1239.6415	11623.1625
1243.20374	11652.7625
1246.76355	11688.0625
1250.32093	11735.6625
1253.8759	11763.1625
1257.42845	11836.7625
1260.97859	11880.3625
1264.52631	11918.0625
1268.07163	11949.6625
1271.61453	11973.8625
1275.15503	11993.9625
1278.69312	12012.6625
1282.22882	12028.3625
1285.76211	11999.0625
1289.29301	12030.9625
1292.82151	12042.0625
1296.34761	12112.3625
1299.87133	12188.6625
1303.39266	12248.0625
1306.9116	12348.7625
1310.42815	12492.2625
1313.94233	12582.5625
1317.45412	12614.6625
1320.96354	12611.0625
1324.47058	12556.9625
1327.97525	12467.6625
1331.47754	12359.4625
1334.97747	12338.1625
1338.47502	12335.9625
1341.97022	12449.2625
1345.46305	12608.6625
1348.95352	12726.2625
1352.44163	12783.4625
1355.92738	12751.6625
1359.41078	12718.5625
1362.89183	12666.2625
1366.37053	12518.2625
1369.84688	12335.8625
1373.32088	12096.8625
1376.79254	11911.8625
1380.26186	11813.0625
1383.72883	11704.7625
1387.19347	11595.2625
1390.65578	11529.7625
1394.11575	11441.0625
1397.57339	11413.1625
1401.0287	11399.2625
1404.48168	11332.4625
1407.93234	11348.1625
1411.38068	11325.2625
1414.82669	11294.2625
1418.27039	11250.4625
1421.71177	11168.0625
1425.15083	11152.5625
1428.58758	11133.3625
1432.02203	11131.9625
1435.45416	11086.6625
1438.88399	11087.3625
1442.31151	11096.9625
1445.73673	11092.0625
1449.15965	11051.5625
1452.58027	11088.6625
1455.9986	11085.0625
1459.41463	11099.5625
1462.82837	11155.8625
1466.23982	11186.3625
1469.64898	11261.6625
1473.05586	11319.4625
1476.46045	11341.2625
1479.86276	11367.5625
1483.26279	11390.6625
1486.66054	11399.0625
1490.05602	11433.3625
1493.44922	11456.1625
1496.84016	11516.6625
1500.22882	11642.3625
1503.61521	11767.7625
1506.99934	11844.5625
1510.38121	11888.8625
1513.76081	11867.8625
1517.13816	11779.9625
1520.51324	11699.5625
1523.88607	11621.0625
1527.25665	11628.9625
1530.62498	11572.9625
1533.99105	11545.1625
1537.35488	11583.1625
1540.71647	11554.7625
1544.07581	11570.1625
1547.4329	11571.7625
1550.78776	11595.5625
1554.14038	11564.3625
1557.49077	11532.3625
1560.83892	11551.6625
1564.18484	11560.5625
1567.52853	11582.5625
1570.86999	11591.9625
1574.20922	11608.9625
1577.54624	11577.4625
1580.88103	11571.3625
1584.2136	11529.4625
1587.54395	11498.9625
1590.87208	11515.1625
1594.19801	11574.1625
1597.52172	11661.8625
1600.84321	11743.9625
1604.16251	11745.5625
1607.47959	11682.4625
1610.79447	11567.2625
1614.10715	11376.3625
1617.41763	11243.6625
1620.7259	11104.5625
1624.03199	11023.5625
1627.33587	11010.8625
1630.63757	10988.5625
1633.93707	11008.2625
1637.23439	11064.8625
1640.52951	11192.0625
1643.82246	11392.9625
1647.11321	11492.1625
1650.40179	11555.1625
1653.68819	11419.4625
1656.97241	11232.4625
1660.25446	11023.6625
1663.53433	10839.3625
1666.81203	10712.6625
1670.08756	10623.5625
1673.36092	10576.6625
1676.63211	10558.4625
1679.90115	10488.1625
1683.16801	10438.3625
1686.43272	10440.4625
1689.69527	10418.3625
1692.95567	10387.0625
1696.2139	10374.0625
1699.46999	10385.6625
1702.72392	10367.8625
1705.97571	10356.0625
1709.22535	10388.1625
1712.47284	10397.3625
1715.71819	10394.8625
1718.96139	10407.9625
1722.20246	10385.1625
1725.44139	10369.6625
1728.67818	10337.7625
1731.91284	10279.4625
1735.14537	10250.8625
1738.37576	10200.0625
1741.60403	10178.0625
1744.83017	10154.2625
1748.05418	10158.0625
1751.27607	10137.7625
1754.49584	10136.1625
1757.71349	10091.8625
1760.92903	10074.6625
1764.14244	10058.3625
1767.35375	10061.9625
1770.56294	10014.6625
1773.77002	10032.9625
1776.97499	10033.9625
1780.17785	10059.4625
1783.37861	10041.9625
1786.57727	10045.5625
1789.77382	10009.6625
1792.96828	9989.2625
1796.16064	9967.4625
1799.3509	9982.3625
1802.53907	9950.9625
1805.72514	9919.9625
1808.90913	9903.5625
1812.09102	9912.9625
1815.27083	9886.8625
1818.44856	9898.4625
1821.6242	9869.3625
1824.79776	9838.0625
1827.96924	9837.2625
1831.13864	9815.3625
1834.30597	9823.1625
1837.47122	9804.7625
1840.6344	9776.6625
1843.7955	9755.0625
1846.95454	9759.5625
1850.11151	9761.1625
1853.26642	9763.7625
1856.41926	9762.2625
1859.57004	9771.7625
1862.71876	9767.2625
1865.86542	9743.2625
1869.01003	9737.6625
1872.15258	9736.4625
1875.29308	9713.5625
1878.43152	9704.9625
1881.56792	9670.4625
1884.70227	9653.4625
1887.83457	9644.0625
1890.96482	9632.0625
1894.09304	9618.6625
1897.21921	9602.6625
1900.34335	9587.5625
1903.46544	9604.3625
1906.58551	9568.4625
1909.70353	9555.5625
1912.81953	9544.9625
1915.93349	9532.9625
1919.04543	9516.8625
1922.15534	9513.0625
1925.26322	9459.2625
1928.36908	9461.0625
1931.47292	9469.5625
1934.57473	9438.3625
1937.67453	9413.5625
1940.77232	9382.6625
1943.86808	9366.8625
1946.96184	9323.0625
1950.05358	9310.8625
1953.14331	9295.7625
1956.23103	9263.9625
1959.31675	9216.7625
1962.40046	9194.2625
1965.48217	9154.4625
1968.56188	9151.6625
1971.63959	9108.0625
1974.7153	9087.6625
1977.78901	9063.7625
1980.86073	9056.3625
1983.93046	8998.3625
1986.99819	8986.2625
1990.06394	8949.5625
1993.1277	8950.3625
1996.18947	8892.9625
1999.24925	8874.5625
2002.30706	8831.5625
2005.36288	8814.8625
2008.41672	8792.2625
2011.46859	8790.1625
2014.51848	8762.9625
2017.56639	8745.1625
2020.61233	8688.3625
2023.6563	8667.5625
2026.6983	8646.4625
2029.73833	8627.7625
2032.7764	8592.5625
2035.8125	8600.9625
2038.84664	8529.7625
2041.87881	8549.7625
2044.90903	8524.9625
2047.93729	8497.5625
2050.96359	8502.2625
2053.98794	8480.3625
2057.01034	8460.2625
2060.03078	8440.2625
2063.04927	8435.3625
2066.06582	8430.4625
2069.08042	8424.6625
2072.09307	8403.4625
2075.10378	8390.2625
2078.11255	8426.0625
2081.11938	8449.1625
2084.12426	8420.3625
2087.12722	8405.3625
2090.12824	8396.1625
2093.12732	8382.8625
2096.12447	8364.6625
2099.11969	8382.0625
2102.11299	8388.3625
2105.10435	8391.3625
2108.09379	8383.7625
2111.08131	8380.4625
2114.0669	8403.9625
2117.05057	8412.0625
2120.03233	8429.6625
2123.01216	8417.4625
2125.99008	8441.0625
2128.96609	8426.6625
2131.94018	8436.3625
2134.91236	8457.4625
2137.88263	8461.2625
2140.851	8446.1625
2143.81746	8475.4625
2146.78201	8438.0625
2149.74466	8430.1625
2152.7054	8446.2625
2155.66425	8433.1625
2158.6212	8433.9625
2161.57625	8413.3625
2164.52941	8400.6625
2167.48067	8415.7625
2170.43004	8414.8625
2173.37752	8427.7625
2176.32311	8425.8625
2179.26681	8414.1625
2182.20863	8388.6625
2185.14856	8410.3625
2188.08661	8381.5625
2191.02278	8383.8625
2193.95707	8381.6625
2196.88948	8370.0625
2199.82001	8393.0625
2202.74867	8348.7625
2205.67545	8355.9625
2208.60037	8324.9625
2211.52341	8316.8625
2214.44458	8300.6625
2217.36388	8289.9625
2220.28132	8268.3625
2223.1969	8245.7625
2226.11061	8220.4625
2229.02246	8209.0625
2231.93245	8176.0625
2234.84058	8165.5625
2237.74686	8163.7625
2240.65128	8187.6625
2243.55385	8134.7625
2246.45456	8106.3625
2249.35343	8089.0625
2252.25044	8103.5625
2255.14561	8087.9625
2258.03893	8096.5625
2260.93041	8056.0625
2263.82004	8019.3625
2266.70783	8005.8625
2269.59378	7992.9625
2272.4779	7951.9625
2275.36017	7945.6625
2278.24061	7906.0625
2281.11922	7906.9625
2283.996	7889.7625
2286.87094	7873.9625
2289.74405	7854.4625
2292.61534	7842.1625
2295.4848	7828.1625
2298.35243	7820.7625
2301.21824	7832.8625
2304.08223	7821.5625
2306.94439	7780.3625
2309.80474	7802.8625
2312.66327	7799.4625
2315.51999	7795.2625
2318.37489	7778.8625
2321.22797	7752.8625
2324.07925	7724.8625
2326.92871	7709.2625
2329.77637	7706.9625
2332.62222	7696.5625
2335.46626	7664.1625
2338.3085	7667.8625
2341.14893	7633.3625
2343.98756	7619.8625
2346.8244	7626.5625
2349.65943	7609.5625
2352.49267	7591.8625
2355.32411	7588.4625
2358.15376	7593.7625
2360.98161	7573.6625
2363.80768	7574.6625
2366.63195	7598.8625
2369.45444	7562.3625
2372.27514	7553.2625
2375.09405	7559.8625
2377.91118	7531.4625
2380.72652	7506.2625
2383.54009	7496.3625
2386.35187	7484.6625
2389.16188	7445.4625
2391.97011	7431.6625
2394.77657	7414.8625
2397.58125	7417.2625
2400.38416	7380.8625
2403.18529	7348.9625
2405.98466	7349.8625
2408.78226	7347.4625
2411.57809	7320.4625
2414.37216	7325.1625
2417.16446	7326.9625
2419.955	7297.5625
2422.74378	7309.8625
2425.5308	7293.0625
2428.31606	7285.6625
2431.09956	7275.4625
2433.88131	7269.8625
2436.6613	7259.6625
2439.43954	7244.6625
2442.21603	7240.7625
2444.99077	7193.7625
2447.76377	7211.6625
2450.53501	7215.8625
2453.30451	7189.2625
2456.07226	7173.1625
2458.83827	7155.9625
2461.60254	7145.4625
2464.36507	7129.4625
2467.12586	7112.3625
2469.88492	7102.4625
2472.64224	7087.7625
2475.39782	7099.8625
2478.15167	7101.6625
2480.90379	7071.9625
2483.65417	7098.0625
2486.40283	7081.6625
2489.14976	7066.4625
2491.89497	7051.0625
2494.63845	7027.7625
2497.3802	7032.2625
2500.12024	7037.2625
2502.85855	7011.1625
2505.59514	7029.3625
2508.33002	7035.2625
2511.06318	6998.7625
2513.79462	6974.6625
2516.52435	6966.5625
2519.25237	6965.5625
2521.97867	6956.6625
2524.70327	6951.5625
2527.42616	6921.0625
2530.14734	6922.2625
2532.86681	6873.4625
2535.58458	6886.8625
2538.30065	6884.9625
2541.01501	6862.0625
2543.72768	6821.7625
2546.43864	6819.5625
2549.14791	6781.0625
2551.85548	6793.2625
2554.56136	6793.7625
2557.26554	6787.2625
2559.96803	6762.9625
2562.66883	6756.0625
2565.36794	6730.8625
2568.06536	6719.4625
2570.7611	6683.1625
2573.45514	6687.7625
2576.14751	6677.7625
2578.83819	6648.7625
2581.52719	6638.7625
2584.21451	6616.4625
2586.90015	6608.6625
2589.58411	6585.5625
2592.2664	6583.6625
2594.94701	6566.5625
2597.62594	6558.8625
2600.30321	6521.8625
2602.9788	6507.4625
2605.65273	6505.2625
2608.32498	6476.1625
2610.99557	6484.2625
2613.66449	6482.8625
2616.33175	6462.9625
2618.99734	6464.0625
2621.66128	6458.2625
2624.32355	6421.2625
2626.98416	6414.8625
2629.64311	6401.3625
2632.30041	6395.9625
2634.95605	6402.2625
2637.61004	6394.6625
2640.26238	6366.1625
2642.91306	6371.4625
2645.56209	6357.8625
2648.20948	6345.4625
2650.85521	6333.9625
2653.4993	6336.5625
2656.14175	6314.5625
2658.78255	6322.1625
2661.42171	6309.3625
2664.05923	6306.2625
2666.6951	6314.1625
2669.32934	6322.8625
2671.96194	6291.7625
2674.59291	6277.1625
2677.22224	6277.6625
2679.84993	6275.5625
2682.476	6264.2625
2685.10043	6288.7625
2687.72324	6275.5625
2690.34441	6271.0625
2692.96396	6248.1625
2695.58188	6258.0625
2698.19818	6251.6625
2700.81285	6237.0625
2703.4259	6216.4625
2706.03733	6212.5625
2708.64714	6201.5625
2711.25533	6200.5625
2713.86191	6205.5625
2716.46687	6217.3625
2719.07021	6232.0625
2721.67194	6215.7625
2724.27206	6233.3625
2726.87057	6204.5625
2729.46747	6211.5625
2732.06276	6204.8625
2734.65644	6198.3625
2737.24852	6203.3625
2739.83899	6178.2625
2742.42786	6183.3625
2745.01513	6179.0625
2747.60079	6172.1625
2750.18486	6154.8625
2752.76733	6148.9625
2755.3482	6136.6625
2757.92747	6131.3625
2760.50515	6107.1625
2763.08123	6091.0625
2765.65573	6086.9625
2768.22863	6072.1625
2770.79994	6044.7625
2773.36967	6040.2625
2775.9378	6028.9625
2778.50435	6013.4625
2781.06932	5997.9625
2783.6327	6019.0625
2786.1945	6020.0625
2788.75471	5995.9625
2791.31335	5965.8625
2793.87041	5980.7625
2796.42589	5951.1625
2798.97979	5927.8625
2801.53212	5906.6625
2804.08288	5891.2625
2806.63206	5866.1625
2809.17967	5865.1625
2811.72571	5840.3625
2814.27018	5821.5625
2816.81308	5806.3625
2819.35442	5798.3625
2821.89419	5764.8625
2824.43239	5761.0625
2826.96904	5765.7625
2829.50412	5730.9625
2832.03763	5731.8625
2834.56959	5732.4625
2837.1	5731.8625
2839.62884	5708.8625
2842.15613	5709.5625
2844.68186	5695.7625
2847.20604	5682.4625
2849.72867	5685.2625
2852.24974	5680.0625
2854.76927	5659.2625
2857.28724	5638.2625
2859.80367	5633.3625
2862.31855	5634.4625
2864.83189	5632.2625
2867.34368	5644.0625
2869.85393	5622.7625
2872.36264	5588.7625
2874.8698	5587.9625
2877.37543	5599.9625
2879.87952	5593.0625
2882.38207	5585.6625
2884.88308	5566.2625
2887.38256	5574.9625
2889.88051	5568.4625
2892.37692	5565.9625
2894.8718	5564.6625
2897.36515	5551.4625
2899.85698	5537.4625
2902.34727	5536.2625
2904.83604	5523.0625
2907.32328	5569.2625
2909.809	5560.0625
2912.29319	5539.3625
2914.77587	5539.6625
2917.25702	5540.7625
2919.73665	5526.3625
2922.21476	5524.1625
2924.69136	5520.1625
2927.16644	5530.2625
2929.64	5493.8625
2932.11205	5499.5625
2934.58258	5487.0625
2937.05161	5482.0625
2939.51912	5495.1625
2941.98513	5476.9625
2944.44962	5483.9625
2946.91261	5469.1625
2949.37409	5474.2625
2951.83407	5480.9625
2954.29254	5474.9625
2956.74951	5426.1625
2959.20498	5453.7625
2961.65895	5450.2625
2964.11142	5445.0625
2966.56239	5455.9625
2969.01186	5419.8625
2971.45984	5433.6625
2973.90632	5457.0625
2976.35131	5424.3625
2978.7948	5429.2625
2981.23681	5401.0625
2983.67732	5407.6625
2986.11635	5378.1625
2988.55388	5378.9625
2990.98993	5383.4625
2993.4245	5374.9625
2995.85758	5373.1625
2998.28917	5353.7625
3000.71928	5336.6625
3003.14791	5322.4625
3005.57506	5308.5625
3008.00073	5294.2625
3010.42493	5321.6625
3012.84764	5290.2625
3015.26888	5294.9625
3017.68865	5267.6625
3020.10694	5280.1625
3022.52376	5264.3625
3024.9391	5257.6625
3027.35298	5262.0625
3029.76539	5246.7625
3032.17632	5248.0625
3034.5858	5229.6625
3036.9938	5232.2625
3039.40034	5213.3625
3041.80542	5213.3625
3044.20903	5226.0625
3046.61118	5208.7625
3049.01187	5201.2625
3051.4111	5175.4625
3053.80888	5184.3625
3056.20519	5186.1625
3058.60005	5173.6625
3060.99345	5156.2625
3063.3854	5152.8625
3065.7759	5121.1625
3068.16494	5107.3625
3070.55254	5103.4625
3072.93868	5088.7625
3075.32338	5077.2625
3077.70662	5102.8625
3080.08842	5057.2625
3082.46878	5054.7625
3084.84769	5054.9625
3087.22515	5069.6625
3089.60118	5065.1625
