Data from AgNPs_APTES_FTO_UA_50uM_CRN_0uM_R6G_10uM_Scan_RamanShift__76__12-39-43-752.txt Node

Date: Tue Jul 05 12:39:43 BST 2022
User: TCL
Spectrometer: QEP01345
Trigger mode: 4
Integration Time (sec): 7.000000E0
Scans to average: 10
Electric dark correction enabled: true
Nonlinearity correction enabled: false
Boxcar width: 0
XAxis mode: Raman Shifts
Number of Pixels in Spectrum: 1044
>>>>>Begin Spectral Data<<<<<
46.04893	-0.9125
50.45542	0.3875
54.85868	-0.1125
59.25871	-0.3125
63.6555	41.0875
68.04907	46.2875
72.43941	45.2875
76.82654	48.8875
81.21044	53.8875
85.59113	54.1875
89.96862	53.8875
94.34289	56.9875
98.71396	63.4875
103.08183	61.4875
107.4465	59.8875
111.80798	66.2875
116.16626	65.9875
120.52136	60.9875
124.87327	68.6875
129.222	70.9875
133.56755	72.2875
137.90993	68.6875
142.24913	76.0875
146.58517	85.4875
150.91804	94.0875
155.24774	106.8875
159.57429	130.6875
163.89768	157.8875
168.21792	199.3875
172.53501	271.3875
176.84895	376.3875
181.15975	524.0875
185.46741	734.4875
189.77193	1013.3875
194.07331	1345.7875
198.37157	1741.0875
202.6667	2143.8875
206.9587	2545.7875
211.24758	2935.1875
215.53334	3316.2875
219.81599	3714.5875
224.09553	4146.8875
228.37195	4632.5875
232.64527	5163.9875
236.91549	5729.6875
241.18261	6344.5875
245.44663	6965.4875
249.70755	7543.9875
253.96539	8081.8875
258.22014	8500.6875
262.4718	8843.0875
266.72039	9063.0875
270.96589	9177.7875
275.20832	9162.3875
279.44768	9095.5875
283.68397	8969.4875
287.91719	8834.5875
292.14735	8691.8875
296.37445	8580.6875
300.59849	8521.4875
304.81948	8470.0875
309.03742	8415.2875
313.25231	8369.1875
317.46415	8371.2875
321.67296	8359.1875
325.87872	8356.4875
330.08145	8421.3875
334.28114	8475.8875
338.47781	8594.6875
342.67145	8685.4875
346.86207	8810.8875
351.04966	8920.3875
355.23424	9062.6875
359.4158	9204.0875
363.59435	9308.1875
367.76989	9428.4875
371.94243	9596.3875
376.11196	9690.0875
380.27849	9761.4875
384.44203	9858.6875
388.60257	9980.2875
392.76012	10070.9875
396.91468	10124.3875
401.06626	10201.4875
405.21485	10292.7875
409.36047	10337.4875
413.50311	10383.5875
417.64277	10360.7875
421.77947	10429.4875
425.9132	10470.1875
430.04396	10525.7875
434.17176	10614.8875
438.2966	10697.0875
442.41849	10791.9875
446.53742	10910.2875
450.6534	11009.6875
454.76644	11114.5875
458.87653	11212.1875
462.98368	11272.1875
467.08789	11347.9875
471.18916	11354.8875
475.2875	11357.8875
479.38291	11377.3875
483.4754	11377.5875
487.56496	11405.0875
491.6516	11411.2875
495.73531	11448.2875
499.81612	11445.1875
503.89401	11498.1875
507.96899	11538.8875
512.04106	11622.2875
516.11023	11662.3875
520.1765	11710.7875
524.23987	11727.7875
528.30034	11786.8875
532.35792	11845.7875
536.41261	11844.7875
540.46441	11845.0875
544.51333	11876.7875
548.55936	11908.5875
552.60252	11964.3875
556.64279	12059.4875
560.6802	12148.6875
564.71473	12185.4875
568.7464	12174.2875
572.7752	12198.2875
576.80114	12178.7875
580.82422	12215.3875
584.84444	12263.3875
588.86181	12277.6875
592.87633	12360.3875
596.888	12413.6875
600.89682	12494.1875
604.9028	12681.3875
608.90594	13028.0875
612.90624	13334.2875
616.90371	13207.1875
620.89834	12805.7875
624.89015	12647.5875
628.87913	12663.4875
632.86528	12707.0875
636.84862	12804.5875
640.82913	12782.7875
644.80683	12766.2875
648.78172	12746.1875
652.75379	12772.7875
656.72306	12876.8875
660.68952	12964.9875
664.65319	13016.9875
668.61405	13044.4875
672.57211	13118.8875
676.52738	13171.3875
680.47986	13272.0875
684.42955	13282.7875
688.37646	13325.0875
692.32058	13413.3875
696.26192	13468.6875
700.20048	13546.8875
704.13626	13587.8875
708.06928	13598.3875
711.99952	13610.3875
715.927	13606.0875
719.85171	13612.2875
723.77365	13601.8875
727.69284	13592.5875
731.60928	13551.8875
735.52295	13527.0875
739.43388	13558.8875
743.34206	13587.7875
747.24749	13601.4875
751.15017	13669.0875
755.05012	13681.6875
758.94733	13730.5875
762.8418	13818.6875
766.73354	13975.6875
770.62254	14173.3875
774.50882	14305.6875
778.39237	14324.0875
782.27321	14255.7875
786.15132	14110.6875
790.02671	13980.3875
793.89938	13914.5875
797.76935	13881.4875
801.6366	13909.7875
805.50115	13852.5875
809.36299	13888.3875
813.22213	13896.4875
817.07857	13892.1875
820.93231	13930.3875
824.78336	13984.7875
828.63172	13999.9875
832.47738	13976.4875
836.32036	14008.3875
840.16066	14058.1875
843.99827	14057.2875
847.8332	14125.8875
851.66546	14173.8875
855.49504	14158.6875
859.32195	14183.8875
863.1462	14234.4875
866.96777	14256.3875
870.78668	14288.9875
874.60293	14355.6875
878.41652	14358.3875
882.22745	14398.2875
886.03573	14423.6875
889.84136	14408.5875
893.64433	14414.4875
897.44466	14442.1875
901.24235	14475.2875
905.0374	14506.9875
908.8298	14529.4875
912.61957	14549.0875
916.40671	14569.4875
920.19121	14525.3875
923.97308	14529.2875
927.75233	14541.3875
931.52895	14534.9875
935.30295	14516.7875
939.07433	14485.4875
942.84309	14440.0875
946.60924	14416.5875
950.37278	14427.8875
954.13371	14411.1875
957.89203	14390.3875
961.64774	14393.7875
965.40086	14362.5875
969.15137	14363.7875
972.89929	14357.8875
976.64461	14378.6875
980.38733	14370.9875
984.12747	14362.9875
987.86502	14376.5875
991.59999	14401.9875
995.33237	14418.3875
999.06217	14499.5875
1002.78939	14522.0875
1006.51404	14599.9875
1010.23611	14656.8875
1013.95561	14723.8875
1017.67255	14759.0875
1021.38692	14740.8875
1025.09872	14714.3875
1028.80796	14658.0875
1032.51465	14636.4875
1036.21877	14664.4875
1039.92035	14672.0875
1043.61937	14719.1875
1047.31584	14724.0875
1051.00976	14746.5875
1054.70114	14764.4875
1058.38998	14802.3875
1062.07627	14825.1875
1065.76003	14881.7875
1069.44126	14853.1875
1073.11995	14937.7875
1076.79611	15044.4875
1080.46974	15123.8875
1084.14085	15107.5875
1087.80943	15078.9875
1091.47549	15101.5875
1095.13903	15125.3875
1098.80005	15160.3875
1102.45857	15128.5875
1106.11456	15158.6875
1109.76805	15089.6875
1113.41903	15034.4875
1117.06751	15011.3875
1120.71348	14946.1875
1124.35696	14997.1875
1127.99793	15026.9875
1131.63641	15021.6875
1135.2724	14987.1875
1138.90589	14974.2875
1142.5369	14974.3875
1146.16542	14905.1875
1149.79145	14906.5875
1153.415	14855.2875
1157.03607	14776.2875
1160.65467	14799.2875
1164.27079	14813.4875
1167.88443	14899.7875
1171.49561	14976.4875
1175.10432	15110.5875
1178.71056	15280.5875
1182.31434	15436.9875
1185.91565	15628.9875
1189.51451	15708.6875
1193.11091	15758.3875
1196.70485	15787.6875
1200.29634	15741.3875
1203.88538	15657.6875
1207.47197	15554.6875
1211.05612	15454.3875
1214.63782	15388.4875
1218.21708	15307.8875
1221.79391	15222.1875
1225.36829	15143.7875
1228.94024	15142.0875
1232.50976	15105.0875
1236.07685	15101.4875
1239.6415	15090.7875
1243.20374	15128.0875
1246.76355	15180.6875
1250.32093	15215.7875
1253.8759	15267.9875
1257.42845	15373.4875
1260.97859	15458.2875
1264.52631	15473.5875
1268.07163	15537.3875
1271.61453	15565.1875
1275.15503	15595.0875
1278.69312	15616.0875
1282.22882	15575.0875
1285.76211	15566.0875
1289.29301	15566.7875
1292.82151	15577.9875
1296.34761	15628.1875
1299.87133	15735.4875
1303.39266	15846.3875
1306.9116	15942.5875
1310.42815	16147.3875
1313.94233	16300.6875
1317.45412	16322.6875
1320.96354	16317.8875
1324.47058	16258.9875
1327.97525	16102.1875
1331.47754	15929.6875
1334.97747	15866.2875
1338.47502	15887.8875
1341.97022	16069.8875
1345.46305	16274.8875
1348.95352	16501.8875
1352.44163	16585.4875
1355.92738	16552.2875
1359.41078	16540.5875
1362.89183	16470.2875
1366.37053	16263.5875
1369.84688	15964.5875
1373.32088	15652.3875
1376.79254	15385.4875
1380.26186	15226.0875
1383.72883	15093.9875
1387.19347	14977.5875
1390.65578	14828.7875
1394.11575	14738.9875
1397.57339	14663.5875
1401.0287	14626.0875
1404.48168	14592.5875
1407.93234	14585.3875
1411.38068	14587.9875
1414.82669	14592.2875
1418.27039	14548.6875
1421.71177	14503.1875
1425.15083	14480.0875
1428.58758	14439.0875
1432.02203	14383.1875
1435.45416	14368.1875
1438.88399	14354.6875
1442.31151	14360.4875
1445.73673	14361.9875
1449.15965	14317.6875
1452.58027	14327.9875
1455.9986	14325.9875
1459.41463	14348.8875
1462.82837	14367.3875
1466.23982	14445.8875
1469.64898	14560.7875
1473.05586	14609.6875
1476.46045	14632.5875
1479.86276	14655.9875
1483.26279	14678.2875
1486.66054	14707.7875
1490.05602	14710.5875
1493.44922	14812.8875
1496.84016	14956.6875
1500.22882	15129.8875
1503.61521	15311.7875
1506.99934	15481.2875
1510.38121	15561.4875
1513.76081	15528.2875
1517.13816	15403.7875
1520.51324	15247.9875
1523.88607	15116.2875
1527.25665	15034.5875
1530.62498	14937.5875
1533.99105	14934.2875
1537.35488	14863.4875
1540.71647	14893.4875
1544.07581	14910.8875
1547.4329	14947.4875
1550.78776	14935.5875
1554.14038	14886.5875
1557.49077	14893.1875
1560.83892	14914.3875
1564.18484	14948.9875
1567.52853	14980.4875
1570.86999	14991.2875
1574.20922	14999.2875
1577.54624	15019.1875
1580.88103	14971.5875
1584.2136	14895.3875
1587.54395	14845.7875
1590.87208	14865.1875
1594.19801	14917.9875
1597.52172	15108.6875
1600.84321	15135.3875
1604.16251	15150.1875
1607.47959	15105.0875
1610.79447	14948.0875
1614.10715	14722.1875
1617.41763	14533.5875
1620.7259	14363.7875
1624.03199	14250.1875
1627.33587	14254.1875
1630.63757	14222.1875
1633.93707	14265.3875
1637.23439	14308.5875
1640.52951	14477.4875
1643.82246	14672.9875
1647.11321	14882.2875
1650.40179	14901.9875
1653.68819	14806.2875
1656.97241	14525.7875
1660.25446	14266.2875
1663.53433	14073.8875
1666.81203	13947.3875
1670.08756	13849.7875
1673.36092	13781.2875
1676.63211	13747.4875
1679.90115	13701.4875
1683.16801	13651.3875
1686.43272	13598.8875
1689.69527	13599.2875
1692.95567	13572.8875
1696.2139	13510.3875
1699.46999	13518.0875
1702.72392	13523.7875
1705.97571	13531.0875
1709.22535	13550.8875
1712.47284	13547.1875
1715.71819	13552.1875
1718.96139	13564.9875
1722.20246	13554.9875
1725.44139	13507.3875
1728.67818	13486.1875
1731.91284	13461.0875
1735.14537	13393.0875
1738.37576	13318.5875
1741.60403	13323.9875
1744.83017	13309.6875
1748.05418	13277.4875
1751.27607	13264.6875
1754.49584	13254.5875
1757.71349	13205.2875
1760.92903	13156.9875
1764.14244	13161.1875
1767.35375	13176.7875
1770.56294	13150.0875
1773.77002	13141.7875
1776.97499	13127.0875
1780.17785	13161.2875
1783.37861	13146.5875
1786.57727	13115.4875
1789.77382	13089.0875
1792.96828	13048.7875
1796.16064	13072.8875
1799.3509	13025.8875
1802.53907	12991.6875
1805.72514	12950.6875
1808.90913	12954.2875
1812.09102	12961.5875
1815.27083	12939.6875
1818.44856	12928.6875
1821.6242	12905.2875
1824.79776	12853.9875
1827.96924	12868.3875
1831.13864	12828.5875
1834.30597	12813.1875
1837.47122	12833.6875
1840.6344	12815.3875
1843.7955	12759.6875
1846.95454	12750.6875
1850.11151	12774.3875
1853.26642	12766.6875
1856.41926	12767.7875
1859.57004	12763.6875
1862.71876	12769.9875
1865.86542	12745.7875
1869.01003	12752.6875
1872.15258	12698.4875
1875.29308	12707.8875
1878.43152	12667.0875
1881.56792	12634.6875
1884.70227	12623.8875
1887.83457	12613.2875
1890.96482	12605.0875
1894.09304	12571.2875
1897.21921	12539.5875
1900.34335	12540.9875
1903.46544	12533.8875
1906.58551	12491.2875
1909.70353	12474.6875
1912.81953	12465.5875
1915.93349	12478.0875
1919.04543	12465.0875
1922.15534	12433.7875
1925.26322	12398.5875
1928.36908	12396.9875
1931.47292	12364.4875
1934.57473	12361.1875
1937.67453	12323.5875
1940.77232	12303.6875
1943.86808	12252.6875
1946.96184	12236.7875
1950.05358	12179.2875
1953.14331	12170.7875
1956.23103	12123.9875
1959.31675	12059.3875
1962.40046	12015.2875
1965.48217	12007.4875
1968.56188	11947.4875
1971.63959	11929.3875
1974.7153	11912.9875
1977.78901	11871.4875
1980.86073	11838.3875
1983.93046	11789.5875
1986.99819	11734.0875
1990.06394	11701.8875
1993.1277	11699.1875
1996.18947	11648.6875
1999.24925	11601.5875
2002.30706	11568.6875
2005.36288	11527.0875
2008.41672	11503.4875
2011.46859	11494.6875
2014.51848	11451.1875
2017.56639	11452.5875
2020.61233	11390.0875
2023.6563	11337.4875
2026.6983	11316.6875
2029.73833	11281.1875
2032.7764	11237.8875
2035.8125	11208.8875
2038.84664	11182.9875
2041.87881	11162.4875
2044.90903	11151.0875
2047.93729	11116.0875
2050.96359	11107.9875
2053.98794	11091.0875
2057.01034	11067.4875
2060.03078	11052.2875
2063.04927	11058.9875
2066.06582	11053.4875
2069.08042	11013.6875
2072.09307	11005.2875
2075.10378	10984.6875
2078.11255	11007.0875
2081.11938	11007.5875
2084.12426	11015.9875
2087.12722	10975.2875
2090.12824	10973.5875
2093.12732	10961.2875
2096.12447	10944.1875
2099.11969	10948.8875
2102.11299	10965.7875
2105.10435	10948.4875
2108.09379	10968.3875
2111.08131	10971.6875
2114.0669	10967.2875
2117.05057	11019.7875
2120.03233	11014.1875
2123.01216	11012.4875
2125.99008	11003.1875
2128.96609	11020.6875
2131.94018	11031.5875
2134.91236	11029.7875
2137.88263	11047.7875
2140.851	11049.8875
2143.81746	11071.8875
2146.78201	11042.5875
2149.74466	11080.3875
2152.7054	11038.6875
2155.66425	11023.4875
2158.6212	11001.1875
2161.57625	11018.7875
2164.52941	10985.5875
2167.48067	10993.4875
2170.43004	11015.1875
2173.37752	11011.1875
2176.32311	10997.1875
2179.26681	10994.4875
2182.20863	10986.5875
2185.14856	10977.4875
2188.08661	10982.8875
2191.02278	10950.5875
2193.95707	10945.6875
2196.88948	10947.4875
2199.82001	10938.4875
2202.74867	10916.4875
2205.67545	10907.1875
2208.60037	10849.3875
2211.52341	10847.3875
2214.44458	10827.2875
2217.36388	10813.3875
2220.28132	10787.6875
2223.1969	10756.2875
2226.11061	10756.9875
2229.02246	10716.6875
2231.93245	10686.3875
2234.84058	10679.5875
2237.74686	10687.6875
2240.65128	10689.3875
2243.55385	10625.1875
2246.45456	10605.9875
2249.35343	10599.8875
2252.25044	10580.3875
2255.14561	10559.0875
2258.03893	10529.4875
2260.93041	10551.5875
2263.82004	10490.1875
2266.70783	10477.3875
2269.59378	10427.6875
2272.4779	10422.6875
2275.36017	10387.1875
2278.24061	10339.8875
2281.11922	10329.5875
2283.996	10334.5875
2286.87094	10296.3875
2289.74405	10261.8875
2292.61534	10252.5875
2295.4848	10206.1875
2298.35243	10235.2875
2301.21824	10258.1875
2304.08223	10229.0875
2306.94439	10205.0875
2309.80474	10196.3875
2312.66327	10184.6875
2315.51999	10191.1875
2318.37489	10149.9875
2321.22797	10143.0875
2324.07925	10108.2875
2326.92871	10084.0875
2329.77637	10081.1875
2332.62222	10059.4875
2335.46626	10002.6875
2338.3085	10011.0875
2341.14893	9991.5875
2343.98756	9967.4875
2346.8244	9969.2875
2349.65943	9930.7875
2352.49267	9905.8875
2355.32411	9903.5875
2358.15376	9903.9875
2360.98161	9911.3875
2363.80768	9905.5875
2366.63195	9905.1875
2369.45444	9897.9875
2372.27514	9874.8875
2375.09405	9844.6875
2377.91118	9820.5875
2380.72652	9812.6875
2383.54009	9786.6875
2386.35187	9765.0875
2389.16188	9735.8875
2391.97011	9715.3875
2394.77657	9658.3875
2397.58125	9668.7875
2400.38416	9662.6875
2403.18529	9621.8875
2405.98466	9602.7875
2408.78226	9611.5875
2411.57809	9582.4875
2414.37216	9565.2875
2417.16446	9546.9875
2419.955	9531.5875
2422.74378	9552.7875
2425.5308	9551.1875
2428.31606	9548.0875
2431.09956	9510.5875
2433.88131	9495.9875
2436.6613	9466.7875
2439.43954	9480.2875
2442.21603	9466.1875
2444.99077	9441.0875
2447.76377	9424.9875
2450.53501	9383.2875
2453.30451	9395.0875
2456.07226	9358.6875
2458.83827	9334.5875
2461.60254	9332.0875
2464.36507	9321.1875
2467.12586	9310.2875
2469.88492	9297.5875
2472.64224	9288.3875
2475.39782	9260.9875
2478.15167	9260.1875
2480.90379	9263.0875
2483.65417	9260.2875
2486.40283	9248.3875
2489.14976	9233.4875
2491.89497	9206.7875
2494.63845	9209.0875
2497.3802	9179.5875
2500.12024	9167.6875
2502.85855	9173.6875
2505.59514	9150.0875
2508.33002	9141.1875
2511.06318	9127.2875
2513.79462	9100.8875
2516.52435	9081.3875
2519.25237	9086.4875
2521.97867	9094.6875
2524.70327	9065.2875
2527.42616	9028.2875
2530.14734	9011.4875
2532.86681	8996.2875
2535.58458	8984.3875
2538.30065	8984.4875
2541.01501	8976.9875
2543.72768	8928.9875
2546.43864	8896.8875
2549.14791	8870.8875
2551.85548	8873.3875
2554.56136	8857.6875
2557.26554	8873.1875
2559.96803	8846.3875
2562.66883	8803.0875
2565.36794	8772.1875
2568.06536	8764.5875
2570.7611	8757.1875
2573.45514	8704.7875
2576.14751	8695.3875
2578.83819	8700.5875
2581.52719	8647.0875
2584.21451	8647.9875
2586.90015	8644.3875
2589.58411	8608.9875
2592.2664	8601.0875
2594.94701	8563.1875
2597.62594	8550.6875
2600.30321	8505.3875
2602.9788	8513.0875
2605.65273	8490.4875
2608.32498	8463.2875
2610.99557	8465.8875
2613.66449	8476.7875
2616.33175	8433.9875
2618.99734	8431.9875
2621.66128	8432.2875
2624.32355	8388.8875
2626.98416	8388.6875
2629.64311	8353.4875
2632.30041	8337.2875
2634.95605	8354.9875
2637.61004	8320.9875
2640.26238	8316.8875
2642.91306	8299.4875
2645.56209	8276.0875
2648.20948	8267.5875
2650.85521	8252.3875
2653.4993	8254.3875
2656.14175	8257.7875
2658.78255	8248.7875
2661.42171	8226.9875
2664.05923	8244.6875
2666.6951	8236.7875
2669.32934	8219.3875
2671.96194	8222.7875
2674.59291	8199.1875
2677.22224	8185.2875
2679.84993	8209.8875
2682.476	8175.9875
2685.10043	8193.0875
2687.72324	8178.2875
2690.34441	8189.2875
2692.96396	8158.3875
2695.58188	8168.0875
2698.19818	8143.8875
2700.81285	8140.4875
2703.4259	8098.0875
2706.03733	8094.2875
2708.64714	8092.0875
2711.25533	8094.6875
2713.86191	8100.3875
2716.46687	8121.8875
2719.07021	8114.1875
2721.67194	8138.0875
2724.27206	8104.2875
2726.87057	8120.0875
2729.46747	8096.8875
2732.06276	8104.5875
2734.65644	8101.1875
2737.24852	8078.4875
2739.83899	8059.5875
2742.42786	8066.8875
2745.01513	8046.7875
2747.60079	8007.3875
2750.18486	8020.7875
2752.76733	8009.5875
2755.3482	7988.0875
2757.92747	7973.8875
2760.50515	7966.9875
2763.08123	7968.0875
2765.65573	7932.9875
2768.22863	7924.4875
2770.79994	7884.7875
2773.36967	7889.6875
2775.9378	7848.0875
2778.50435	7839.2875
2781.06932	7828.1875
2783.6327	7838.5875
2786.1945	7847.9875
2788.75471	7821.9875
2791.31335	7785.5875
2793.87041	7782.6875
2796.42589	7745.6875
2798.97979	7727.2875
2801.53212	7692.5875
2804.08288	7671.0875
2806.63206	7630.5875
2809.17967	7643.7875
2811.72571	7613.5875
2814.27018	7596.9875
2816.81308	7580.3875
2819.35442	7540.2875
2821.89419	7527.0875
2824.43239	7510.9875
2826.96904	7490.4875
2829.50412	7492.0875
2832.03763	7472.2875
2834.56959	7472.4875
2837.1	7445.9875
2839.62884	7437.4875
2842.15613	7407.7875
2844.68186	7436.8875
2847.20604	7418.4875
2849.72867	7392.9875
2852.24974	7405.3875
2854.76927	7368.8875
2857.28724	7340.3875
2859.80367	7325.0875
2862.31855	7325.9875
2864.83189	7301.1875
2867.34368	7303.2875
2869.85393	7296.4875
2872.36264	7262.7875
2874.8698	7278.4875
2877.37543	7287.4875
2879.87952	7290.2875
2882.38207	7269.4875
2884.88308	7288.3875
2887.38256	7243.3875
2889.88051	7241.1875
2892.37692	7226.7875
2894.8718	7236.2875
2897.36515	7208.3875
2899.85698	7204.1875
2902.34727	7204.8875
2904.83604	7215.4875
2907.32328	7214.7875
2909.809	7229.6875
2912.29319	7212.8875
2914.77587	7225.8875
2917.25702	7206.4875
2919.73665	7205.2875
2922.21476	7204.7875
2924.69136	7185.5875
2927.16644	7179.4875
2929.64	7154.4875
2932.11205	7149.6875
2934.58258	7148.7875
2937.05161	7140.3875
2939.51912	7140.4875
2941.98513	7168.8875
2944.44962	7144.0875
2946.91261	7100.0875
2949.37409	7116.8875
2951.83407	7110.8875
2954.29254	7111.1875
2956.74951	7097.7875
2959.20498	7100.2875
2961.65895	7087.7875
2964.11142	7091.1875
2966.56239	7074.2875
2969.01186	7072.8875
2971.45984	7087.6875
2973.90632	7092.1875
2976.35131	7086.2875
2978.7948	7031.1875
2981.23681	7034.5875
2983.67732	7041.0875
2986.11635	7008.6875
2988.55388	6980.8875
2990.98993	7001.2875
2993.4245	6988.1875
2995.85758	6967.3875
2998.28917	6973.2875
3000.71928	6936.9875
3003.14791	6925.9875
3005.57506	6916.1875
3008.00073	6888.5875
3010.42493	6894.4875
3012.84764	6873.3875
3015.26888	6865.5875
3017.68865	6844.7875
3020.10694	6843.7875
3022.52376	6841.8875
3024.9391	6852.0875
3027.35298	6832.1875
3029.76539	6814.8875
3032.17632	6807.5875
3034.5858	6798.3875
3036.9938	6795.0875
3039.40034	6771.8875
3041.80542	6772.7875
3044.20903	6752.9875
3046.61118	6783.0875
3049.01187	6759.8875
3051.4111	6743.6875
3053.80888	6725.5875
3056.20519	6720.3875
3058.60005	6700.3875
3060.99345	6681.2875
