Data from AgNPs_APTES_FTO_UA_50uM_CRN_0uM_R6G_10uM_Scan_RamanShift__19__11-33-13-673.txt Node

Date: Tue Jul 05 11:33:13 BST 2022
User: TCL
Spectrometer: QEP01345
Trigger mode: 4
Integration Time (sec): 7.000000E0
Scans to average: 10
Electric dark correction enabled: true
Nonlinearity correction enabled: false
Boxcar width: 0
XAxis mode: Raman Shifts
Number of Pixels in Spectrum: 1044
>>>>>Begin Spectral Data<<<<<
46.04893	0.3875
50.45542	0.1875
54.85868	-1.0125
59.25871	0.4875
63.6555	42.9875
68.04907	41.8875
72.43941	49.2875
76.82654	49.6875
81.21044	49.1875
85.59113	55.6875
89.96862	60.8875
94.34289	57.0875
98.71396	62.7875
103.08183	65.1875
107.4465	62.3875
111.80798	63.2875
116.16626	64.9875
120.52136	61.5875
124.87327	66.9875
129.222	64.0875
133.56755	66.7875
137.90993	67.1875
142.24913	71.2875
146.58517	78.0875
150.91804	86.2875
155.24774	93.0875
159.57429	112.4875
163.89768	133.6875
168.21792	168.2875
172.53501	223.4875
176.84895	298.7875
181.15975	411.8875
185.46741	567.5875
189.77193	768.1875
194.07331	1022.4875
198.37157	1309.4875
202.6667	1614.3875
206.9587	1908.6875
211.24758	2219.3875
215.53334	2526.8875
219.81599	2856.1875
224.09553	3219.1875
228.37195	3615.0875
232.64527	4044.1875
236.91549	4486.7875
241.18261	4928.8875
245.44663	5288.2875
249.70755	5584.0875
253.96539	5820.5875
258.22014	6034.6875
262.4718	6218.1875
266.72039	6330.0875
270.96589	6374.2875
275.20832	6329.4875
279.44768	6243.9875
283.68397	6120.3875
287.91719	5996.4875
292.14735	5949.0875
296.37445	5956.4875
300.59849	6054.7875
304.81948	6149.7875
309.03742	6266.0875
313.25231	6259.4875
317.46415	6106.3875
321.67296	5856.5875
325.87872	5627.1875
330.08145	5494.8875
334.28114	5453.2875
338.47781	5492.3875
342.67145	5587.5875
346.86207	5720.1875
351.04966	5906.2875
355.23424	6105.7875
359.4158	6284.6875
363.59435	6405.1875
367.76989	6457.9875
371.94243	6510.8875
376.11196	6546.3875
380.27849	6552.5875
384.44203	6573.6875
388.60257	6559.1875
392.76012	6540.5875
396.91468	6579.4875
401.06626	6651.0875
405.21485	6699.2875
409.36047	6595.9875
413.50311	6354.4875
417.64277	6143.3875
421.77947	6019.6875
425.9132	5967.2875
430.04396	5986.8875
434.17176	5997.6875
438.2966	6071.2875
442.41849	6148.8875
446.53742	6276.6875
450.6534	6407.4875
454.76644	6462.0875
458.87653	6441.0875
462.98368	6369.4875
467.08789	6284.2875
471.18916	6213.2875
475.2875	6157.1875
479.38291	6103.6875
483.4754	6092.0875
487.56496	6101.2875
491.6516	6134.0875
495.73531	6171.0875
499.81612	6197.3875
503.89401	6256.8875
507.96899	6307.5875
512.04106	6349.2875
516.11023	6423.9875
520.1765	6477.7875
524.23987	6464.6875
528.30034	6440.7875
532.35792	6376.6875
536.41261	6303.8875
540.46441	6194.8875
544.51333	6116.5875
548.55936	6092.8875
552.60252	6166.0875
556.64279	6267.3875
560.6802	6327.8875
564.71473	6348.3875
568.7464	6415.9875
572.7752	6500.7875
576.80114	6439.6875
580.82422	6341.2875
584.84444	6382.1875
588.86181	6495.2875
592.87633	6659.8875
596.888	6780.2875
600.89682	6885.1875
604.9028	7312.9875
608.90594	8590.3875
612.90624	10284.2875
616.90371	9979.4875
620.89834	7879.0875
624.89015	6846.8875
628.87913	6715.6875
632.86528	6856.0875
636.84862	7003.8875
640.82913	6971.2875
644.80683	6689.6875
648.78172	6432.3875
652.75379	6300.7875
656.72306	6364.1875
660.68952	6501.4875
664.65319	6420.7875
668.61405	6181.3875
672.57211	6100.4875
676.52738	6146.4875
680.47986	6244.1875
684.42955	6332.9875
688.37646	6330.9875
692.32058	6287.3875
696.26192	6196.9875
700.20048	6158.9875
704.13626	6144.8875
708.06928	6121.3875
711.99952	6098.5875
715.927	6053.8875
719.85171	6077.9875
723.77365	6109.2875
727.69284	6091.7875
731.60928	6046.5875
735.52295	6031.8875
739.43388	6026.0875
743.34206	6035.1875
747.24749	6037.7875
751.15017	6043.6875
755.05012	6082.6875
758.94733	6224.5875
762.8418	6666.7875
766.73354	7437.4875
770.62254	8355.7875
774.50882	8860.6875
778.39237	8480.7875
782.27321	7604.3875
786.15132	6765.2875
790.02671	6317.9875
793.89938	6089.6875
797.76935	6008.4875
801.6366	6012.5875
805.50115	6053.5875
809.36299	6102.1875
813.22213	6106.7875
817.07857	6060.1875
820.93231	6000.1875
824.78336	5919.8875
828.63172	5888.6875
832.47738	5835.4875
836.32036	5826.3875
840.16066	5789.8875
843.99827	5812.8875
847.8332	5814.4875
851.66546	5778.3875
855.49504	5772.2875
859.32195	5779.1875
863.1462	5774.5875
866.96777	5769.1875
870.78668	5811.2875
874.60293	5865.8875
878.41652	5923.7875
882.22745	5985.7875
886.03573	6039.4875
889.84136	6052.6875
893.64433	6046.6875
897.44466	6003.6875
901.24235	5943.2875
905.0374	5888.2875
908.8298	5881.4875
912.61957	5884.1875
916.40671	5940.4875
920.19121	6003.7875
923.97308	6103.1875
927.75233	6213.1875
931.52895	6228.1875
935.30295	6165.2875
939.07433	5990.6875
942.84309	5817.9875
946.60924	5681.4875
950.37278	5595.2875
954.13371	5501.3875
957.89203	5445.7875
961.64774	5389.7875
965.40086	5318.5875
969.15137	5270.3875
972.89929	5224.1875
976.64461	5183.3875
980.38733	5159.1875
984.12747	5144.4875
987.86502	5138.8875
991.59999	5142.2875
995.33237	5155.7875
999.06217	5225.2875
1002.78939	5300.3875
1006.51404	5396.6875
1010.23611	5485.9875
1013.95561	5538.5875
1017.67255	5552.4875
1021.38692	5511.1875
1025.09872	5426.6875
1028.80796	5336.4875
1032.51465	5260.9875
1036.21877	5229.8875
1039.92035	5217.8875
1043.61937	5242.0875
1047.31584	5244.0875
1051.00976	5265.7875
1054.70114	5273.1875
1058.38998	5305.0875
1062.07627	5315.5875
1065.76003	5328.9875
1069.44126	5328.1875
1073.11995	5346.8875
1076.79611	5389.1875
1080.46974	5420.2875
1084.14085	5451.8875
1087.80943	5538.9875
1091.47549	5581.0875
1095.13903	5527.8875
1098.80005	5373.3875
1102.45857	5249.5875
1106.11456	5206.0875
1109.76805	5213.5875
1113.41903	5317.6875
1117.06751	5472.8875
1120.71348	5709.4875
1124.35696	5966.9875
1127.99793	6267.2875
1131.63641	6433.1875
1135.2724	6316.4875
1138.90589	6098.7875
1142.5369	5862.3875
1146.16542	5656.6875
1149.79145	5451.6875
1153.415	5338.9875
1157.03607	5260.7875
1160.65467	5267.7875
1164.27079	5395.8875
1167.88443	5601.0875
1171.49561	5949.0875
1175.10432	6524.5875
1178.71056	7348.9875
1182.31434	8042.5875
1185.91565	8213.6875
1189.51451	7952.6875
1193.11091	7473.9875
1196.70485	7033.4875
1200.29634	6672.0875
1203.88538	6418.2875
1207.47197	6087.4875
1211.05612	5788.9875
1214.63782	5560.4875
1218.21708	5470.5875
1221.79391	5433.4875
1225.36829	5447.3875
1228.94024	5435.6875
1232.50976	5393.9875
1236.07685	5322.5875
1239.6415	5270.2875
1243.20374	5276.2875
1246.76355	5286.2875
1250.32093	5332.3875
1253.8759	5384.8875
1257.42845	5516.8875
1260.97859	5666.2875
1264.52631	5827.3875
1268.07163	6011.1875
1271.61453	6166.3875
1275.15503	6262.8875
1278.69312	6316.1875
1282.22882	6351.5875
1285.76211	6438.1875
1289.29301	6640.1875
1292.82151	6893.4875
1296.34761	7157.1875
1299.87133	7514.3875
1303.39266	8063.9875
1306.9116	8825.1875
1310.42815	9726.7875
1313.94233	10280.5875
1317.45412	10139.1875
1320.96354	9486.2875
1324.47058	8710.4875
1327.97525	8046.0875
1331.47754	7531.0875
1334.97747	7269.7875
1338.47502	7218.5875
1341.97022	7290.5875
1345.46305	7543.0875
1348.95352	8097.1875
1352.44163	8883.1875
1355.92738	9943.9875
1359.41078	11400.6875
1362.89183	12917.6875
1366.37053	13105.5875
1369.84688	11523.5875
1373.32088	9491.4875
1376.79254	8128.4875
1380.26186	7452.0875
1383.72883	7151.4875
1387.19347	6890.1875
1390.65578	6656.6875
1394.11575	6451.1875
1397.57339	6328.8875
1401.0287	6235.3875
1404.48168	6195.1875
1407.93234	6075.9875
1411.38068	5962.3875
1414.82669	5842.0875
1418.27039	5737.8875
1421.71177	5674.3875
1425.15083	5566.8875
1428.58758	5470.7875
1432.02203	5453.0875
1435.45416	5482.6875
1438.88399	5515.2875
1442.31151	5539.3875
1445.73673	5522.5875
1449.15965	5548.5875
1452.58027	5531.8875
1455.9986	5473.7875
1459.41463	5434.4875
1462.82837	5446.9875
1466.23982	5553.6875
1469.64898	5660.7875
1473.05586	5734.6875
1476.46045	5770.1875
1479.86276	5820.9875
1483.26279	5912.7875
1486.66054	6005.0875
1490.05602	6173.9875
1493.44922	6452.0875
1496.84016	6840.3875
1500.22882	7495.0875
1503.61521	8439.3875
1506.99934	9603.7875
1510.38121	10696.9875
1513.76081	11155.5875
1517.13816	10627.9875
1520.51324	9324.0875
1523.88607	8022.9875
1527.25665	7123.7875
1530.62498	6623.2875
1533.99105	6326.3875
1537.35488	6144.3875
1540.71647	5998.8875
1544.07581	5883.8875
1547.4329	5866.7875
1550.78776	5846.7875
1554.14038	5897.0875
1557.49077	5968.5875
1560.83892	6061.7875
1564.18484	6232.6875
1567.52853	6408.4875
1570.86999	6619.7875
1574.20922	6756.1875
1577.54624	6741.9875
1580.88103	6483.2875
1584.2136	6036.3875
1587.54395	5700.2875
1590.87208	5624.7875
1594.19801	5758.7875
1597.52172	6097.6875
1600.84321	6304.6875
1604.16251	6201.6875
1607.47959	5911.1875
1610.79447	5617.0875
1614.10715	5302.8875
1617.41763	5082.0875
1620.7259	4910.1875
1624.03199	4826.0875
1627.33587	4851.3875
1630.63757	4906.6875
1633.93707	5067.9875
1637.23439	5365.8875
1640.52951	5863.4875
1643.82246	6613.5875
1647.11321	7531.4875
1650.40179	8211.6875
1653.68819	8151.6875
1656.97241	7258.0875
1660.25446	6152.5875
1663.53433	5317.9875
1666.81203	4790.1875
1670.08756	4492.2875
1673.36092	4289.4875
1676.63211	4176.1875
1679.90115	4087.5875
1683.16801	4017.0875
1686.43272	3972.8875
1689.69527	3943.6875
1692.95567	3918.3875
1696.2139	3880.9875
1699.46999	3838.4875
1702.72392	3803.4875
1705.97571	3743.3875
1709.22535	3694.3875
1712.47284	3643.0875
1715.71819	3575.5875
1718.96139	3541.2875
1722.20246	3487.6875
1725.44139	3432.5875
1728.67818	3381.2875
1731.91284	3354.3875
1735.14537	3306.6875
1738.37576	3269.2875
1741.60403	3224.5875
1744.83017	3229.3875
1748.05418	3197.2875
1751.27607	3180.9875
1754.49584	3165.7875
1757.71349	3144.0875
1760.92903	3126.6875
1764.14244	3111.0875
1767.35375	3102.6875
1770.56294	3081.7875
1773.77002	3056.1875
1776.97499	3056.4875
1780.17785	3030.9875
1783.37861	3041.2875
1786.57727	3026.3875
1789.77382	3019.8875
1792.96828	3009.9875
1796.16064	2995.6875
1799.3509	2983.9875
1802.53907	2967.3875
1805.72514	2941.5875
1808.90913	2933.7875
1812.09102	2935.2875
1815.27083	2916.7875
1818.44856	2902.7875
1821.6242	2891.8875
1824.79776	2886.6875
1827.96924	2867.1875
1831.13864	2883.3875
1834.30597	2862.2875
1837.47122	2864.9875
1840.6344	2846.7875
1843.7955	2846.8875
1846.95454	2832.8875
1850.11151	2831.0875
1853.26642	2821.5875
1856.41926	2812.8875
1859.57004	2805.9875
1862.71876	2790.2875
1865.86542	2798.3875
1869.01003	2800.0875
1872.15258	2789.4875
1875.29308	2774.5875
1878.43152	2772.0875
1881.56792	2762.4875
1884.70227	2759.3875
1887.83457	2744.2875
1890.96482	2748.6875
1894.09304	2739.8875
1897.21921	2734.4875
1900.34335	2719.5875
1903.46544	2726.9875
1906.58551	2718.5875
1909.70353	2716.9875
1912.81953	2709.9875
1915.93349	2708.9875
1919.04543	2689.7875
1922.15534	2692.8875
1925.26322	2667.4875
1928.36908	2663.5875
1931.47292	2656.3875
1934.57473	2628.4875
1937.67453	2614.6875
1940.77232	2600.1875
1943.86808	2597.2875
1946.96184	2579.7875
1950.05358	2576.1875
1953.14331	2559.7875
1956.23103	2549.9875
1959.31675	2550.4875
1962.40046	2532.4875
1965.48217	2526.6875
1968.56188	2520.5875
1971.63959	2515.5875
1974.7153	2500.9875
1977.78901	2494.8875
1980.86073	2486.0875
1983.93046	2465.7875
1986.99819	2457.1875
1990.06394	2453.7875
1993.1277	2436.3875
1996.18947	2430.3875
1999.24925	2416.8875
2002.30706	2406.1875
2005.36288	2387.5875
2008.41672	2379.6875
2011.46859	2365.6875
2014.51848	2358.6875
2017.56639	2353.4875
2020.61233	2354.4875
2023.6563	2344.0875
2026.6983	2319.6875
2029.73833	2324.1875
2032.7764	2306.3875
2035.8125	2296.6875
2038.84664	2293.2875
2041.87881	2291.8875
2044.90903	2280.0875
2047.93729	2279.7875
2050.96359	2272.8875
2053.98794	2276.4875
2057.01034	2256.6875
2060.03078	2252.8875
2063.04927	2261.8875
2066.06582	2240.3875
2069.08042	2238.7875
2072.09307	2221.6875
2075.10378	2232.6875
2078.11255	2239.7875
2081.11938	2238.0875
2084.12426	2237.5875
2087.12722	2234.0875
2090.12824	2215.9875
2093.12732	2217.6875
2096.12447	2209.0875
2099.11969	2214.2875
2102.11299	2212.1875
2105.10435	2205.8875
2108.09379	2199.7875
2111.08131	2198.9875
2114.0669	2201.9875
2117.05057	2208.2875
2120.03233	2203.8875
2123.01216	2208.6875
2125.99008	2192.9875
2128.96609	2202.0875
2131.94018	2195.7875
2134.91236	2190.9875
2137.88263	2193.7875
2140.851	2195.1875
2143.81746	2192.9875
2146.78201	2190.4875
2149.74466	2182.4875
2152.7054	2176.4875
2155.66425	2168.6875
2158.6212	2162.0875
2161.57625	2167.1875
2164.52941	2145.4875
2167.48067	2147.1875
2170.43004	2147.4875
2173.37752	2143.3875
2176.32311	2141.8875
2179.26681	2136.7875
2182.20863	2127.6875
2185.14856	2142.4875
2188.08661	2136.0875
2191.02278	2130.4875
2193.95707	2119.6875
2196.88948	2118.1875
2199.82001	2123.9875
2202.74867	2109.2875
2205.67545	2108.4875
2208.60037	2100.2875
2211.52341	2081.5875
2214.44458	2088.8875
2217.36388	2074.8875
2220.28132	2067.2875
2223.1969	2068.9875
2226.11061	2062.8875
2229.02246	2048.4875
2231.93245	2033.2875
2234.84058	2037.0875
2237.74686	2039.1875
2240.65128	2030.0875
2243.55385	2028.1875
2246.45456	2020.8875
2249.35343	2017.3875
2252.25044	2015.5875
2255.14561	2008.4875
2258.03893	2002.7875
2260.93041	1983.7875
2263.82004	1991.4875
2266.70783	1988.8875
2269.59378	1966.5875
2272.4779	1966.2875
2275.36017	1967.2875
2278.24061	1950.7875
2281.11922	1954.3875
2283.996	1946.9875
2286.87094	1951.6875
2289.74405	1931.6875
2292.61534	1928.4875
2295.4848	1904.5875
2298.35243	1906.8875
2301.21824	1908.0875
2304.08223	1908.3875
2306.94439	1898.8875
2309.80474	1912.0875
2312.66327	1900.3875
2315.51999	1908.4875
2318.37489	1887.6875
2321.22797	1887.5875
2324.07925	1889.3875
2326.92871	1871.1875
2329.77637	1881.0875
2332.62222	1871.5875
2335.46626	1867.2875
2338.3085	1854.5875
2341.14893	1859.9875
2343.98756	1848.9875
2346.8244	1845.0875
2349.65943	1851.0875
2352.49267	1852.4875
2355.32411	1840.9875
2358.15376	1857.0875
2360.98161	1856.2875
2363.80768	1859.7875
2366.63195	1863.6875
2369.45444	1856.8875
2372.27514	1858.6875
2375.09405	1853.5875
2377.91118	1845.0875
2380.72652	1836.8875
2383.54009	1830.3875
2386.35187	1809.6875
2389.16188	1803.8875
2391.97011	1802.4875
2394.77657	1792.6875
2397.58125	1765.8875
2400.38416	1776.8875
2403.18529	1765.7875
2405.98466	1760.6875
2408.78226	1755.4875
2411.57809	1748.0875
2414.37216	1744.3875
2417.16446	1745.7875
2419.955	1739.8875
2422.74378	1737.9875
2425.5308	1731.2875
2428.31606	1735.4875
2431.09956	1733.9875
2433.88131	1725.0875
2436.6613	1718.6875
2439.43954	1729.0875
2442.21603	1729.6875
2444.99077	1716.1875
2447.76377	1713.9875
2450.53501	1720.5875
2453.30451	1710.7875
2456.07226	1710.5875
2458.83827	1698.9875
2461.60254	1703.8875
2464.36507	1695.3875
2467.12586	1697.2875
2469.88492	1692.5875
2472.64224	1686.4875
2475.39782	1686.2875
2478.15167	1695.4875
2480.90379	1697.3875
2483.65417	1688.9875
2486.40283	1690.0875
2489.14976	1695.8875
2491.89497	1690.9875
2494.63845	1691.1875
2497.3802	1684.1875
2500.12024	1683.7875
2502.85855	1682.4875
2505.59514	1686.2875
2508.33002	1665.9875
2511.06318	1659.3875
2513.79462	1635.9875
2516.52435	1626.9875
2519.25237	1629.6875
2521.97867	1625.0875
2524.70327	1609.4875
2527.42616	1609.6875
2530.14734	1605.9875
2532.86681	1600.2875
2535.58458	1590.2875
2538.30065	1595.3875
2541.01501	1589.4875
2543.72768	1593.9875
2546.43864	1585.3875
2549.14791	1577.9875
2551.85548	1581.3875
2554.56136	1592.1875
2557.26554	1576.9875
2559.96803	1570.4875
2562.66883	1565.9875
2565.36794	1565.4875
2568.06536	1557.9875
2570.7611	1555.6875
2573.45514	1556.6875
2576.14751	1541.2875
2578.83819	1545.0875
2581.52719	1538.1875
2584.21451	1528.8875
2586.90015	1523.9875
2589.58411	1527.3875
2592.2664	1530.3875
2594.94701	1521.7875
2597.62594	1519.6875
2600.30321	1503.7875
2602.9788	1508.0875
2605.65273	1496.3875
2608.32498	1503.5875
2610.99557	1506.2875
2613.66449	1492.7875
2616.33175	1495.2875
2618.99734	1493.4875
2621.66128	1487.1875
2624.32355	1484.3875
2626.98416	1493.1875
2629.64311	1472.7875
2632.30041	1477.1875
2634.95605	1462.7875
2637.61004	1477.7875
2640.26238	1466.7875
2642.91306	1462.0875
2645.56209	1462.0875
2648.20948	1457.0875
2650.85521	1457.1875
2653.4993	1457.1875
2656.14175	1446.2875
2658.78255	1456.5875
2661.42171	1457.9875
2664.05923	1455.8875
2666.6951	1452.0875
2669.32934	1462.1875
2671.96194	1461.3875
2674.59291	1454.4875
2677.22224	1443.9875
2679.84993	1457.5875
2682.476	1453.0875
2685.10043	1452.3875
2687.72324	1443.7875
2690.34441	1454.4875
2692.96396	1451.3875
2695.58188	1446.7875
2698.19818	1441.3875
2700.81285	1444.4875
2703.4259	1429.6875
2706.03733	1424.5875
2708.64714	1430.0875
2711.25533	1440.3875
2713.86191	1435.6875
2716.46687	1441.6875
2719.07021	1442.8875
2721.67194	1443.7875
2724.27206	1436.9875
2726.87057	1441.4875
2729.46747	1442.0875
2732.06276	1443.1875
2734.65644	1440.7875
2737.24852	1435.6875
2739.83899	1426.6875
2742.42786	1431.0875
2745.01513	1414.4875
2747.60079	1416.0875
2750.18486	1416.5875
2752.76733	1423.4875
2755.3482	1406.5875
2757.92747	1412.2875
2760.50515	1410.2875
2763.08123	1410.0875
2765.65573	1413.9875
2768.22863	1399.8875
2770.79994	1389.6875
2773.36967	1396.6875
2775.9378	1384.7875
2778.50435	1384.9875
2781.06932	1380.6875
2783.6327	1387.8875
2786.1945	1384.5875
2788.75471	1380.2875
2791.31335	1379.5875
2793.87041	1383.8875
2796.42589	1383.9875
2798.97979	1375.9875
2801.53212	1372.4875
2804.08288	1362.1875
2806.63206	1367.5875
2809.17967	1365.5875
2811.72571	1357.8875
2814.27018	1353.5875
2816.81308	1351.0875
2819.35442	1350.5875
2821.89419	1344.3875
2824.43239	1349.3875
2826.96904	1350.4875
2829.50412	1345.0875
2832.03763	1347.8875
2834.56959	1352.8875
2837.1	1356.8875
2839.62884	1349.4875
2842.15613	1367.7875
2844.68186	1374.3875
2847.20604	1383.4875
2849.72867	1400.0875
2852.24974	1403.7875
2854.76927	1398.8875
2857.28724	1396.7875
2859.80367	1404.8875
2862.31855	1399.4875
2864.83189	1412.1875
2867.34368	1402.4875
2869.85393	1408.7875
2872.36264	1399.0875
2874.8698	1410.6875
2877.37543	1403.3875
2879.87952	1407.0875
2882.38207	1408.1875
2884.88308	1416.9875
2887.38256	1404.2875
2889.88051	1396.9875
2892.37692	1397.7875
2894.8718	1403.2875
2897.36515	1409.1875
2899.85698	1416.1875
2902.34727	1416.5875
2904.83604	1426.0875
2907.32328	1431.8875
2909.809	1433.3875
2912.29319	1438.1875
2914.77587	1438.1875
2917.25702	1449.2875
2919.73665	1444.7875
2922.21476	1448.9875
2924.69136	1453.9875
2927.16644	1446.5875
2929.64	1447.2875
2932.11205	1442.3875
2934.58258	1434.3875
2937.05161	1430.2875
2939.51912	1431.8875
2941.98513	1426.6875
2944.44962	1410.1875
2946.91261	1393.7875
2949.37409	1395.2875
2951.83407	1382.0875
2954.29254	1364.0875
2956.74951	1363.7875
2959.20498	1353.2875
2961.65895	1345.6875
2964.11142	1341.3875
2966.56239	1333.2875
2969.01186	1299.2875
2971.45984	1314.1875
2973.90632	1322.0875
2976.35131	1307.5875
2978.7948	1306.0875
2981.23681	1300.1875
2983.67732	1297.8875
2986.11635	1289.9875
2988.55388	1284.1875
2990.98993	1282.3875
2993.4245	1280.7875
2995.85758	1274.7875
2998.28917	1280.9875
3000.71928	1282.3875
3003.14791	1271.0875
3005.57506	1275.8875
3008.00073	1271.8875
3010.42493	1269.1875
3012.84764	1269.0875
3015.26888	1265.1875
3017.68865	1268.2875
3020.10694	1259.4875
3022.52376	1262.3875
3024.9391	1268.1875
3027.35298	1260.9875
3029.76539	1257.9875
3032.17632	1257.4875
3034.5858	1254.8875
3036.9938	1262.2875
3039.40034	1259.3875
3041.80542	1261.0875
3044.20903	1256.2875
3046.61118	1259.1875
3049.01187	1256.3875
3051.4111	1252.6875
3053.80888	1256.6875
3056.20519	1261.5875
3058.60005	1251.8875
3060.99345	1263.9875
3063.3854	1253.6875
3065.7759	1263.0875
3068.16494	1265.0875
3070.55254	1257.7875
3072.93868	1261.6875
3075.32338	1265.1875
3077.70662	1264.3875
3080.08842	1260.7875
3082.46878	1251.6875
3084.84769	1253.3875
3087.22515	1268.2875
3089.60118	1271.6875
3091.97576	1263.8875
3094.3489	1273.4875
3096.72061	1270.2875
3099.09087	1280.3875
3101.4597	1284.4875
3103.82709	1290.5875
3106.19305	1298.6875
3108.55757	1306.0875
3110.92066	1305.6875
3113.28232	1302.6875
3115.64255	1302.0875
3118.00134	1305.1875
3120.35871	1303.2875
3122.71466	1310.6875
3125.06917	1330.1875
