Data from AgNPs_APTES_FTO_UA_50uM_CRN_0uM_R6G_10uM_Scan_RamanShift__41__11-58-53-704.txt Node

Date: Tue Jul 05 11:58:53 BST 2022
User: TCL
Spectrometer: QEP01345
Trigger mode: 4
Integration Time (sec): 7.000000E0
Scans to average: 10
Electric dark correction enabled: true
Nonlinearity correction enabled: false
Boxcar width: 0
XAxis mode: Raman Shifts
Number of Pixels in Spectrum: 1044
>>>>>Begin Spectral Data<<<<<
46.04893	-1.4125
50.45542	-0.0125
54.85868	0.3875
59.25871	1.2875
63.6555	35.6875
68.04907	42.6875
72.43941	44.6875
76.82654	48.8875
81.21044	51.8875
85.59113	55.1875
89.96862	55.9875
94.34289	58.3875
98.71396	58.8875
103.08183	63.9875
107.4465	63.0875
111.80798	63.5875
116.16626	58.4875
120.52136	60.9875
124.87327	61.9875
129.222	62.1875
133.56755	65.2875
137.90993	59.4875
142.24913	68.3875
146.58517	68.7875
150.91804	73.1875
155.24774	82.5875
159.57429	91.5875
163.89768	112.0875
168.21792	136.8875
172.53501	170.4875
176.84895	225.7875
181.15975	303.7875
185.46741	412.4875
189.77193	555.0875
194.07331	724.0875
198.37157	919.0875
202.6667	1116.5875
206.9587	1320.6875
211.24758	1514.1875
215.53334	1710.7875
219.81599	1906.4875
224.09553	2155.0875
228.37195	2399.2875
232.64527	2664.3875
236.91549	2937.6875
241.18261	3176.9875
245.44663	3344.6875
249.70755	3482.0875
253.96539	3589.1875
258.22014	3668.4875
262.4718	3752.6875
266.72039	3785.3875
270.96589	3811.5875
275.20832	3789.3875
279.44768	3718.7875
283.68397	3650.3875
287.91719	3595.9875
292.14735	3602.2875
296.37445	3670.8875
300.59849	3820.6875
304.81948	3991.4875
309.03742	4104.9875
313.25231	4083.3875
317.46415	3874.7875
321.67296	3550.0875
325.87872	3262.2875
330.08145	3145.7875
334.28114	3102.0875
338.47781	3138.2875
342.67145	3225.5875
346.86207	3372.3875
351.04966	3614.8875
355.23424	3860.7875
359.4158	4087.2875
363.59435	4207.9875
367.76989	4278.5875
371.94243	4308.8875
376.11196	4314.4875
380.27849	4325.6875
384.44203	4272.0875
388.60257	4214.6875
392.76012	4171.9875
396.91468	4190.4875
401.06626	4285.6875
405.21485	4306.1875
409.36047	4204.6875
413.50311	3917.1875
417.64277	3657.3875
421.77947	3503.6875
425.9132	3434.0875
430.04396	3409.3875
434.17176	3415.9875
438.2966	3510.5875
442.41849	3619.0875
446.53742	3771.8875
450.6534	3901.9875
454.76644	3960.5875
458.87653	3947.4875
462.98368	3874.0875
467.08789	3802.0875
471.18916	3722.1875
475.2875	3643.1875
479.38291	3613.9875
483.4754	3641.7875
487.56496	3709.4875
491.6516	3825.6875
495.73531	3886.0875
499.81612	3849.9875
503.89401	3791.5875
507.96899	3753.6875
512.04106	3802.6875
516.11023	3937.9875
520.1765	4074.5875
524.23987	4123.5875
528.30034	4083.9875
532.35792	3976.3875
536.41261	3791.3875
540.46441	3592.2875
544.51333	3450.0875
548.55936	3384.1875
552.60252	3413.1875
556.64279	3458.1875
560.6802	3483.9875
564.71473	3516.7875
568.7464	3643.6875
572.7752	3711.3875
576.80114	3598.0875
580.82422	3515.9875
584.84444	3543.9875
588.86181	3682.6875
592.87633	3812.8875
596.888	3869.9875
600.89682	3918.1875
604.9028	4391.6875
608.90594	5773.1875
612.90624	7547.9875
616.90371	7416.5875
620.89834	5609.4875
624.89015	4981.5875
628.87913	5207.3875
632.86528	5587.3875
636.84862	5803.4875
640.82913	5626.6875
644.80683	5125.4875
648.78172	4580.7875
652.75379	4171.8875
656.72306	4038.0875
660.68952	4007.2875
664.65319	3808.9875
668.61405	3513.1875
672.57211	3372.0875
676.52738	3367.8875
680.47986	3363.6875
684.42955	3348.0875
688.37646	3337.3875
692.32058	3337.9875
696.26192	3364.7875
700.20048	3382.8875
704.13626	3419.3875
708.06928	3390.3875
711.99952	3359.8875
715.927	3370.2875
719.85171	3438.9875
723.77365	3518.1875
727.69284	3521.1875
731.60928	3450.6875
735.52295	3390.7875
739.43388	3352.8875
743.34206	3349.8875
747.24749	3351.9875
751.15017	3368.5875
755.05012	3401.2875
758.94733	3590.9875
762.8418	4027.4875
766.73354	4761.2875
770.62254	5543.4875
774.50882	6033.9875
778.39237	5824.0875
782.27321	4962.4875
786.15132	4100.5875
790.02671	3628.8875
793.89938	3472.0875
797.76935	3452.1875
801.6366	3623.9875
805.50115	3894.2875
809.36299	4131.4875
813.22213	4192.4875
817.07857	4046.2875
820.93231	3805.2875
824.78336	3548.4875
828.63172	3361.1875
832.47738	3242.1875
836.32036	3180.2875
840.16066	3122.3875
843.99827	3083.8875
847.8332	3076.3875
851.66546	3061.2875
855.49504	3056.8875
859.32195	3060.7875
863.1462	3080.3875
866.96777	3138.3875
870.78668	3270.2875
874.60293	3443.5875
878.41652	3666.2875
882.22745	3855.3875
886.03573	3994.8875
889.84136	3973.6875
893.64433	3814.5875
897.44466	3596.1875
901.24235	3370.8875
905.0374	3178.0875
908.8298	3055.3875
912.61957	2981.7875
916.40671	2943.5875
920.19121	2934.1875
923.97308	2948.1875
927.75233	2971.8875
931.52895	3004.5875
935.30295	2969.1875
939.07433	2857.9875
942.84309	2769.1875
946.60924	2702.5875
950.37278	2665.4875
954.13371	2639.0875
957.89203	2637.3875
961.64774	2614.5875
965.40086	2595.2875
969.15137	2586.7875
972.89929	2571.3875
976.64461	2569.7875
980.38733	2572.2875
984.12747	2572.6875
987.86502	2594.6875
991.59999	2632.3875
995.33237	2694.0875
999.06217	2805.7875
1002.78939	2948.9875
1006.51404	3098.5875
1010.23611	3237.3875
1013.95561	3340.3875
1017.67255	3363.1875
1021.38692	3287.4875
1025.09872	3161.5875
1028.80796	3039.2875
1032.51465	2941.9875
1036.21877	2929.5875
1039.92035	2938.2875
1043.61937	2928.1875
1047.31584	2888.0875
1051.00976	2880.2875
1054.70114	2881.4875
1058.38998	2920.0875
1062.07627	2971.9875
1065.76003	3043.8875
1069.44126	3094.3875
1073.11995	3138.9875
1076.79611	3172.3875
1080.46974	3216.2875
1084.14085	3256.6875
1087.80943	3268.6875
1091.47549	3244.1875
1095.13903	3113.6875
1098.80005	2940.0875
1102.45857	2854.5875
1106.11456	2852.8875
1109.76805	2956.9875
1113.41903	3124.8875
1117.06751	3386.9875
1120.71348	3764.6875
1124.35696	4259.1875
1127.99793	4777.8875
1131.63641	5098.6875
1135.2724	5101.2875
1138.90589	4915.5875
1142.5369	4639.3875
1146.16542	4236.4875
1149.79145	3850.6875
1153.415	3501.8875
1157.03607	3272.2875
1160.65467	3172.9875
1164.27079	3197.2875
1167.88443	3319.3875
1171.49561	3631.2875
1175.10432	4192.9875
1178.71056	4968.8875
1182.31434	5633.6875
1185.91565	5929.0875
1189.51451	5946.4875
1193.11091	5875.7875
1196.70485	5776.1875
1200.29634	5707.1875
1203.88538	5568.6875
1207.47197	5210.9875
1211.05612	4780.1875
1214.63782	4414.2875
1218.21708	4082.7875
1221.79391	3826.2875
1225.36829	3602.2875
1228.94024	3444.1875
1232.50976	3326.9875
1236.07685	3285.0875
1239.6415	3299.1875
1243.20374	3335.6875
1246.76355	3376.9875
1250.32093	3425.5875
1253.8759	3502.8875
1257.42845	3616.1875
1260.97859	3722.5875
1264.52631	3840.5875
1268.07163	3950.8875
1271.61453	4029.2875
1275.15503	4059.5875
1278.69312	4042.4875
1282.22882	4010.9875
1285.76211	4071.7875
1289.29301	4237.5875
1292.82151	4452.2875
1296.34761	4687.7875
1299.87133	5014.7875
1303.39266	5507.4875
1306.9116	6214.9875
1310.42815	7014.8875
1313.94233	7426.9875
1317.45412	7254.4875
1320.96354	6644.4875
1324.47058	5980.7875
1327.97525	5436.5875
1331.47754	5114.1875
1334.97747	5056.3875
1338.47502	5206.5875
1341.97022	5446.4875
1345.46305	5799.0875
1348.95352	6376.0875
1352.44163	7161.3875
1355.92738	8241.4875
1359.41078	9518.1875
1362.89183	10406.1875
1366.37053	9979.8875
1369.84688	8580.9875
1373.32088	7175.6875
1376.79254	6080.8875
1380.26186	5440.9875
1383.72883	5029.5875
1387.19347	4712.5875
1390.65578	4377.5875
1394.11575	4151.9875
1397.57339	3983.1875
1401.0287	3893.2875
1404.48168	3804.5875
1407.93234	3713.0875
1411.38068	3644.2875
1414.82669	3574.9875
1418.27039	3511.7875
1421.71177	3426.8875
1425.15083	3359.8875
1428.58758	3336.4875
1432.02203	3362.7875
1435.45416	3409.2875
1438.88399	3441.0875
1442.31151	3417.4875
1445.73673	3414.0875
1449.15965	3404.7875
1452.58027	3382.2875
1455.9986	3288.4875
1459.41463	3261.0875
1462.82837	3285.5875
1466.23982	3384.0875
1469.64898	3486.7875
1473.05586	3580.4875
1476.46045	3670.5875
1479.86276	3802.7875
1483.26279	3983.8875
1486.66054	4164.0875
1490.05602	4381.6875
1493.44922	4675.9875
1496.84016	5122.2875
1500.22882	5782.0875
1503.61521	6628.2875
1506.99934	7471.8875
1510.38121	8170.1875
1513.76081	8355.6875
1517.13816	7770.4875
1520.51324	6636.1875
1523.88607	5576.3875
1527.25665	4909.6875
1530.62498	4607.8875
1533.99105	4480.7875
1537.35488	4443.0875
1540.71647	4473.0875
1544.07581	4532.0875
1547.4329	4586.3875
1550.78776	4629.4875
1554.14038	4622.4875
1557.49077	4607.9875
1560.83892	4622.6875
1564.18484	4699.5875
1567.52853	4872.6875
1570.86999	5095.7875
1574.20922	5267.1875
1577.54624	5274.1875
1580.88103	5007.7875
1584.2136	4565.3875
1587.54395	4293.7875
1590.87208	4259.8875
1594.19801	4435.7875
1597.52172	4765.6875
1600.84321	4974.8875
1604.16251	4909.3875
1607.47959	4657.0875
1610.79447	4380.3875
1614.10715	4080.3875
1617.41763	3870.3875
1620.7259	3765.8875
1624.03199	3728.6875
1627.33587	3776.5875
1630.63757	3880.6875
1633.93707	4088.7875
1637.23439	4419.3875
1640.52951	4947.4875
1643.82246	5625.2875
1647.11321	6421.2875
1650.40179	7056.8875
1653.68819	7014.6875
1656.97241	6270.6875
1660.25446	5294.4875
1663.53433	4501.9875
1666.81203	3911.2875
1670.08756	3464.9875
1673.36092	3162.6875
1676.63211	2899.4875
1679.90115	2745.7875
1683.16801	2625.0875
1686.43272	2527.3875
1689.69527	2433.4875
1692.95567	2365.1875
1696.2139	2302.3875
1699.46999	2256.1875
1702.72392	2199.2875
1705.97571	2132.9875
1709.22535	2101.1875
1712.47284	2057.3875
1715.71819	2043.8875
1718.96139	2018.3875
1722.20246	1991.1875
1725.44139	1962.7875
1728.67818	1930.3875
1731.91284	1909.6875
1735.14537	1878.5875
1738.37576	1852.9875
1741.60403	1827.2875
1744.83017	1817.6875
1748.05418	1807.1875
1751.27607	1801.1875
1754.49584	1795.4875
1757.71349	1790.9875
1760.92903	1777.2875
1764.14244	1766.6875
1767.35375	1755.9875
1770.56294	1750.4875
1773.77002	1719.3875
1776.97499	1705.7875
1780.17785	1708.4875
1783.37861	1698.4875
1786.57727	1691.0875
1789.77382	1669.3875
1792.96828	1667.4875
1796.16064	1660.5875
1799.3509	1654.5875
1802.53907	1648.9875
1805.72514	1638.5875
1808.90913	1622.5875
1812.09102	1619.8875
1815.27083	1607.9875
1818.44856	1606.5875
1821.6242	1596.8875
1824.79776	1593.1875
1827.96924	1588.9875
1831.13864	1584.9875
1834.30597	1575.7875
1837.47122	1568.3875
1840.6344	1556.2875
1843.7955	1565.5875
1846.95454	1543.7875
1850.11151	1550.2875
1853.26642	1542.3875
1856.41926	1547.0875
1859.57004	1533.3875
1862.71876	1525.5875
1865.86542	1533.0875
1869.01003	1529.3875
1872.15258	1513.7875
1875.29308	1528.6875
1878.43152	1519.2875
1881.56792	1519.1875
1884.70227	1511.5875
1887.83457	1502.5875
1890.96482	1496.6875
1894.09304	1485.6875
1897.21921	1491.0875
1900.34335	1495.5875
1903.46544	1491.7875
1906.58551	1481.0875
1909.70353	1486.8875
1912.81953	1481.6875
1915.93349	1479.3875
1919.04543	1474.0875
1922.15534	1464.8875
1925.26322	1471.0875
1928.36908	1456.6875
1931.47292	1460.3875
1934.57473	1441.8875
1937.67453	1445.7875
1940.77232	1436.4875
1943.86808	1425.2875
1946.96184	1419.2875
1950.05358	1420.7875
1953.14331	1413.0875
1956.23103	1399.7875
1959.31675	1401.4875
1962.40046	1397.5875
1965.48217	1395.9875
1968.56188	1390.4875
1971.63959	1386.6875
1974.7153	1386.9875
1977.78901	1377.0875
1980.86073	1376.9875
1983.93046	1364.7875
1986.99819	1354.6875
1990.06394	1351.2875
1993.1277	1351.4875
1996.18947	1342.6875
1999.24925	1335.6875
2002.30706	1325.3875
2005.36288	1324.0875
2008.41672	1316.6875
2011.46859	1320.1875
2014.51848	1310.8875
2017.56639	1299.0875
2020.61233	1302.2875
2023.6563	1289.3875
2026.6983	1282.2875
2029.73833	1288.1875
2032.7764	1274.3875
2035.8125	1282.0875
2038.84664	1277.4875
2041.87881	1269.2875
2044.90903	1265.3875
2047.93729	1269.0875
2050.96359	1268.5875
2053.98794	1264.5875
2057.01034	1261.4875
2060.03078	1250.7875
2063.04927	1259.3875
2066.06582	1258.8875
2069.08042	1252.5875
2072.09307	1249.8875
2075.10378	1241.5875
2078.11255	1243.7875
2081.11938	1245.7875
2084.12426	1244.8875
2087.12722	1241.9875
2090.12824	1244.0875
2093.12732	1240.1875
2096.12447	1230.9875
2099.11969	1234.8875
2102.11299	1234.9875
2105.10435	1232.9875
2108.09379	1231.6875
2111.08131	1241.3875
2114.0669	1239.8875
2117.05057	1239.8875
2120.03233	1238.9875
2123.01216	1235.4875
2125.99008	1229.4875
2128.96609	1233.1875
2131.94018	1233.8875
2134.91236	1236.9875
2137.88263	1234.8875
2140.851	1232.2875
2143.81746	1234.9875
2146.78201	1232.2875
2149.74466	1222.3875
2152.7054	1217.0875
2155.66425	1219.8875
2158.6212	1207.9875
2161.57625	1209.5875
2164.52941	1208.5875
2167.48067	1199.4875
2170.43004	1206.0875
2173.37752	1210.9875
2176.32311	1208.0875
2179.26681	1208.1875
2182.20863	1204.1875
2185.14856	1199.2875
2188.08661	1205.8875
2191.02278	1201.4875
2193.95707	1194.1875
2196.88948	1193.4875
2199.82001	1194.2875
2202.74867	1182.8875
2205.67545	1183.5875
2208.60037	1181.3875
2211.52341	1175.5875
2214.44458	1175.7875
2217.36388	1168.9875
2220.28132	1171.0875
2223.1969	1167.5875
2226.11061	1152.3875
2229.02246	1154.8875
2231.93245	1154.1875
2234.84058	1146.4875
2237.74686	1154.8875
2240.65128	1153.7875
2243.55385	1143.8875
2246.45456	1143.3875
2249.35343	1135.8875
2252.25044	1150.3875
2255.14561	1139.7875
2258.03893	1148.8875
2260.93041	1144.2875
2263.82004	1138.4875
2266.70783	1134.3875
2269.59378	1129.7875
2272.4779	1127.4875
2275.36017	1126.7875
2278.24061	1127.6875
2281.11922	1116.9875
2283.996	1118.5875
2286.87094	1106.4875
2289.74405	1106.2875
2292.61534	1105.0875
2295.4848	1093.9875
2298.35243	1094.2875
2301.21824	1092.7875
2304.08223	1094.6875
2306.94439	1087.6875
2309.80474	1086.2875
2312.66327	1091.4875
2315.51999	1088.4875
2318.37489	1073.5875
2321.22797	1076.4875
2324.07925	1073.5875
2326.92871	1075.9875
2329.77637	1076.2875
2332.62222	1071.4875
2335.46626	1065.0875
2338.3085	1068.9875
2341.14893	1053.4875
2343.98756	1061.9875
2346.8244	1058.1875
2349.65943	1061.0875
2352.49267	1063.9875
2355.32411	1062.8875
2358.15376	1066.5875
2360.98161	1072.7875
2363.80768	1068.4875
2366.63195	1080.0875
2369.45444	1086.2875
2372.27514	1079.3875
2375.09405	1081.9875
2377.91118	1072.8875
2380.72652	1077.5875
2383.54009	1071.7875
2386.35187	1065.0875
2389.16188	1058.3875
2391.97011	1052.6875
2394.77657	1046.5875
2397.58125	1041.0875
2400.38416	1034.6875
2403.18529	1031.2875
2405.98466	1040.8875
2408.78226	1028.7875
2411.57809	1015.6875
2414.37216	1018.1875
2417.16446	1017.5875
2419.955	1014.2875
2422.74378	1013.8875
2425.5308	1011.3875
2428.31606	1015.2875
2431.09956	1015.4875
2433.88131	1008.5875
2436.6613	1006.3875
2439.43954	1005.1875
2442.21603	1003.8875
2444.99077	1010.5875
2447.76377	1004.2875
2450.53501	1012.8875
2453.30451	1007.4875
2456.07226	1004.6875
2458.83827	1006.3875
2461.60254	1005.6875
2464.36507	1002.5875
2467.12586	1007.4875
2469.88492	1004.0875
2472.64224	999.2875
2475.39782	1002.8875
2478.15167	1007.6875
2480.90379	1010.5875
2483.65417	1006.8875
2486.40283	1013.2875
2489.14976	1017.8875
2491.89497	1024.0875
2494.63845	1017.8875
2497.3802	1020.9875
2500.12024	1017.3875
2502.85855	1017.1875
2505.59514	1005.6875
2508.33002	999.2875
2511.06318	991.7875
2513.79462	982.4875
2516.52435	980.9875
2519.25237	981.5875
2521.97867	973.6875
2524.70327	971.2875
2527.42616	957.2875
2530.14734	972.5875
2532.86681	958.5875
2535.58458	954.8875
2538.30065	955.3875
2541.01501	956.3875
2543.72768	955.1875
2546.43864	953.6875
2549.14791	954.8875
2551.85548	958.9875
2554.56136	955.3875
2557.26554	960.1875
2559.96803	957.5875
2562.66883	952.7875
2565.36794	946.1875
2568.06536	946.8875
2570.7611	942.5875
2573.45514	939.6875
2576.14751	944.6875
2578.83819	932.4875
2581.52719	937.2875
2584.21451	937.2875
2586.90015	927.8875
2589.58411	926.5875
2592.2664	927.0875
2594.94701	929.4875
2597.62594	923.2875
2600.30321	922.0875
2602.9788	927.1875
2605.65273	915.8875
2608.32498	923.8875
2610.99557	917.4875
2613.66449	925.4875
2616.33175	922.0875
2618.99734	920.2875
2621.66128	915.0875
2624.32355	920.7875
2626.98416	918.3875
2629.64311	901.6875
2632.30041	907.8875
2634.95605	903.4875
2637.61004	912.4875
2640.26238	897.8875
2642.91306	901.0875
2645.56209	900.8875
2648.20948	903.7875
2650.85521	894.3875
2653.4993	897.3875
2656.14175	902.4875
2658.78255	897.2875
2661.42171	904.2875
2664.05923	905.3875
2666.6951	910.6875
2669.32934	916.6875
2671.96194	904.6875
2674.59291	914.5875
2677.22224	916.3875
2679.84993	924.4875
2682.476	917.9875
2685.10043	918.7875
2687.72324	919.6875
2690.34441	915.4875
2692.96396	926.0875
2695.58188	926.2875
2698.19818	928.1875
2700.81285	933.1875
2703.4259	938.0875
2706.03733	955.8875
2708.64714	951.0875
2711.25533	951.0875
2713.86191	957.9875
2716.46687	953.2875
2719.07021	954.5875
2721.67194	964.0875
2724.27206	953.9875
2726.87057	960.7875
2729.46747	955.5875
2732.06276	964.3875
2734.65644	956.1875
2737.24852	957.7875
2739.83899	948.6875
2742.42786	945.8875
2745.01513	946.4875
2747.60079	947.1875
2750.18486	940.2875
2752.76733	932.8875
2755.3482	945.9875
2757.92747	940.9875
2760.50515	938.0875
2763.08123	943.3875
2765.65573	942.2875
2768.22863	939.5875
2770.79994	938.6875
2773.36967	943.8875
2775.9378	945.3875
2778.50435	954.0875
2781.06932	950.7875
2783.6327	963.9875
2786.1945	970.4875
2788.75471	968.3875
2791.31335	976.3875
2793.87041	984.6875
2796.42589	991.9875
2798.97979	987.3875
2801.53212	1001.7875
2804.08288	1011.2875
2806.63206	1009.2875
2809.17967	1009.3875
2811.72571	1018.2875
2814.27018	1026.6875
2816.81308	1024.5875
2819.35442	1029.8875
2821.89419	1035.9875
2824.43239	1036.4875
2826.96904	1042.4875
2829.50412	1045.2875
2832.03763	1043.7875
2834.56959	1053.7875
2837.1	1063.9875
2839.62884	1065.5875
2842.15613	1088.3875
2844.68186	1111.2875
2847.20604	1135.4875
2849.72867	1162.6875
2852.24974	1168.3875
2854.76927	1170.0875
2857.28724	1170.2875
2859.80367	1166.9875
2862.31855	1153.5875
2864.83189	1158.6875
2867.34368	1148.5875
2869.85393	1146.7875
2872.36264	1138.8875
2874.8698	1129.9875
2877.37543	1137.3875
2879.87952	1136.3875
2882.38207	1139.9875
2884.88308	1124.9875
2887.38256	1130.8875
2889.88051	1127.9875
2892.37692	1123.2875
2894.8718	1138.4875
2897.36515	1134.3875
2899.85698	1126.9875
2902.34727	1137.5875
2904.83604	1132.9875
2907.32328	1142.2875
2909.809	1137.6875
2912.29319	1144.4875
2914.77587	1139.0875
2917.25702	1139.9875
2919.73665	1123.4875
2922.21476	1125.2875
2924.69136	1127.4875
2927.16644	1117.5875
2929.64	1113.0875
2932.11205	1107.0875
2934.58258	1089.9875
2937.05161	1082.5875
2939.51912	1081.9875
2941.98513	1056.7875
2944.44962	1047.4875
2946.91261	1028.8875
2949.37409	1024.1875
2951.83407	1004.2875
2954.29254	988.5875
2956.74951	979.1875
2959.20498	976.3875
2961.65895	971.3875
2964.11142	970.4875
2966.56239	960.2875
2969.01186	929.8875
2971.45984	951.9875
2973.90632	955.9875
2976.35131	955.1875
2978.7948	952.5875
2981.23681	942.0875
2983.67732	943.8875
2986.11635	930.7875
2988.55388	932.2875
2990.98993	933.3875
2993.4245	929.9875
2995.85758	925.6875
2998.28917	924.0875
3000.71928	919.9875
3003.14791	915.1875
3005.57506	914.5875
3008.00073	920.6875
3010.42493	923.9875
3012.84764	920.2875
3015.26888	921.5875
3017.68865	921.8875
3020.10694	930.3875
3022.52376	935.8875
3024.9391	926.6875
3027.35298	928.1875
3029.76539	930.9875
3032.17632	934.6875
3034.5858	941.8875
3036.9938	941.5875
3039.40034	939.3875
3041.80542	940.5875
3044.20903	940.8875
3046.61118	949.7875
3049.01187	939.2875
3051.4111	946.0875
3053.80888	953.7875
3056.20519	963.3875
3058.60005	960.2875
3060.99345	965.2875
3063.3854	962.4875
3065.7759	975.2875
3068.16494	977.9875
3070.55254	980.2875
3072.93868	970.9875
3075.32338	981.8875
3077.70662	982.6875
3080.08842	974.2875
3082.46878	981.0875
3084.84769	980.6875
3087.22515	984.4875
3089.60118	984.3875
3091.97576	989.3875
3094.3489	1004.8875
3096.72061	996.9875
3099.09087	999.8875
3101.4597	1014.9875
3103.82709	1019.3875
3106.19305	1016.0875
3108.55757	1016.3875
3110.92066	1030.8875
3113.28232	1039.3875
3115.64255	1041.1875
3118.00134	1039.3875
3120.35871	1050.6875
3122.71466	1045.6875
3125.06917	1069.8875
3127.42226	1069.5875
3129.77393	1085.4875
3132.12417	1083.2875
3134.47299	1093.6875
3136.82039	1106.9875
3139.16636	1113.4875
3141.51092	1120.9875
3143.85406	1124.7875
3146.19579	1137.9875
