Data from AgNPs_APTES_FTO_UA_50uM_CRN_0uM_R6G_10uM_Scan_RamanShift__38__11-55-23-700.txt Node

Date: Tue Jul 05 11:55:23 BST 2022
User: TCL
Spectrometer: QEP01345
Trigger mode: 4
Integration Time (sec): 7.000000E0
Scans to average: 10
Electric dark correction enabled: true
Nonlinearity correction enabled: false
Boxcar width: 0
XAxis mode: Raman Shifts
Number of Pixels in Spectrum: 1044
>>>>>Begin Spectral Data<<<<<
46.04893	-1.1625
50.45542	-0.9625
54.85868	0.3375
59.25871	1.8375
63.6555	38.6375
68.04907	44.4375
72.43941	45.3375
76.82654	50.2375
81.21044	49.7375
85.59113	56.0375
89.96862	58.6375
94.34289	56.3375
98.71396	60.3375
103.08183	65.2375
107.4465	61.3375
111.80798	66.6375
116.16626	60.7375
120.52136	60.6375
124.87327	65.9375
129.222	64.6375
133.56755	68.1375
137.90993	65.5375
142.24913	68.5375
146.58517	72.9375
150.91804	82.0375
155.24774	89.3375
159.57429	103.7375
163.89768	122.6375
168.21792	156.2375
172.53501	202.1375
176.84895	267.2375
181.15975	363.8375
185.46741	492.0375
189.77193	667.3375
194.07331	885.6375
198.37157	1122.1375
202.6667	1375.6375
206.9587	1614.2375
211.24758	1869.1375
215.53334	2106.9375
219.81599	2363.6375
224.09553	2652.5375
228.37195	2957.8375
232.64527	3280.8375
236.91549	3617.1375
241.18261	3906.1375
245.44663	4171.5375
249.70755	4368.3375
253.96539	4499.0375
258.22014	4628.5375
262.4718	4737.7375
266.72039	4821.8375
270.96589	4831.5375
275.20832	4815.0375
279.44768	4745.5375
283.68397	4674.2375
287.91719	4612.7375
292.14735	4582.6375
296.37445	4651.9375
300.59849	4793.0375
304.81948	4931.2375
309.03742	5062.7375
313.25231	5032.3375
317.46415	4830.8375
321.67296	4495.4375
325.87872	4225.0375
330.08145	4062.4375
334.28114	4026.0375
338.47781	4072.8375
342.67145	4136.0375
346.86207	4298.4375
351.04966	4515.6375
355.23424	4781.3375
359.4158	4996.8375
363.59435	5118.9375
367.76989	5179.9375
371.94243	5225.6375
376.11196	5235.9375
380.27849	5254.3375
384.44203	5229.3375
388.60257	5191.4375
392.76012	5148.5375
396.91468	5165.2375
401.06626	5263.9375
405.21485	5319.9375
409.36047	5201.3375
413.50311	4953.3375
417.64277	4683.2375
421.77947	4530.4375
425.9132	4456.4375
430.04396	4441.9375
434.17176	4474.6375
438.2966	4569.8375
442.41849	4706.5375
446.53742	4867.0375
450.6534	5023.3375
454.76644	5063.1375
458.87653	5069.7375
462.98368	4994.9375
467.08789	4919.1375
471.18916	4863.4375
475.2875	4763.8375
479.38291	4754.2375
483.4754	4777.5375
487.56496	4870.4375
491.6516	4985.5375
495.73531	5083.4375
499.81612	5036.9375
503.89401	4939.4375
507.96899	4873.9375
512.04106	4903.6375
516.11023	5009.7375
520.1765	5122.0375
524.23987	5194.6375
528.30034	5172.2375
532.35792	5080.0375
536.41261	4910.0375
540.46441	4720.4375
544.51333	4573.2375
548.55936	4516.1375
552.60252	4535.6375
556.64279	4600.3375
560.6802	4618.4375
564.71473	4635.9375
568.7464	4752.6375
572.7752	4843.2375
576.80114	4745.8375
580.82422	4674.4375
584.84444	4746.7375
588.86181	4908.4375
592.87633	5105.2375
596.888	5158.9375
600.89682	5180.8375
604.9028	5570.7375
608.90594	6930.2375
612.90624	8768.9375
616.90371	8599.0375
620.89834	6739.0375
624.89015	6124.8375
628.87913	6458.2375
632.86528	6944.8375
636.84862	7252.2375
640.82913	7077.2375
644.80683	6542.4375
648.78172	5924.0375
652.75379	5449.4375
656.72306	5235.6375
660.68952	5151.2375
664.65319	4929.5375
668.61405	4638.1375
672.57211	4520.2375
676.52738	4513.8375
680.47986	4504.4375
684.42955	4458.9375
688.37646	4447.5375
692.32058	4418.0375
696.26192	4447.6375
700.20048	4454.2375
704.13626	4497.4375
708.06928	4443.3375
711.99952	4427.2375
715.927	4432.5375
719.85171	4527.2375
723.77365	4621.9375
727.69284	4617.9375
731.60928	4572.2375
735.52295	4496.0375
739.43388	4453.0375
743.34206	4458.1375
747.24749	4438.9375
751.15017	4457.2375
755.05012	4473.0375
758.94733	4650.7375
762.8418	5079.2375
766.73354	5817.8375
770.62254	6624.5375
774.50882	7102.7375
778.39237	6850.8375
782.27321	5999.4375
786.15132	5130.1375
790.02671	4669.0375
793.89938	4488.9375
797.76935	4478.4375
801.6366	4620.4375
805.50115	4888.0375
809.36299	5135.6375
813.22213	5204.8375
817.07857	5061.4375
820.93231	4818.6375
824.78336	4549.6375
828.63172	4359.6375
832.47738	4246.0375
836.32036	4179.1375
840.16066	4138.2375
843.99827	4110.5375
847.8332	4081.2375
851.66546	4078.5375
855.49504	4059.1375
859.32195	4074.7375
863.1462	4092.1375
866.96777	4155.6375
870.78668	4276.0375
874.60293	4479.4375
878.41652	4686.7375
882.22745	4905.9375
886.03573	5010.8375
889.84136	4989.8375
893.64433	4842.1375
897.44466	4616.9375
901.24235	4378.1375
905.0374	4194.6375
908.8298	4064.4375
912.61957	3994.0375
916.40671	3952.2375
920.19121	3936.0375
923.97308	3945.7375
927.75233	3966.0375
931.52895	4010.8375
935.30295	3966.0375
939.07433	3876.3375
942.84309	3752.1375
946.60924	3688.8375
950.37278	3644.7375
954.13371	3602.7375
957.89203	3604.4375
961.64774	3592.3375
965.40086	3559.9375
969.15137	3541.4375
972.89929	3514.2375
976.64461	3501.4375
980.38733	3516.3375
984.12747	3502.9375
987.86502	3527.0375
991.59999	3568.8375
995.33237	3630.0375
999.06217	3744.9375
1002.78939	3906.0375
1006.51404	4032.4375
1010.23611	4206.9375
1013.95561	4306.9375
1017.67255	4312.1375
1021.38692	4237.1375
1025.09872	4099.9375
1028.80796	3958.3375
1032.51465	3857.2375
1036.21877	3803.0375
1039.92035	3778.5375
1043.61937	3773.6375
1047.31584	3769.1375
1051.00976	3765.9375
1054.70114	3776.2375
1058.38998	3818.1375
1062.07627	3893.7375
1065.76003	3972.0375
1069.44126	4017.2375
1073.11995	4071.8375
1076.79611	4110.6375
1080.46974	4145.3375
1084.14085	4159.5375
1087.80943	4199.6375
1091.47549	4162.7375
1095.13903	4052.2375
1098.80005	3880.9375
1102.45857	3771.8375
1106.11456	3760.5375
1109.76805	3841.4375
1113.41903	4024.7375
1117.06751	4301.8375
1120.71348	4694.0375
1124.35696	5213.0375
1127.99793	5798.8375
1131.63641	6207.5375
1135.2724	6247.2375
1138.90589	6111.9375
1142.5369	5825.2375
1146.16542	5365.6375
1149.79145	4927.5375
1153.415	4515.9375
1157.03607	4225.1375
1160.65467	4095.4375
1164.27079	4083.4375
1167.88443	4196.7375
1171.49561	4519.9375
1175.10432	5063.4375
1178.71056	5838.0375
1182.31434	6565.3375
1185.91565	6896.5375
1189.51451	6899.7375
1193.11091	6768.2375
1196.70485	6649.7375
1200.29634	6583.9375
1203.88538	6457.6375
1207.47197	6128.4375
1211.05612	5710.1375
1214.63782	5337.8375
1218.21708	5036.4375
1221.79391	4763.6375
1225.36829	4551.9375
1228.94024	4374.1375
1232.50976	4231.0375
1236.07685	4176.3375
1239.6415	4186.1375
1243.20374	4230.0375
1246.76355	4278.7375
1250.32093	4321.8375
1253.8759	4414.8375
1257.42845	4535.3375
1260.97859	4664.4375
1264.52631	4785.3375
1268.07163	4912.1375
1271.61453	4985.0375
1275.15503	5005.2375
1278.69312	4971.4375
1282.22882	4965.1375
1285.76211	5053.7375
1289.29301	5200.0375
1292.82151	5440.3375
1296.34761	5691.4375
1299.87133	6027.4375
1303.39266	6511.6375
1306.9116	7258.6375
1310.42815	8139.1375
1313.94233	8680.3375
1317.45412	8535.7375
1320.96354	7943.4375
1324.47058	7226.0375
1327.97525	6564.0375
1331.47754	6215.4375
1334.97747	6124.9375
1338.47502	6236.2375
1341.97022	6443.7375
1345.46305	6754.2375
1348.95352	7273.0375
1352.44163	8070.4375
1355.92738	9123.1375
1359.41078	10424.2375
1362.89183	11603.4375
1366.37053	11463.3375
1369.84688	9902.0375
1373.32088	8195.6375
1376.79254	7018.6375
1380.26186	6379.3375
1383.72883	6035.5375
1387.19347	5729.2375
1390.65578	5393.7375
1394.11575	5126.3375
1397.57339	4937.1375
1401.0287	4838.0375
1404.48168	4739.2375
1407.93234	4647.1375
1411.38068	4574.6375
1414.82669	4514.1375
1418.27039	4405.3375
1421.71177	4317.2375
1425.15083	4241.5375
1428.58758	4212.6375
1432.02203	4223.8375
1435.45416	4288.0375
1438.88399	4334.9375
1442.31151	4312.1375
1445.73673	4317.3375
1449.15965	4310.9375
1452.58027	4263.7375
1455.9986	4166.8375
1459.41463	4103.0375
1462.82837	4148.1375
1466.23982	4230.3375
1469.64898	4379.1375
1473.05586	4472.8375
1476.46045	4581.7375
1479.86276	4730.6375
1483.26279	4901.0375
1486.66054	5089.8375
1490.05602	5291.5375
1493.44922	5575.0375
1496.84016	5904.5375
1500.22882	6476.4375
1503.61521	7287.9375
1506.99934	8204.2375
1510.38121	9067.7375
1513.76081	9423.5375
1517.13816	8946.2375
1520.51324	7838.3375
1523.88607	6666.5375
1527.25665	5890.2375
1530.62498	5515.1375
1533.99105	5346.5375
1537.35488	5288.6375
1540.71647	5313.6375
1544.07581	5344.0375
1547.4329	5398.7375
1550.78776	5433.8375
1554.14038	5422.4375
1557.49077	5444.8375
1560.83892	5462.5375
1564.18484	5583.3375
1567.52853	5729.9375
1570.86999	5920.3375
1574.20922	6107.7375
1577.54624	6113.7375
1580.88103	5844.9375
1584.2136	5436.4375
1587.54395	5157.9375
1590.87208	5100.2375
1594.19801	5290.2375
1597.52172	5693.5375
1600.84321	5953.8375
1604.16251	5936.2375
1607.47959	5708.3375
1610.79447	5357.1375
1614.10715	5019.4375
1617.41763	4800.2375
1620.7259	4672.0375
1624.03199	4657.4375
1627.33587	4736.5375
1630.63757	4869.9375
1633.93707	5132.2375
1637.23439	5520.0375
1640.52951	6101.4375
1643.82246	6920.6375
1647.11321	7853.5375
1650.40179	8557.1375
1653.68819	8514.8375
1656.97241	7644.1375
1660.25446	6507.3375
1663.53433	5593.4375
1666.81203	4891.2375
1670.08756	4357.0375
1673.36092	3990.3375
1676.63211	3723.5375
1679.90115	3532.0375
1683.16801	3371.9375
1686.43272	3247.6375
1689.69527	3154.8375
1692.95567	3074.0375
1696.2139	2999.2375
1699.46999	2925.8375
1702.72392	2857.8375
1705.97571	2786.0375
1709.22535	2718.1375
1712.47284	2668.9375
1715.71819	2636.1375
1718.96139	2603.8375
1722.20246	2579.7375
1725.44139	2543.2375
1728.67818	2511.6375
1731.91284	2487.4375
1735.14537	2447.3375
1738.37576	2415.6375
1741.60403	2413.6375
1744.83017	2383.1375
1748.05418	2376.7375
1751.27607	2364.9375
1754.49584	2359.7375
1757.71349	2334.3375
1760.92903	2329.9375
1764.14244	2314.9375
1767.35375	2311.1375
1770.56294	2302.9375
1773.77002	2279.8375
1776.97499	2264.5375
1780.17785	2253.5375
1783.37861	2262.8375
1786.57727	2229.6375
1789.77382	2214.5375
1792.96828	2209.9375
1796.16064	2205.3375
1799.3509	2194.8375
1802.53907	2185.6375
1805.72514	2174.4375
1808.90913	2173.0375
1812.09102	2146.7375
1815.27083	2140.6375
1818.44856	2127.7375
1821.6242	2120.6375
1824.79776	2117.7375
1827.96924	2102.6375
1831.13864	2099.4375
1834.30597	2093.1375
1837.47122	2092.4375
1840.6344	2092.0375
1843.7955	2067.9375
1846.95454	2065.4375
1850.11151	2057.6375
1853.26642	2060.2375
1856.41926	2059.1375
1859.57004	2057.8375
1862.71876	2044.2375
1865.86542	2037.7375
1869.01003	2040.0375
1872.15258	2033.7375
1875.29308	2041.0375
1878.43152	2014.9375
1881.56792	2010.7375
1884.70227	2007.9375
1887.83457	2008.1375
1890.96482	1997.2375
1894.09304	1993.3375
1897.21921	1995.5375
1900.34335	1982.1375
1903.46544	1987.8375
1906.58551	1987.8375
1909.70353	1979.1375
1912.81953	1972.3375
1915.93349	1974.1375
1919.04543	1966.7375
1922.15534	1963.5375
1925.26322	1948.6375
1928.36908	1948.4375
1931.47292	1930.5375
1934.57473	1926.7375
1937.67453	1919.5375
1940.77232	1918.2375
1943.86808	1904.4375
1946.96184	1897.4375
1950.05358	1888.3375
1953.14331	1882.1375
1956.23103	1877.5375
1959.31675	1865.3375
1962.40046	1864.2375
1965.48217	1840.9375
1968.56188	1844.9375
1971.63959	1839.1375
1974.7153	1831.6375
1977.78901	1830.5375
1980.86073	1821.3375
1983.93046	1821.6375
1986.99819	1810.7375
1990.06394	1804.7375
1993.1277	1796.0375
1996.18947	1797.5375
1999.24925	1775.7375
2002.30706	1764.1375
2005.36288	1763.9375
2008.41672	1757.3375
2011.46859	1751.1375
2014.51848	1748.5375
2017.56639	1747.8375
2020.61233	1722.5375
2023.6563	1721.2375
2026.6983	1713.9375
2029.73833	1713.0375
2032.7764	1696.0375
2035.8125	1707.7375
2038.84664	1687.9375
2041.87881	1692.6375
2044.90903	1688.4375
2047.93729	1681.6375
2050.96359	1678.1375
2053.98794	1682.0375
2057.01034	1673.1375
2060.03078	1672.9375
2063.04927	1673.1375
2066.06582	1668.1375
2069.08042	1663.1375
2072.09307	1656.8375
2075.10378	1647.7375
2078.11255	1656.1375
2081.11938	1652.5375
2084.12426	1652.8375
2087.12722	1648.7375
2090.12824	1650.8375
2093.12732	1644.2375
2096.12447	1644.7375
2099.11969	1642.6375
2102.11299	1647.3375
2105.10435	1647.3375
2108.09379	1628.2375
2111.08131	1635.7375
2114.0669	1640.1375
2117.05057	1644.2375
2120.03233	1634.4375
2123.01216	1640.6375
2125.99008	1628.3375
2128.96609	1638.2375
2131.94018	1629.0375
2134.91236	1639.7375
2137.88263	1637.3375
2140.851	1628.5375
2143.81746	1640.9375
2146.78201	1624.2375
2149.74466	1630.2375
2152.7054	1617.9375
2155.66425	1613.1375
2158.6212	1608.8375
2161.57625	1610.3375
2164.52941	1607.5375
2167.48067	1603.9375
2170.43004	1599.2375
2173.37752	1607.6375
2176.32311	1596.8375
2179.26681	1588.6375
2182.20863	1591.4375
2185.14856	1595.0375
2188.08661	1592.4375
2191.02278	1583.5375
2193.95707	1582.7375
2196.88948	1580.8375
2199.82001	1579.4375
2202.74867	1566.0375
2205.67545	1571.1375
2208.60037	1566.8375
2211.52341	1562.7375
2214.44458	1562.1375
2217.36388	1546.2375
2220.28132	1544.1375
2223.1969	1539.2375
2226.11061	1539.1375
2229.02246	1537.4375
2231.93245	1527.2375
2234.84058	1521.7375
2237.74686	1525.8375
2240.65128	1523.8375
2243.55385	1518.0375
2246.45456	1518.8375
2249.35343	1509.7375
2252.25044	1528.7375
2255.14561	1509.6375
2258.03893	1515.0375
2260.93041	1503.3375
2263.82004	1507.5375
2266.70783	1497.6375
2269.59378	1493.6375
2272.4779	1484.6375
2275.36017	1487.5375
2278.24061	1484.7375
2281.11922	1470.8375
2283.996	1467.1375
2286.87094	1463.9375
2289.74405	1457.4375
2292.61534	1453.7375
2295.4848	1451.8375
2298.35243	1444.1375
2301.21824	1448.6375
2304.08223	1448.1375
2306.94439	1433.9375
2309.80474	1431.2375
2312.66327	1427.2375
2315.51999	1435.0375
2318.37489	1422.9375
2321.22797	1424.7375
2324.07925	1421.2375
2326.92871	1409.8375
2329.77637	1416.8375
2332.62222	1402.6375
2335.46626	1403.8375
2338.3085	1397.3375
2341.14893	1395.1375
2343.98756	1401.2375
2346.8244	1389.0375
2349.65943	1400.2375
2352.49267	1396.2375
2355.32411	1400.0375
2358.15376	1397.4375
2360.98161	1413.3375
2363.80768	1404.4375
2366.63195	1416.5375
2369.45444	1417.5375
2372.27514	1415.3375
2375.09405	1409.5375
2377.91118	1408.9375
2380.72652	1402.0375
2383.54009	1395.9375
2386.35187	1392.8375
2389.16188	1385.6375
2391.97011	1374.5375
2394.77657	1371.6375
2397.58125	1371.5375
2400.38416	1364.3375
2403.18529	1347.7375
2405.98466	1358.1375
2408.78226	1345.7375
2411.57809	1338.8375
2414.37216	1341.4375
2417.16446	1336.8375
2419.955	1331.0375
2422.74378	1335.5375
2425.5308	1319.2375
2428.31606	1327.3375
2431.09956	1330.3375
2433.88131	1321.9375
2436.6613	1329.2375
2439.43954	1328.7375
2442.21603	1319.2375
2444.99077	1316.7375
2447.76377	1321.9375
2450.53501	1321.5375
2453.30451	1310.1375
2456.07226	1312.7375
2458.83827	1323.4375
2461.60254	1319.2375
2464.36507	1311.8375
2467.12586	1316.2375
2469.88492	1317.1375
2472.64224	1296.3375
2475.39782	1309.6375
2478.15167	1306.7375
2480.90379	1307.8375
2483.65417	1305.4375
2486.40283	1320.0375
2489.14976	1317.4375
2491.89497	1323.5375
2494.63845	1324.5375
2497.3802	1315.5375
2500.12024	1318.2375
2502.85855	1308.5375
2505.59514	1303.1375
2508.33002	1301.4375
2511.06318	1287.0375
2513.79462	1285.6375
2516.52435	1262.6375
2519.25237	1272.0375
2521.97867	1260.1375
2524.70327	1259.9375
2527.42616	1258.4375
2530.14734	1258.2375
2532.86681	1247.4375
2535.58458	1244.6375
2538.30065	1238.6375
2541.01501	1241.3375
2543.72768	1243.9375
2546.43864	1236.0375
2549.14791	1239.2375
2551.85548	1235.0375
2554.56136	1233.8375
2557.26554	1243.5375
2559.96803	1217.3375
2562.66883	1238.4375
2565.36794	1224.2375
2568.06536	1222.9375
2570.7611	1222.0375
2573.45514	1219.1375
2576.14751	1217.4375
2578.83819	1216.7375
2581.52719	1214.0375
2584.21451	1211.4375
2586.90015	1204.5375
2589.58411	1202.3375
2592.2664	1209.6375
2594.94701	1201.7375
2597.62594	1190.3375
2600.30321	1186.6375
2602.9788	1192.2375
2605.65273	1185.2375
2608.32498	1179.5375
2610.99557	1183.5375
2613.66449	1181.0375
2616.33175	1178.6375
2618.99734	1188.6375
2621.66128	1176.7375
2624.32355	1186.0375
2626.98416	1180.4375
2629.64311	1162.1375
2632.30041	1176.5375
2634.95605	1175.9375
2637.61004	1166.2375
2640.26238	1163.6375
2642.91306	1159.4375
2645.56209	1153.8375
2648.20948	1166.7375
2650.85521	1149.7375
2653.4993	1158.2375
2656.14175	1160.1375
2658.78255	1157.7375
2661.42171	1162.6375
2664.05923	1165.0375
2666.6951	1166.5375
2669.32934	1171.2375
2671.96194	1167.1375
2674.59291	1168.9375
2677.22224	1160.2375
2679.84993	1172.9375
2682.476	1171.9375
2685.10043	1173.9375
2687.72324	1174.1375
2690.34441	1168.7375
2692.96396	1174.3375
2695.58188	1172.1375
2698.19818	1174.8375
2700.81285	1180.3375
2703.4259	1180.9375
2706.03733	1197.6375
2708.64714	1182.2375
2711.25533	1201.3375
2713.86191	1181.5375
2716.46687	1198.2375
2719.07021	1204.6375
2721.67194	1193.0375
2724.27206	1195.3375
2726.87057	1205.5375
2729.46747	1201.3375
2732.06276	1202.1375
2734.65644	1200.7375
2737.24852	1194.7375
2739.83899	1191.4375
2742.42786	1189.0375
2745.01513	1180.7375
2747.60079	1174.2375
2750.18486	1180.6375
2752.76733	1171.2375
2755.3482	1171.3375
2757.92747	1168.8375
2760.50515	1176.8375
2763.08123	1171.2375
2765.65573	1168.2375
2768.22863	1169.1375
2770.79994	1177.3375
2773.36967	1173.0375
2775.9378	1169.8375
2778.50435	1174.6375
2781.06932	1177.8375
2783.6327	1178.1375
2786.1945	1187.8375
2788.75471	1187.6375
2791.31335	1191.3375
2793.87041	1195.5375
2796.42589	1202.3375
2798.97979	1194.2375
2801.53212	1190.6375
2804.08288	1205.9375
2806.63206	1201.6375
2809.17967	1208.2375
2811.72571	1205.2375
2814.27018	1206.2375
2816.81308	1205.7375
2819.35442	1212.3375
2821.89419	1213.3375
2824.43239	1219.1375
2826.96904	1222.5375
2829.50412	1229.8375
2832.03763	1234.3375
2834.56959	1230.2375
2837.1	1238.9375
2839.62884	1236.6375
2842.15613	1257.2375
2844.68186	1272.4375
2847.20604	1281.8375
2849.72867	1316.1375
2852.24974	1322.2375
2854.76927	1320.8375
2857.28724	1327.4375
2859.80367	1315.6375
2862.31855	1318.8375
2864.83189	1307.4375
2867.34368	1303.7375
2869.85393	1310.2375
2872.36264	1303.5375
2874.8698	1295.2375
2877.37543	1300.7375
2879.87952	1291.0375
2882.38207	1298.6375
2884.88308	1291.8375
2887.38256	1294.3375
2889.88051	1283.6375
2892.37692	1283.2375
2894.8718	1299.2375
2897.36515	1283.0375
2899.85698	1293.9375
2902.34727	1292.9375
2904.83604	1297.1375
2907.32328	1303.0375
2909.809	1309.2375
2912.29319	1306.6375
2914.77587	1302.6375
2917.25702	1303.0375
2919.73665	1303.4375
2922.21476	1304.2375
2924.69136	1289.0375
2927.16644	1289.8375
2929.64	1286.4375
2932.11205	1279.8375
2934.58258	1271.0375
2937.05161	1268.0375
2939.51912	1264.3375
2941.98513	1240.4375
2944.44962	1230.3375
2946.91261	1215.2375
2949.37409	1204.1375
2951.83407	1196.5375
2954.29254	1180.2375
2956.74951	1169.8375
2959.20498	1165.9375
2961.65895	1161.1375
2964.11142	1160.1375
2966.56239	1154.9375
2969.01186	1110.1375
2971.45984	1135.3375
2973.90632	1136.8375
2976.35131	1145.7375
2978.7948	1135.5375
2981.23681	1131.9375
2983.67732	1120.5375
2986.11635	1121.5375
2988.55388	1124.1375
2990.98993	1121.0375
2993.4245	1123.1375
2995.85758	1111.2375
2998.28917	1113.2375
3000.71928	1106.5375
3003.14791	1113.6375
3005.57506	1111.8375
3008.00073	1114.4375
3010.42493	1123.2375
3012.84764	1121.1375
3015.26888	1114.5375
3017.68865	1116.5375
3020.10694	1111.8375
3022.52376	1123.1375
3024.9391	1123.4375
3027.35298	1122.0375
3029.76539	1115.7375
3032.17632	1120.9375
3034.5858	1128.9375
3036.9938	1119.9375
3039.40034	1120.7375
3041.80542	1134.5375
3044.20903	1123.2375
3046.61118	1126.9375
3049.01187	1132.2375
3051.4111	1131.6375
3053.80888	1133.3375
3056.20519	1141.7375
3058.60005	1140.7375
3060.99345	1149.8375
3063.3854	1142.5375
3065.7759	1147.3375
3068.16494	1149.4375
3070.55254	1157.5375
3072.93868	1148.3375
3075.32338	1156.6375
3077.70662	1156.8375
3080.08842	1153.6375
3082.46878	1160.3375
3084.84769	1168.6375
3087.22515	1159.9375
3089.60118	1161.9375
3091.97576	1166.0375
3094.3489	1172.7375
3096.72061	1177.8375
3099.09087	1185.6375
3101.4597	1187.4375
3103.82709	1197.5375
3106.19305	1205.3375
3108.55757	1207.1375
3110.92066	1203.6375
3113.28232	1215.2375
3115.64255	1220.5375
3118.00134	1228.4375
3120.35871	1227.7375
3122.71466	1226.8375
3125.06917	1235.6375
3127.42226	1250.9375
