Data from AgNPs_APTES_FTO_UA_50uM_CRN_0uM_R6G_10uM_Scan_RamanShift__49__12-08-13-715.txt Node

Date: Tue Jul 05 12:08:13 BST 2022
User: TCL
Spectrometer: QEP01345
Trigger mode: 4
Integration Time (sec): 7.000000E0
Scans to average: 10
Electric dark correction enabled: true
Nonlinearity correction enabled: false
Boxcar width: 0
XAxis mode: Raman Shifts
Number of Pixels in Spectrum: 1044
>>>>>Begin Spectral Data<<<<<
46.04893	-0.8
50.45542	-0.4
54.85868	-1.2
59.25871	0.8
63.6555	67.1
68.04907	73.5
72.43941	75.9
76.82654	80.2
81.21044	84.6
85.59113	86.7
89.96862	88
94.34289	90.9
98.71396	95.3
103.08183	101.6
107.4465	99.9
111.80798	106.6
116.16626	105.5
120.52136	106.3
124.87327	111.5
129.222	117.3
133.56755	122.6
137.90993	125.4
142.24913	133.3
146.58517	152.4
150.91804	174.1
155.24774	204.6
159.57429	255.5
163.89768	322.5
168.21792	423.9
172.53501	573.3
176.84895	798.1
181.15975	1118.9
185.46741	1565.1
189.77193	2164.3
194.07331	2899.6
198.37157	3718.5
202.6667	4603.4
206.9587	5463.2
211.24758	6301.9
215.53334	7168.4
219.81599	8024.4
224.09553	8996.1
228.37195	10079.5
232.64527	11272.7
236.91549	12523.6
241.18261	13800.5
245.44663	15019.9
249.70755	16191.5
253.96539	17160
258.22014	17886.5
262.4718	18462.9
266.72039	18807.6
270.96589	18984
275.20832	18909.5
279.44768	18672.9
283.68397	18343.8
287.91719	18028.4
292.14735	17838.1
296.37445	17703.2
300.59849	17651.8
304.81948	17647.4
309.03742	17607
313.25231	17555.2
317.46415	17385.5
321.67296	17154.2
325.87872	16964.9
330.08145	16924.4
334.28114	16952.2
338.47781	17102.4
342.67145	17307.5
346.86207	17544.2
351.04966	17805.9
355.23424	18089.9
359.4158	18361.8
363.59435	18531.9
367.76989	18697.8
371.94243	18838.1
376.11196	18916.4
380.27849	19003.2
384.44203	19091.1
388.60257	19230.6
392.76012	19351.6
396.91468	19452.9
401.06626	19709.7
405.21485	19872.8
409.36047	19881.7
413.50311	19765.3
417.64277	19627.1
421.77947	19641
425.9132	19709.1
430.04396	19795.1
434.17176	19868.1
438.2966	19985.2
442.41849	20176.4
446.53742	20445.1
450.6534	20780.9
454.76644	20961.3
458.87653	21091
462.98368	21147.2
467.08789	21091.1
471.18916	21036
475.2875	20971.2
479.38291	20850
483.4754	20828.1
487.56496	20777.3
491.6516	20753.4
495.73531	20734
499.81612	20773
503.89401	20907.8
507.96899	20962.4
512.04106	20988.1
516.11023	20928
520.1765	20862
524.23987	20721.4
528.30034	20654.7
532.35792	20560.6
536.41261	20430.9
540.46441	20308.9
544.51333	20297.1
548.55936	20379.6
552.60252	20529.9
556.64279	20826
560.6802	21002
564.71473	21149
568.7464	21365.4
572.7752	21638.2
576.80114	21872.8
580.82422	22091
584.84444	22407.5
588.86181	22938.5
592.87633	23350
596.888	23392.6
600.89682	23062.3
604.9028	23232.8
608.90594	24309.7
612.90624	25438.4
616.90371	24581
620.89834	22470.3
624.89015	21470.3
628.87913	21346.1
632.86528	21485.3
636.84862	21603.8
640.82913	21501.7
644.80683	21295.1
648.78172	21098.6
652.75379	21091.8
656.72306	21222.5
660.68952	21424.5
664.65319	21426.8
668.61405	21270.3
672.57211	21311.8
676.52738	21388.8
680.47986	21381.3
684.42955	21379.2
688.37646	21344.3
692.32058	21340.2
696.26192	21387
700.20048	21508.3
704.13626	21561.9
708.06928	21564.8
711.99952	21485.1
715.927	21457.7
719.85171	21408.6
723.77365	21387.6
727.69284	21227.6
731.60928	21157.7
735.52295	21166.4
739.43388	21198.4
743.34206	21265.1
747.24749	21363
751.15017	21456.2
755.05012	21631
758.94733	21940.4
762.8418	22518.2
766.73354	23267.1
770.62254	24057.2
774.50882	24317.3
778.39237	23820.4
782.27321	23021.9
786.15132	22299
790.02671	21806.1
793.89938	21509
797.76935	21426
801.6366	21410.3
805.50115	21417.7
809.36299	21372.9
813.22213	21284.6
817.07857	21281.2
820.93231	21229
824.78336	21139.6
828.63172	21088.3
832.47738	21069.3
836.32036	21054.9
840.16066	21053.7
843.99827	21132.8
847.8332	21162.5
851.66546	21164.2
855.49504	21154.8
859.32195	21175.9
863.1462	21166.5
866.96777	21131
870.78668	21135.9
874.60293	21222.3
878.41652	21255.6
882.22745	21305.4
886.03573	21362.3
889.84136	21383
893.64433	21401.3
897.44466	21342.9
901.24235	21325.5
905.0374	21308.9
908.8298	21247.8
912.61957	21236.9
916.40671	21258.7
920.19121	21363.5
923.97308	21412.5
927.75233	21429.5
931.52895	21359.6
935.30295	21218.9
939.07433	21052.1
942.84309	20878.9
946.60924	20827.2
950.37278	20725
954.13371	20711.3
957.89203	20725.8
961.64774	20696.1
965.40086	20669.1
969.15137	20608.7
972.89929	20605.8
976.64461	20566.7
980.38733	20575.7
984.12747	20569
987.86502	20573.2
991.59999	20608.5
995.33237	20698.2
999.06217	20822.2
1002.78939	21046.2
1006.51404	21229.4
1010.23611	21415.6
1013.95561	21608.4
1017.67255	21654.3
1021.38692	21529.5
1025.09872	21344.8
1028.80796	21217
1032.51465	21094.1
1036.21877	21109.6
1039.92035	21149
1043.61937	21215.9
1047.31584	21236.2
1051.00976	21273
1054.70114	21300
1058.38998	21366.2
1062.07627	21528.9
1065.76003	21677
1069.44126	21786.7
1073.11995	21992.5
1076.79611	22281.9
1080.46974	22400.7
1084.14085	22441.1
1087.80943	22516.7
1091.47549	22595.8
1095.13903	22613.5
1098.80005	22425
1102.45857	22159.9
1106.11456	22040.3
1109.76805	21881.9
1113.41903	21886.5
1117.06751	21911.7
1120.71348	22037.5
1124.35696	22222.3
1127.99793	22403.7
1131.63641	22609.5
1135.2724	22590
1138.90589	22519.7
1142.5369	22517.6
1146.16542	22448.9
1149.79145	22396.6
1153.415	22364.4
1157.03607	22313.6
1160.65467	22438.1
1164.27079	22796.9
1167.88443	23237.9
1171.49561	23775.9
1175.10432	24587.7
1178.71056	25548.8
1182.31434	26439.2
1185.91565	26949
1189.51451	26986.1
1193.11091	26725.5
1196.70485	26299.9
1200.29634	25825.9
1203.88538	25468.2
1207.47197	25205.7
1211.05612	24956.7
1214.63782	24753.7
1218.21708	24453.6
1221.79391	24149.7
1225.36829	23962.7
1228.94024	23823.4
1232.50976	23701.7
1236.07685	23555
1239.6415	23438.8
1243.20374	23392.9
1246.76355	23513
1250.32093	23682.4
1253.8759	23860.9
1257.42845	24254
1260.97859	24623.5
1264.52631	24958.7
1268.07163	25376.9
1271.61453	25727
1275.15503	26031.5
1278.69312	26262.2
1282.22882	26511.4
1285.76211	26839.7
1289.29301	27335.6
1292.82151	27839.2
1296.34761	28522.1
1299.87133	29303.2
1303.39266	30118.4
1306.9116	30936.7
1310.42815	31790
1313.94233	32268.9
1317.45412	32157.4
1320.96354	31758.7
1324.47058	31346.8
1327.97525	31003.4
1331.47754	30692.2
1334.97747	30446.8
1338.47502	30362.5
1341.97022	30316.4
1345.46305	30485.9
1348.95352	30776.2
1352.44163	30976.8
1355.92738	31247.8
1359.41078	31858.7
1362.89183	32545.3
1366.37053	32285.6
1369.84688	30759.3
1373.32088	28708.6
1376.79254	27323.4
1380.26186	26673.2
1383.72883	26420.1
1387.19347	26233.5
1390.65578	25934.2
1394.11575	25705.8
1397.57339	25565.5
1401.0287	25586.8
1404.48168	25535.8
1407.93234	25414.4
1411.38068	25231.6
1414.82669	24875.3
1418.27039	24486
1421.71177	24104
1425.15083	23789
1428.58758	23648.6
1432.02203	23713.4
1435.45416	23961.1
1438.88399	24194.6
1442.31151	24404.6
1445.73673	24490.7
1449.15965	24535
1452.58027	24592.6
1455.9986	24593.6
1459.41463	24659.7
1462.82837	24866.4
1466.23982	25130.5
1469.64898	25414.8
1473.05586	25608.8
1476.46045	25667.1
1479.86276	25657
1483.26279	25725.1
1486.66054	25778.5
1490.05602	25898.4
1493.44922	26200.7
1496.84016	26601.6
1500.22882	27133.3
1503.61521	27775.8
1506.99934	28567.4
1510.38121	29103.8
1513.76081	29105.4
1517.13816	28583.4
1520.51324	27729.1
1523.88607	27090.1
1527.25665	26624.8
1530.62498	26390.3
1533.99105	26300.5
1537.35488	26124.6
1540.71647	25838.6
1544.07581	25531.8
1547.4329	25229.1
1550.78776	25055.5
1554.14038	24981.9
1557.49077	24965.6
1560.83892	25042.7
1564.18484	25115.4
1567.52853	25247.8
1570.86999	25436.9
1574.20922	25698.1
1577.54624	25844.6
1580.88103	25790.6
1584.2136	25679.9
1587.54395	25733
1590.87208	26117.9
1594.19801	26698.8
1597.52172	27398
1600.84321	27627.6
1604.16251	27069.7
1607.47959	26128.1
1610.79447	25073.8
1614.10715	23983.9
1617.41763	23080.5
1620.7259	22494.3
1624.03199	22150.7
1627.33587	22124.2
1630.63757	22353.3
1633.93707	22847.1
1637.23439	23756.4
1640.52951	25200.8
1643.82246	26957.3
1647.11321	28534.6
1650.40179	29012
1653.68819	28023.9
1656.97241	25986.1
1660.25446	23902.3
1663.53433	22375.5
1666.81203	21346.3
1670.08756	20691.5
1673.36092	20288.4
1676.63211	19988.5
1679.90115	19747.3
1683.16801	19540.9
1686.43272	19358.3
1689.69527	19318.8
1692.95567	19154.6
1696.2139	19103
1699.46999	19079.3
1702.72392	19002.3
1705.97571	18928.6
1709.22535	18966.5
1712.47284	18882.5
1715.71819	18852.5
1718.96139	18874.3
1722.20246	18801.2
1725.44139	18738.1
1728.67818	18694.4
1731.91284	18619.5
1735.14537	18529.4
1738.37576	18439.2
1741.60403	18365.1
1744.83017	18353.5
1748.05418	18326.1
1751.27607	18328.7
1754.49584	18292
1757.71349	18248.7
1760.92903	18208.6
1764.14244	18167.8
1767.35375	18158.4
1770.56294	18145.4
1773.77002	18113
1776.97499	18102.5
1780.17785	18095
1783.37861	18087.1
1786.57727	18064.2
1789.77382	17966.6
1792.96828	17938.6
1796.16064	17913.4
1799.3509	17878.7
1802.53907	17847.7
1805.72514	17760.4
1808.90913	17781.6
1812.09102	17748.1
1815.27083	17731
1818.44856	17709.1
1821.6242	17666.8
1824.79776	17667.7
1827.96924	17612.5
1831.13864	17605.8
1834.30597	17611.4
1837.47122	17596.6
1840.6344	17565.9
1843.7955	17516.4
1846.95454	17523.7
1850.11151	17499.1
1853.26642	17531.6
1856.41926	17480.8
1859.57004	17465.1
1862.71876	17462.7
1865.86542	17446.9
1869.01003	17472.1
1872.15258	17439.5
1875.29308	17401.6
1878.43152	17386
1881.56792	17336.9
1884.70227	17300.3
1887.83457	17286.2
1890.96482	17271.2
1894.09304	17246.4
1897.21921	17205.6
1900.34335	17191.6
1903.46544	17159.5
1906.58551	17147.3
1909.70353	17096.1
1912.81953	17103.8
1915.93349	17090.4
1919.04543	17031.8
1922.15534	17007.8
1925.26322	16973.3
1928.36908	16942.5
1931.47292	16911.2
1934.57473	16876.8
1937.67453	16839.4
1940.77232	16800.9
1943.86808	16735.8
1946.96184	16701.4
1950.05358	16645.9
1953.14331	16610.2
1956.23103	16608.5
1959.31675	16512.7
1962.40046	16471.1
1965.48217	16408.3
1968.56188	16373.7
1971.63959	16316
1974.7153	16246.1
1977.78901	16198.4
1980.86073	16198.9
1983.93046	16146.7
1986.99819	16037.4
1990.06394	16008.5
1993.1277	15982.6
1996.18947	15954.5
1999.24925	15881.5
2002.30706	15844.1
2005.36288	15794.9
2008.41672	15733.6
2011.46859	15700.1
2014.51848	15639.9
2017.56639	15613.5
2020.61233	15564.2
2023.6563	15570.2
2026.6983	15489.6
2029.73833	15434.6
2032.7764	15389.3
2035.8125	15362.4
2038.84664	15327
2041.87881	15304.9
2044.90903	15288.5
2047.93729	15247.8
2050.96359	15239.5
2053.98794	15209.3
2057.01034	15192.2
2060.03078	15160.5
2063.04927	15205.3
2066.06582	15176.5
2069.08042	15091
2072.09307	15080.9
2075.10378	15064.8
2078.11255	15116.7
2081.11938	15114.1
2084.12426	15116.1
2087.12722	15074.1
2090.12824	15039
2093.12732	15035.1
2096.12447	15065.6
2099.11969	15060.7
2102.11299	15066.6
2105.10435	15088
2108.09379	15069.1
2111.08131	15082.6
2114.0669	15083.2
2117.05057	15140.5
2120.03233	15149.3
2123.01216	15168
2125.99008	15117.6
2128.96609	15136.4
2131.94018	15145.4
2134.91236	15173.1
2137.88263	15201.9
2140.851	15190.1
2143.81746	15192.6
2146.78201	15140.6
2149.74466	15156.7
2152.7054	15181.4
2155.66425	15155.9
2158.6212	15147.8
2161.57625	15125.7
2164.52941	15103.1
2167.48067	15110.3
2170.43004	15144.8
2173.37752	15140.4
2176.32311	15112.3
2179.26681	15100.5
2182.20863	15076
2185.14856	15108.1
2188.08661	15121.5
2191.02278	15080.4
2193.95707	15054.9
2196.88948	15074.9
2199.82001	15062.5
2202.74867	15032
2205.67545	14991.4
2208.60037	14978.5
2211.52341	14950.3
2214.44458	14905.8
2217.36388	14862.5
2220.28132	14837
2223.1969	14817.1
2226.11061	14806.6
2229.02246	14761.2
2231.93245	14733.7
2234.84058	14744.1
2237.74686	14728.2
2240.65128	14708.2
2243.55385	14665.5
2246.45456	14619.1
2249.35343	14590.1
2252.25044	14589.8
2255.14561	14580.9
2258.03893	14561.5
2260.93041	14545.4
2263.82004	14455.7
2266.70783	14425.9
2269.59378	14378.1
2272.4779	14356.9
2275.36017	14328.1
2278.24061	14284.1
2281.11922	14228.6
2283.996	14248.7
2286.87094	14239.4
2289.74405	14181.3
2292.61534	14144.2
2295.4848	14126.5
2298.35243	14114.2
2301.21824	14128.8
2304.08223	14120.2
2306.94439	14111.3
2309.80474	14092.8
2312.66327	14099.9
2315.51999	14073.6
2318.37489	14062.9
2321.22797	14044.4
2324.07925	14024.1
2326.92871	13940.9
2329.77637	13938.9
2332.62222	13914.4
2335.46626	13884.5
2338.3085	13875.1
2341.14893	13879.2
2343.98756	13848.6
2346.8244	13830.9
2349.65943	13832.7
2352.49267	13781.9
2355.32411	13789.7
2358.15376	13786
2360.98161	13779
2363.80768	13776.9
2366.63195	13792.5
2369.45444	13769.5
2372.27514	13737.5
2375.09405	13740.3
2377.91118	13684.9
2380.72652	13642.4
2383.54009	13634.2
2386.35187	13616.7
2389.16188	13558.3
2391.97011	13553.4
2394.77657	13507.8
2397.58125	13442.5
2400.38416	13455.2
2403.18529	13418.2
2405.98466	13372.3
2408.78226	13392.2
2411.57809	13386.1
2414.37216	13332.6
2417.16446	13323.3
2419.955	13322
2422.74378	13312.7
2425.5308	13325
2428.31606	13328
2431.09956	13302.6
2433.88131	13264.2
2436.6613	13259.3
2439.43954	13257.9
2442.21603	13233.9
2444.99077	13204.7
2447.76377	13188.8
2450.53501	13209.7
2453.30451	13184
2456.07226	13129.1
2458.83827	13145.8
2461.60254	13135.3
2464.36507	13121.6
2467.12586	13070.4
2469.88492	13064.5
2472.64224	13065.8
2475.39782	13030.3
2478.15167	13047.4
2480.90379	13064.6
2483.65417	13028.4
2486.40283	13037
2489.14976	13031.3
2491.89497	12982.1
2494.63845	12963.4
2497.3802	12989.3
2500.12024	12978.4
2502.85855	12936.3
2505.59514	12962.5
2508.33002	12926.6
2511.06318	12891.7
2513.79462	12876
2516.52435	12861.3
2519.25237	12873.2
2521.97867	12855.3
2524.70327	12827.6
2527.42616	12820.1
2530.14734	12800.3
2532.86681	12741.6
2535.58458	12735.9
2538.30065	12733
2541.01501	12680.6
2543.72768	12656.8
2546.43864	12655.3
2549.14791	12589.6
2551.85548	12577.8
2554.56136	12601.2
2557.26554	12577.9
2559.96803	12547.6
2562.66883	12492.2
2565.36794	12499.5
2568.06536	12466.2
2570.7611	12414.6
2573.45514	12444.6
2576.14751	12403.8
2578.83819	12386.4
2581.52719	12339.2
2584.21451	12318.9
2586.90015	12316.2
2589.58411	12301.2
2592.2664	12303.6
2594.94701	12242.4
2597.62594	12227.1
2600.30321	12184.6
2602.9788	12172.8
2605.65273	12142
2608.32498	12152.2
2610.99557	12120.3
2613.66449	12097.3
2616.33175	12113.2
2618.99734	12094.4
2621.66128	12081.4
2624.32355	12094.2
2626.98416	12040.9
2629.64311	12016.6
2632.30041	12000.1
2634.95605	11990.9
2637.61004	11975.4
2640.26238	11941.6
2642.91306	11931
2645.56209	11899.7
2648.20948	11923.4
2650.85521	11903.9
2653.4993	11916.3
2656.14175	11895.4
2658.78255	11898.1
2661.42171	11872.5
2664.05923	11899.7
2666.6951	11902
2669.32934	11920.9
2671.96194	11873.3
2674.59291	11887.2
2677.22224	11868.3
2679.84993	11858.9
2682.476	11840.3
2685.10043	11866.9
2687.72324	11874.4
2690.34441	11850.4
2692.96396	11837.6
2695.58188	11824.8
2698.19818	11817.7
2700.81285	11795.7
2703.4259	11793.2
2706.03733	11813.9
2708.64714	11779.6
2711.25533	11790.4
2713.86191	11793.3
2716.46687	11755.7
2719.07021	11810.8
2721.67194	11832.6
2724.27206	11804.4
2726.87057	11824
2729.46747	11815.3
2732.06276	11790.2
2734.65644	11780.3
2737.24852	11788.7
2739.83899	11741.3
2742.42786	11783.8
2745.01513	11740.3
2747.60079	11732.1
2750.18486	11689.4
2752.76733	11730.3
2755.3482	11689.9
2757.92747	11700.2
2760.50515	11671.9
2763.08123	11636.9
2765.65573	11625.2
2768.22863	11611.4
2770.79994	11578.3
2773.36967	11578.5
2775.9378	11559.3
2778.50435	11536.3
2781.06932	11517.7
2783.6327	11513.1
2786.1945	11508.1
2788.75471	11475
2791.31335	11426
2793.87041	11410.9
2796.42589	11409.4
2798.97979	11362.6
2801.53212	11341.7
2804.08288	11319.9
2806.63206	11272.9
2809.17967	11260
2811.72571	11244
2814.27018	11217.9
2816.81308	11160.1
2819.35442	11157
2821.89419	11112.2
2824.43239	11102.7
2826.96904	11082.2
2829.50412	11071.5
2832.03763	11052.6
2834.56959	11069.9
2837.1	11043.1
2839.62884	11019.6
2842.15613	11009.7
2844.68186	11022.7
2847.20604	10984.8
2849.72867	10991.2
2852.24974	10966.1
2854.76927	10982.2
2857.28724	10946.7
2859.80367	10945.4
2862.31855	10929.7
2864.83189	10918.8
2867.34368	10883.8
2869.85393	10885.3
2872.36264	10827.6
2874.8698	10858.3
2877.37543	10882.9
2879.87952	10876.2
2882.38207	10851.3
2884.88308	10832.8
2887.38256	10809.2
2889.88051	10834.1
2892.37692	10793.1
2894.8718	10794.2
2897.36515	10804.4
2899.85698	10822.5
2902.34727	10800.3
2904.83604	10802.6
2907.32328	10825.7
2909.809	10807.2
2912.29319	10822.3
2914.77587	10802.8
2917.25702	10813
2919.73665	10783.5
2922.21476	10786.1
2924.69136	10780.5
2927.16644	10792.1
2929.64	10706.3
2932.11205	10737
2934.58258	10706.8
2937.05161	10746.3
2939.51912	10720
2941.98513	10706.7
2944.44962	10681.7
2946.91261	10659.7
2949.37409	10659.6
2951.83407	10639.2
2954.29254	10629.4
2956.74951	10592
2959.20498	10584.3
2961.65895	10593.6
2964.11142	10586.5
2966.56239	10603.5
2969.01186	10563.1
2971.45984	10583.6
2973.90632	10574.2
2976.35131	10554.2
2978.7948	10555.7
2981.23681	10511.6
2983.67732	10525.3
2986.11635	10468.9
2988.55388	10459.3
2990.98993	10472.9
2993.4245	10444.2
2995.85758	10398.1
2998.28917	10392.5
3000.71928	10347.1
3003.14791	10329.3
3005.57506	10311.5
3008.00073	10297.3
3010.42493	10286.8
3012.84764	10260.9
3015.26888	10265.9
3017.68865	10225.7
3020.10694	10197.9
3022.52376	10201.8
3024.9391	10177.8
3027.35298	10187.5
3029.76539	10165.2
3032.17632	10158.7
3034.5858	10135.4
3036.9938	10137.2
3039.40034	10106.2
3041.80542	10110.9
3044.20903	10073.6
3046.61118	10072.5
3049.01187	10060.2
3051.4111	10034.8
3053.80888	10032.6
3056.20519	10029.8
3058.60005	9991.4
3060.99345	9976.6
3063.3854	9952.3
3065.7759	9922.7
3068.16494	9895.9
3070.55254	9857.1
3072.93868	9843.6
3075.32338	9843.9
3077.70662	9828.7
3080.08842	9791.7
3082.46878	9757.8
3084.84769	9765.1
3087.22515	9780.8
3089.60118	9762.1
3091.97576	9770.5
3094.3489	9766.6
3096.72061	9741.1
3099.09087	9755.4
3101.4597	9746.2
3103.82709	9771.5
3106.19305	9756.7
3108.55757	9784.6
3110.92066	9740.7
3113.28232	9726.3
3115.64255	9676.4
3118.00134	9660.2
3120.35871	9649.1
3122.71466	9641.2
3125.06917	9644.7
3127.42226	9627
3129.77393	9614.1
3132.12417	9597.6
3134.47299	9585.6
3136.82039	9585.2
3139.16636	9576.3
3141.51092	9571.4
3143.85406	9589.2
3146.19579	9611.6
3148.53609	9590.7
3150.87499	9600.5
3153.21246	9600.9
3155.54853	9583.9
3157.88318	9590.9
3160.21642	9606.3
3162.54826	9585
3164.87868	9604.1
3167.2077	9600.9
3169.5353	9640.4
3171.86151	9626.8
3174.18631	9628.7
3176.5097	9605.1
3178.83169	9585.3
3181.15228	9589.6
3183.47147	9569.1
3185.78926	9547.8
3188.10565	9489.8
3190.42065	9494.6
3192.73424	9528.1
3195.04645	9530.9
3197.35725	9504.9
3199.66667	9513.7
3201.97469	9528.5
3204.28132	9486.6
3206.58656	9526.8
3208.8904	9482.7
3211.19287	9508.2
3213.49394	9508.8
3215.79363	9520.9
3218.09193	9522.9
3220.38884	9488
3222.68438	9540.7
3224.97853	9512
3227.2713	9518.6
3229.56269	9456.2
3231.8527	9503.2
3234.14133	9471.9
3236.42858	9457.6
3238.71446	9426.8
3240.99896	9400.6
3243.28209	9373.4
3245.56384	9348.8
3247.84423	9346.3
3250.12324	9357.5
3252.40088	9335.1
3254.67715	9362.4
3256.95205	9310.1
3259.22558	9300.8
3261.49775	9287.3
3263.76855	9303.1
3266.03799	9263.5
3268.30606	9243.7
3270.57277	9228.9
3272.83812	9207.4
3275.10211	9189.5
3277.36474	9192.2
3279.62601	9195.3
3281.88593	9153.4
3284.14448	9145
3286.40168	9136.4
3288.65753	9124.7
3290.91202	9102.7
3293.16516	9122
3295.41695	9107.5
3297.66738	9042.4
3299.91647	9014
3302.16421	8948.6
3304.4106	8943.4
3306.65564	8876.6
3308.89933	8819.1
3311.14169	8758.2
3313.38269	8704.5
3315.62236	8641.8
3317.86068	8591.8
3320.09766	8540.7
3322.3333	8477.2
3324.5676	8446.5
3326.80056	8341.8
3329.03219	8278.2
3331.26248	3.1
3333.49143	0.2
3335.71905	-0.8
