Data from AgNPs_APTES_FTO_UA_50uM_CRN_0uM_R6G_10uM_Scan_RamanShift__17__11-30-53-671.txt Node

Date: Tue Jul 05 11:30:53 BST 2022
User: TCL
Spectrometer: QEP01345
Trigger mode: 4
Integration Time (sec): 7.000000E0
Scans to average: 10
Electric dark correction enabled: true
Nonlinearity correction enabled: false
Boxcar width: 0
XAxis mode: Raman Shifts
Number of Pixels in Spectrum: 1044
>>>>>Begin Spectral Data<<<<<
46.04893	-0.5125
50.45542	-0.4125
54.85868	-0.3125
59.25871	1.4875
63.6555	39.3875
68.04907	43.9875
72.43941	48.1875
76.82654	49.1875
81.21044	52.4875
85.59113	58.8875
89.96862	57.4875
94.34289	61.9875
98.71396	62.1875
103.08183	65.5875
107.4465	64.5875
111.80798	64.9875
116.16626	64.0875
120.52136	66.1875
124.87327	67.0875
129.222	68.5875
133.56755	72.7875
137.90993	67.7875
142.24913	73.8875
146.58517	78.4875
150.91804	86.1875
155.24774	96.1875
159.57429	111.2875
163.89768	137.2875
168.21792	173.3875
172.53501	226.2875
176.84895	295.8875
181.15975	409.2875
185.46741	571.3875
189.77193	780.0875
194.07331	1037.1875
198.37157	1321.4875
202.6667	1629.0875
206.9587	1928.5875
211.24758	2240.2875
215.53334	2562.6875
219.81599	2890.6875
224.09553	3261.9875
228.37195	3665.7875
232.64527	4113.5875
236.91549	4583.4875
241.18261	5002.9875
245.44663	5372.0875
249.70755	5677.4875
253.96539	5906.2875
258.22014	6117.0875
262.4718	6291.8875
266.72039	6394.9875
270.96589	6463.1875
275.20832	6421.6875
279.44768	6309.6875
283.68397	6181.5875
287.91719	6045.2875
292.14735	5997.5875
296.37445	6016.9875
300.59849	6096.7875
304.81948	6249.9875
309.03742	6345.7875
313.25231	6361.4875
317.46415	6184.8875
321.67296	5928.4875
325.87872	5661.6875
330.08145	5522.1875
334.28114	5498.8875
338.47781	5514.0875
342.67145	5641.1875
346.86207	5758.6875
351.04966	5952.0875
355.23424	6166.0875
359.4158	6373.8875
363.59435	6456.3875
367.76989	6530.6875
371.94243	6576.2875
376.11196	6568.6875
380.27849	6581.1875
384.44203	6595.4875
388.60257	6563.3875
392.76012	6564.2875
396.91468	6593.5875
401.06626	6669.9875
405.21485	6728.5875
409.36047	6612.4875
413.50311	6373.3875
417.64277	6144.0875
421.77947	6015.2875
425.9132	5969.5875
430.04396	5961.8875
434.17176	5980.2875
438.2966	6048.8875
442.41849	6143.4875
446.53742	6262.4875
450.6534	6383.7875
454.76644	6445.6875
458.87653	6414.2875
462.98368	6341.6875
467.08789	6263.8875
471.18916	6212.6875
475.2875	6127.3875
479.38291	6068.7875
483.4754	6044.0875
487.56496	6036.3875
491.6516	6078.9875
495.73531	6128.9875
499.81612	6151.4875
503.89401	6193.9875
507.96899	6245.0875
512.04106	6295.9875
516.11023	6376.4875
520.1765	6426.2875
524.23987	6424.8875
528.30034	6393.4875
532.35792	6337.2875
536.41261	6230.9875
540.46441	6132.8875
544.51333	6061.5875
548.55936	6064.1875
552.60252	6123.8875
556.64279	6226.3875
560.6802	6279.7875
564.71473	6299.6875
568.7464	6405.5875
572.7752	6490.5875
576.80114	6398.0875
580.82422	6315.8875
584.84444	6362.1875
588.86181	6459.6875
592.87633	6598.8875
596.888	6733.5875
600.89682	6813.6875
604.9028	7282.3875
608.90594	8675.4875
612.90624	10495.3875
616.90371	10200.8875
620.89834	7933.6875
624.89015	6766.9875
628.87913	6617.6875
632.86528	6725.6875
636.84862	6847.5875
640.82913	6778.9875
644.80683	6514.6875
648.78172	6291.6875
652.75379	6181.3875
656.72306	6273.7875
660.68952	6420.3875
664.65319	6351.3875
668.61405	6108.2875
672.57211	6037.9875
676.52738	6096.9875
680.47986	6218.0875
684.42955	6305.5875
688.37646	6335.5875
692.32058	6281.8875
696.26192	6187.5875
700.20048	6135.8875
704.13626	6092.7875
708.06928	6100.7875
711.99952	6037.2875
715.927	6017.5875
719.85171	6036.3875
723.77365	6042.6875
727.69284	6025.0875
731.60928	5993.9875
735.52295	5970.1875
739.43388	5972.1875
743.34206	5971.6875
747.24749	5954.9875
751.15017	5985.4875
755.05012	6027.0875
758.94733	6204.0875
762.8418	6638.2875
766.73354	7481.7875
770.62254	8474.0875
774.50882	8949.1875
778.39237	8561.9875
782.27321	7629.0875
786.15132	6786.7875
790.02671	6283.5875
793.89938	6063.6875
797.76935	5990.6875
801.6366	5970.5875
805.50115	5989.1875
809.36299	6038.4875
813.22213	6022.4875
817.07857	5991.1875
820.93231	5927.5875
824.78336	5863.1875
828.63172	5821.3875
832.47738	5812.3875
836.32036	5782.5875
840.16066	5771.7875
843.99827	5778.7875
847.8332	5776.6875
851.66546	5775.2875
855.49504	5764.8875
859.32195	5760.3875
863.1462	5744.6875
866.96777	5751.1875
870.78668	5753.7875
874.60293	5810.1875
878.41652	5851.7875
882.22745	5896.4875
886.03573	5962.7875
889.84136	5993.9875
893.64433	5970.0875
897.44466	5956.3875
901.24235	5925.8875
905.0374	5896.7875
908.8298	5909.5875
912.61957	5914.3875
916.40671	5983.9875
920.19121	6089.8875
923.97308	6187.8875
927.75233	6297.4875
931.52895	6333.5875
935.30295	6262.7875
939.07433	6097.5875
942.84309	5885.4875
946.60924	5735.6875
950.37278	5624.6875
954.13371	5512.1875
957.89203	5449.5875
961.64774	5374.1875
965.40086	5314.0875
969.15137	5262.3875
972.89929	5216.3875
976.64461	5182.3875
980.38733	5145.6875
984.12747	5124.5875
987.86502	5110.8875
991.59999	5118.1875
995.33237	5142.6875
999.06217	5192.3875
1002.78939	5262.1875
1006.51404	5338.5875
1010.23611	5438.5875
1013.95561	5503.3875
1017.67255	5519.8875
1021.38692	5457.0875
1025.09872	5391.0875
1028.80796	5315.5875
1032.51465	5234.4875
1036.21877	5214.7875
1039.92035	5199.3875
1043.61937	5194.3875
1047.31584	5221.8875
1051.00976	5241.3875
1054.70114	5253.5875
1058.38998	5254.8875
1062.07627	5288.7875
1065.76003	5299.3875
1069.44126	5294.4875
1073.11995	5309.4875
1076.79611	5367.0875
1080.46974	5392.7875
1084.14085	5444.5875
1087.80943	5542.4875
1091.47549	5603.7875
1095.13903	5515.7875
1098.80005	5361.8875
1102.45857	5223.8875
1106.11456	5176.0875
1109.76805	5176.8875
1113.41903	5303.5875
1117.06751	5453.7875
1120.71348	5662.8875
1124.35696	5921.4875
1127.99793	6203.4875
1131.63641	6353.8875
1135.2724	6211.7875
1138.90589	5945.8875
1142.5369	5742.6875
1146.16542	5535.9875
1149.79145	5385.0875
1153.415	5278.0875
1157.03607	5232.3875
1160.65467	5257.1875
1164.27079	5376.1875
1167.88443	5609.9875
1171.49561	5973.7875
1175.10432	6587.9875
1178.71056	7447.2875
1182.31434	8169.7875
1185.91565	8347.1875
1189.51451	8055.8875
1193.11091	7569.7875
1196.70485	7079.0875
1200.29634	6691.4875
1203.88538	6395.8875
1207.47197	6055.3875
1211.05612	5733.3875
1214.63782	5504.4875
1218.21708	5418.4875
1221.79391	5384.8875
1225.36829	5404.3875
1228.94024	5397.9875
1232.50976	5361.1875
1236.07685	5303.1875
1239.6415	5265.0875
1243.20374	5262.5875
1246.76355	5281.9875
1250.32093	5308.1875
1253.8759	5390.9875
1257.42845	5500.6875
1260.97859	5665.7875
1264.52631	5857.5875
1268.07163	6058.4875
1271.61453	6220.3875
1275.15503	6336.2875
1278.69312	6401.5875
1282.22882	6405.9875
1285.76211	6505.3875
1289.29301	6725.5875
1292.82151	6978.0875
1296.34761	7235.5875
1299.87133	7637.2875
1303.39266	8181.2875
1306.9116	8996.6875
1310.42815	9956.7875
1313.94233	10599.3875
1317.45412	10436.7875
1320.96354	9721.9875
1324.47058	8920.9875
1327.97525	8192.5875
1331.47754	7652.1875
1334.97747	7369.9875
1338.47502	7293.8875
1341.97022	7407.8875
1345.46305	7690.1875
1348.95352	8281.2875
1352.44163	9111.3875
1355.92738	10223.7875
1359.41078	11746.8875
1362.89183	13416.1875
1366.37053	13604.2875
1369.84688	11886.9875
1373.32088	9725.9875
1376.79254	8281.4875
1380.26186	7578.3875
1383.72883	7223.5875
1387.19347	6994.5875
1390.65578	6734.5875
1394.11575	6528.3875
1397.57339	6403.9875
1401.0287	6298.8875
1404.48168	6249.0875
1407.93234	6125.4875
1411.38068	5999.6875
1414.82669	5903.4875
1418.27039	5805.0875
1421.71177	5732.7875
1425.15083	5643.1875
1428.58758	5525.7875
1432.02203	5524.6875
1435.45416	5545.8875
1438.88399	5602.6875
1442.31151	5608.1875
1445.73673	5611.2875
1449.15965	5595.4875
1452.58027	5601.7875
1455.9986	5529.3875
1459.41463	5494.6875
1462.82837	5531.2875
1466.23982	5631.2875
1469.64898	5728.9875
1473.05586	5815.8875
1476.46045	5847.7875
1479.86276	5915.5875
1483.26279	5997.3875
1486.66054	6095.4875
1490.05602	6296.8875
1493.44922	6577.9875
1496.84016	7035.2875
1500.22882	7718.1875
1503.61521	8761.8875
1506.99934	9981.6875
1510.38121	11153.6875
1513.76081	11665.3875
1517.13816	11135.8875
1520.51324	9728.4875
1523.88607	8294.5875
1527.25665	7303.0875
1530.62498	6756.4875
1533.99105	6427.2875
1537.35488	6217.5875
1540.71647	6058.1875
1544.07581	5948.5875
1547.4329	5913.8875
1550.78776	5891.5875
1554.14038	5936.7875
1557.49077	6043.1875
1560.83892	6134.5875
1564.18484	6303.4875
1567.52853	6501.5875
1570.86999	6730.9875
1574.20922	6883.1875
1577.54624	6875.0875
1580.88103	6594.8875
1584.2136	6089.7875
1587.54395	5744.9875
1590.87208	5663.6875
1594.19801	5799.8875
1597.52172	6139.4875
1600.84321	6354.5875
1604.16251	6213.3875
1607.47959	5935.6875
1610.79447	5603.5875
1614.10715	5300.4875
1617.41763	5069.4875
1620.7259	4881.3875
1624.03199	4793.3875
1627.33587	4818.0875
1630.63757	4892.8875
1633.93707	5069.4875
1637.23439	5375.2875
1640.52951	5881.2875
1643.82246	6686.5875
1647.11321	7653.2875
1650.40179	8377.2875
1653.68819	8342.4875
1656.97241	7421.6875
1660.25446	6229.5875
1663.53433	5328.8875
1666.81203	4779.8875
1670.08756	4454.9875
1673.36092	4241.6875
1676.63211	4109.2875
1679.90115	4040.8875
1683.16801	3975.7875
1686.43272	3926.3875
1689.69527	3880.4875
1692.95567	3868.7875
1696.2139	3859.2875
1699.46999	3819.0875
1702.72392	3770.2875
1705.97571	3712.1875
1709.22535	3682.2875
1712.47284	3633.6875
1715.71819	3586.1875
1718.96139	3525.4875
1722.20246	3470.8875
1725.44139	3429.9875
1728.67818	3384.4875
1731.91284	3335.9875
1735.14537	3296.6875
1738.37576	3253.5875
1741.60403	3229.1875
1744.83017	3212.1875
1748.05418	3185.8875
1751.27607	3173.1875
1754.49584	3150.7875
1757.71349	3146.1875
1760.92903	3099.6875
1764.14244	3100.0875
1767.35375	3092.3875
1770.56294	3069.6875
1773.77002	3073.4875
1776.97499	3057.7875
1780.17785	3027.2875
1783.37861	3026.2875
1786.57727	3020.2875
1789.77382	3010.9875
1792.96828	2993.8875
1796.16064	2976.5875
1799.3509	2965.9875
1802.53907	2953.8875
1805.72514	2940.2875
1808.90913	2934.6875
1812.09102	2921.9875
1815.27083	2899.4875
1818.44856	2895.9875
1821.6242	2890.0875
1824.79776	2872.4875
1827.96924	2859.8875
1831.13864	2860.6875
1834.30597	2853.3875
1837.47122	2839.5875
1840.6344	2826.9875
1843.7955	2823.9875
1846.95454	2821.0875
1850.11151	2811.8875
1853.26642	2812.6875
1856.41926	2801.3875
1859.57004	2794.3875
1862.71876	2793.0875
1865.86542	2776.5875
1869.01003	2797.4875
1872.15258	2780.3875
1875.29308	2765.3875
1878.43152	2760.2875
1881.56792	2752.2875
1884.70227	2744.8875
1887.83457	2732.5875
1890.96482	2737.7875
1894.09304	2721.2875
1897.21921	2721.7875
1900.34335	2704.5875
1903.46544	2710.8875
1906.58551	2700.3875
1909.70353	2702.1875
1912.81953	2685.0875
1915.93349	2683.8875
1919.04543	2683.0875
1922.15534	2664.4875
1925.26322	2655.5875
1928.36908	2647.2875
1931.47292	2627.5875
1934.57473	2621.6875
1937.67453	2611.1875
1940.77232	2591.3875
1943.86808	2585.9875
1946.96184	2562.1875
1950.05358	2552.8875
1953.14331	2545.8875
1956.23103	2553.6875
1959.31675	2522.3875
1962.40046	2521.9875
1965.48217	2509.1875
1968.56188	2504.4875
1971.63959	2497.7875
1974.7153	2488.6875
1977.78901	2486.7875
1980.86073	2486.6875
1983.93046	2459.9875
1986.99819	2439.5875
1990.06394	2439.2875
1993.1277	2436.7875
1996.18947	2423.5875
1999.24925	2400.4875
2002.30706	2380.9875
2005.36288	2381.1875
2008.41672	2373.9875
2011.46859	2368.6875
2014.51848	2348.0875
2017.56639	2340.1875
2020.61233	2338.9875
2023.6563	2324.8875
2026.6983	2308.1875
2029.73833	2306.9875
2032.7764	2293.6875
2035.8125	2291.0875
2038.84664	2286.4875
2041.87881	2287.9875
2044.90903	2271.1875
2047.93729	2270.3875
2050.96359	2265.5875
2053.98794	2257.5875
2057.01034	2254.4875
2060.03078	2248.3875
2063.04927	2250.1875
2066.06582	2235.7875
2069.08042	2235.5875
2072.09307	2226.9875
2075.10378	2222.1875
2078.11255	2225.0875
2081.11938	2224.4875
2084.12426	2222.9875
2087.12722	2222.1875
2090.12824	2208.9875
2093.12732	2200.9875
2096.12447	2215.2875
2099.11969	2211.2875
2102.11299	2207.2875
2105.10435	2202.5875
2108.09379	2201.1875
2111.08131	2199.7875
2114.0669	2194.5875
2117.05057	2211.7875
2120.03233	2201.4875
2123.01216	2201.7875
2125.99008	2197.4875
2128.96609	2194.8875
2131.94018	2195.0875
2134.91236	2199.6875
2137.88263	2189.6875
2140.851	2192.1875
2143.81746	2182.1875
2146.78201	2186.1875
2149.74466	2171.8875
2152.7054	2161.4875
2155.66425	2154.9875
2158.6212	2160.1875
2161.57625	2141.6875
2164.52941	2144.9875
2167.48067	2136.8875
2170.43004	2148.4875
2173.37752	2141.4875
2176.32311	2130.7875
2179.26681	2128.6875
2182.20863	2123.9875
2185.14856	2129.7875
2188.08661	2121.0875
2191.02278	2126.2875
2193.95707	2106.5875
2196.88948	2106.2875
2199.82001	2111.0875
2202.74867	2090.7875
2205.67545	2092.9875
2208.60037	2084.2875
2211.52341	2079.7875
2214.44458	2068.1875
2217.36388	2061.3875
2220.28132	2063.2875
2223.1969	2049.9875
2226.11061	2040.1875
2229.02246	2031.7875
2231.93245	2022.7875
2234.84058	2022.6875
2237.74686	2029.6875
2240.65128	2027.3875
2243.55385	2023.8875
2246.45456	2004.8875
2249.35343	2002.5875
2252.25044	2005.9875
2255.14561	1994.3875
2258.03893	1997.6875
2260.93041	1990.0875
2263.82004	1983.6875
2266.70783	1974.0875
2269.59378	1972.2875
2272.4779	1967.7875
2275.36017	1957.8875
2278.24061	1941.3875
2281.11922	1947.3875
2283.996	1944.1875
2286.87094	1940.3875
2289.74405	1928.4875
2292.61534	1923.4875
2295.4848	1914.0875
2298.35243	1903.7875
2301.21824	1912.3875
2304.08223	1909.0875
2306.94439	1893.3875
2309.80474	1891.6875
2312.66327	1895.6875
2315.51999	1893.0875
2318.37489	1885.1875
2321.22797	1882.5875
2324.07925	1880.0875
2326.92871	1867.4875
2329.77637	1875.5875
2332.62222	1871.9875
2335.46626	1862.0875
2338.3085	1858.2875
2341.14893	1850.6875
2343.98756	1842.8875
2346.8244	1844.8875
2349.65943	1835.7875
2352.49267	1835.6875
2355.32411	1842.2875
2358.15376	1842.7875
2360.98161	1855.8875
2363.80768	1848.1875
2366.63195	1861.8875
2369.45444	1862.5875
2372.27514	1850.6875
2375.09405	1855.2875
2377.91118	1841.7875
2380.72652	1832.3875
2383.54009	1820.4875
2386.35187	1807.2875
2389.16188	1800.6875
2391.97011	1792.9875
2394.77657	1774.1875
2397.58125	1774.2875
2400.38416	1762.7875
2403.18529	1758.1875
2405.98466	1756.7875
2408.78226	1747.7875
2411.57809	1747.3875
2414.37216	1739.1875
2417.16446	1732.7875
2419.955	1736.5875
2422.74378	1729.7875
2425.5308	1731.4875
2428.31606	1729.5875
2431.09956	1731.9875
2433.88131	1726.7875
2436.6613	1722.0875
2439.43954	1720.4875
2442.21603	1721.0875
2444.99077	1713.8875
2447.76377	1722.3875
2450.53501	1718.2875
2453.30451	1716.2875
2456.07226	1700.6875
2458.83827	1703.9875
2461.60254	1694.0875
2464.36507	1697.9875
2467.12586	1693.6875
2469.88492	1692.5875
2472.64224	1682.1875
2475.39782	1691.9875
2478.15167	1692.7875
2480.90379	1687.5875
2483.65417	1686.5875
2486.40283	1704.3875
2489.14976	1695.5875
2491.89497	1690.7875
2494.63845	1700.2875
2497.3802	1690.1875
2500.12024	1678.0875
2502.85855	1679.6875
2505.59514	1672.1875
2508.33002	1674.1875
2511.06318	1654.2875
2513.79462	1651.3875
2516.52435	1635.4875
2519.25237	1631.8875
2521.97867	1616.0875
2524.70327	1608.1875
2527.42616	1604.8875
2530.14734	1599.0875
2532.86681	1590.5875
2535.58458	1585.3875
2538.30065	1603.4875
2541.01501	1598.6875
2543.72768	1595.4875
2546.43864	1583.0875
2549.14791	1570.5875
2551.85548	1570.4875
2554.56136	1578.7875
2557.26554	1578.2875
2559.96803	1571.8875
2562.66883	1565.6875
2565.36794	1559.2875
2568.06536	1562.7875
2570.7611	1554.0875
2573.45514	1552.9875
2576.14751	1540.9875
2578.83819	1542.4875
2581.52719	1526.1875
2584.21451	1526.8875
2586.90015	1525.3875
2589.58411	1519.3875
2592.2664	1524.6875
2594.94701	1512.9875
2597.62594	1505.7875
2600.30321	1499.2875
2602.9788	1509.5875
2605.65273	1490.8875
2608.32498	1497.9875
2610.99557	1493.8875
2613.66449	1490.2875
2616.33175	1495.8875
2618.99734	1490.1875
2621.66128	1487.5875
2624.32355	1483.7875
2626.98416	1491.4875
2629.64311	1469.3875
2632.30041	1470.5875
2634.95605	1466.6875
2637.61004	1468.9875
2640.26238	1468.5875
2642.91306	1461.9875
2645.56209	1456.1875
2648.20948	1462.7875
2650.85521	1460.7875
2653.4993	1453.5875
2656.14175	1448.8875
2658.78255	1458.0875
2661.42171	1448.8875
2664.05923	1459.2875
2666.6951	1459.3875
2669.32934	1456.5875
2671.96194	1451.0875
2674.59291	1454.2875
2677.22224	1453.9875
2679.84993	1454.8875
2682.476	1459.7875
2685.10043	1457.2875
2687.72324	1446.8875
2690.34441	1443.8875
2692.96396	1447.0875
2695.58188	1453.9875
2698.19818	1440.9875
2700.81285	1441.0875
2703.4259	1443.4875
2706.03733	1430.5875
2708.64714	1431.6875
2711.25533	1435.6875
2713.86191	1440.9875
2716.46687	1438.8875
2719.07021	1443.5875
2721.67194	1451.3875
2724.27206	1439.1875
2726.87057	1442.0875
2729.46747	1445.7875
2732.06276	1447.0875
2734.65644	1435.9875
2737.24852	1438.9875
2739.83899	1434.4875
2742.42786	1433.9875
2745.01513	1426.4875
2747.60079	1418.5875
2750.18486	1421.1875
2752.76733	1423.6875
2755.3482	1410.2875
2757.92747	1406.7875
2760.50515	1413.8875
2763.08123	1408.2875
2765.65573	1403.2875
2768.22863	1398.4875
2770.79994	1394.3875
2773.36967	1393.4875
2775.9378	1399.4875
2778.50435	1384.2875
2781.06932	1383.4875
2783.6327	1383.6875
2786.1945	1384.8875
2788.75471	1389.2875
2791.31335	1377.5875
2793.87041	1373.4875
2796.42589	1382.0875
2798.97979	1374.5875
2801.53212	1370.8875
2804.08288	1366.8875
2806.63206	1360.8875
2809.17967	1356.8875
2811.72571	1367.2875
2814.27018	1351.7875
2816.81308	1356.6875
2819.35442	1352.6875
2821.89419	1347.1875
2824.43239	1353.9875
2826.96904	1362.7875
2829.50412	1352.6875
2832.03763	1359.3875
2834.56959	1355.7875
2837.1	1352.9875
2839.62884	1359.9875
2842.15613	1366.6875
2844.68186	1383.7875
2847.20604	1389.7875
2849.72867	1405.8875
2852.24974	1403.3875
2854.76927	1408.0875
2857.28724	1399.0875
2859.80367	1400.7875
2862.31855	1400.8875
2864.83189	1409.5875
2867.34368	1406.3875
2869.85393	1407.0875
2872.36264	1408.5875
2874.8698	1415.5875
2877.37543	1413.7875
2879.87952	1417.0875
2882.38207	1411.9875
2884.88308	1421.2875
2887.38256	1408.3875
2889.88051	1415.0875
2892.37692	1407.5875
2894.8718	1417.9875
2897.36515	1422.4875
2899.85698	1428.9875
2902.34727	1426.7875
2904.83604	1426.2875
2907.32328	1437.3875
2909.809	1451.0875
2912.29319	1447.3875
2914.77587	1443.6875
2917.25702	1460.4875
2919.73665	1453.2875
2922.21476	1456.1875
2924.69136	1463.8875
2927.16644	1457.3875
2929.64	1457.4875
2932.11205	1459.0875
2934.58258	1449.8875
2937.05161	1450.2875
2939.51912	1436.3875
2941.98513	1428.8875
2944.44962	1422.4875
2946.91261	1415.8875
2949.37409	1404.4875
2951.83407	1383.8875
2954.29254	1381.4875
2956.74951	1364.5875
2959.20498	1361.9875
2961.65895	1357.6875
2964.11142	1345.2875
2966.56239	1340.2875
2969.01186	1300.8875
2971.45984	1319.3875
2973.90632	1328.0875
2976.35131	1313.5875
2978.7948	1308.7875
2981.23681	1305.6875
2983.67732	1306.2875
2986.11635	1293.7875
2988.55388	1293.6875
2990.98993	1285.4875
2993.4245	1288.1875
2995.85758	1289.7875
2998.28917	1280.2875
3000.71928	1275.8875
3003.14791	1284.8875
3005.57506	1275.5875
3008.00073	1267.7875
3010.42493	1264.4875
3012.84764	1269.3875
3015.26888	1270.6875
3017.68865	1273.0875
3020.10694	1272.6875
3022.52376	1265.6875
3024.9391	1268.2875
3027.35298	1266.8875
3029.76539	1260.6875
3032.17632	1255.3875
3034.5858	1266.2875
3036.9938	1264.0875
3039.40034	1260.9875
3041.80542	1264.8875
3044.20903	1259.5875
3046.61118	1266.2875
3049.01187	1260.3875
3051.4111	1265.9875
3053.80888	1264.8875
3056.20519	1264.2875
3058.60005	1262.4875
3060.99345	1265.3875
3063.3854	1256.0875
3065.7759	1266.8875
3068.16494	1256.5875
3070.55254	1256.8875
3072.93868	1261.5875
3075.32338	1263.1875
3077.70662	1263.8875
3080.08842	1256.1875
3082.46878	1257.2875
3084.84769	1268.0875
3087.22515	1259.4875
3089.60118	1270.3875
3091.97576	1269.2875
3094.3489	1278.4875
3096.72061	1276.8875
3099.09087	1282.3875
3101.4597	1284.7875
3103.82709	1289.4875
3106.19305	1291.4875
3108.55757	1289.8875
3110.92066	1290.6875
3113.28232	1302.3875
3115.64255	1294.0875
3118.00134	1302.7875
3120.35871	1305.5875
3122.71466	1307.4875
3125.06917	1310.2875
