Data from AgNPs_APTES_FTO_UA_50uM_CRN_0uM_R6G_10uM_Scan_RamanShift__4__11-15-43-652.txt Node

Date: Tue Jul 05 11:15:43 BST 2022
User: TCL
Spectrometer: QEP01345
Trigger mode: 4
Integration Time (sec): 7.000000E0
Scans to average: 10
Electric dark correction enabled: true
Nonlinearity correction enabled: false
Boxcar width: 0
XAxis mode: Raman Shifts
Number of Pixels in Spectrum: 1044
>>>>>Begin Spectral Data<<<<<
46.04893	-0.1875
50.45542	-0.4875
54.85868	-1.2875
59.25871	0.9125
63.6555	40.3125
68.04907	47.3125
72.43941	54.9125
76.82654	54.9125
81.21044	56.7125
85.59113	61.1125
89.96862	62.6125
94.34289	65.2125
98.71396	72.0125
103.08183	71.5125
107.4465	68.4125
111.80798	72.2125
116.16626	71.7125
120.52136	67.0125
124.87327	74.3125
129.222	74.7125
133.56755	74.3125
137.90993	76.9125
142.24913	80.6125
146.58517	84.6125
150.91804	92.2125
155.24774	100.5125
159.57429	117.8125
163.89768	140.3125
168.21792	180.9125
172.53501	227.1125
176.84895	299.2125
181.15975	411.5125
185.46741	573.3125
189.77193	778.4125
194.07331	1065.0125
198.37157	1373.0125
202.6667	1708.2125
206.9587	2047.0125
211.24758	2389.4125
215.53334	2756.7125
219.81599	3146.3125
224.09553	3577.6125
228.37195	4031.6125
232.64527	4489.6125
236.91549	4972.2125
241.18261	5374.7125
245.44663	5700.5125
249.70755	5972.8125
253.96539	6189.8125
258.22014	6376.5125
262.4718	6518.0125
266.72039	6588.4125
270.96589	6547.9125
275.20832	6417.7125
279.44768	6207.4125
283.68397	5983.8125
287.91719	5782.0125
292.14735	5663.2125
296.37445	5698.6125
300.59849	5873.3125
304.81948	6126.3125
309.03742	6387.1125
313.25231	6517.2125
317.46415	6296.1125
321.67296	5779.4125
325.87872	5231.0125
330.08145	4935.1125
334.28114	4847.3125
338.47781	4929.0125
342.67145	5065.3125
346.86207	5315.2125
351.04966	5699.0125
355.23424	6074.6125
359.4158	6277.8125
363.59435	6219.6125
367.76989	6080.1125
371.94243	5935.3125
376.11196	5782.9125
380.27849	5659.5125
384.44203	5567.2125
388.60257	5480.9125
392.76012	5413.6125
396.91468	5473.8125
401.06626	5600.6125
405.21485	5644.1125
409.36047	5479.2125
413.50311	5126.9125
417.64277	4778.6125
421.77947	4594.8125
425.9132	4489.5125
430.04396	4439.9125
434.17176	4450.6125
438.2966	4511.4125
442.41849	4586.4125
446.53742	4686.5125
450.6534	4789.2125
454.76644	4814.7125
458.87653	4806.8125
462.98368	4733.0125
467.08789	4699.9125
471.18916	4633.1125
475.2875	4520.0125
479.38291	4445.2125
483.4754	4387.1125
487.56496	4360.7125
491.6516	4358.2125
495.73531	4390.5125
499.81612	4410.4125
503.89401	4486.1125
507.96899	4570.8125
512.04106	4680.1125
516.11023	4795.3125
520.1765	4873.6125
524.23987	4893.6125
528.30034	4829.0125
532.35792	4770.9125
536.41261	4673.8125
540.46441	4555.4125
544.51333	4494.6125
548.55936	4499.1125
552.60252	4554.6125
556.64279	4672.2125
560.6802	4785.1125
564.71473	4953.4125
568.7464	5269.0125
572.7752	5340.5125
576.80114	4982.0125
580.82422	4611.0125
584.84444	4473.1125
588.86181	4473.2125
592.87633	4534.7125
596.888	4652.3125
600.89682	4938.8125
604.9028	5807.4125
608.90594	8022.2125
612.90624	10993.0125
616.90371	10926.9125
620.89834	7493.3125
624.89015	5593.0125
628.87913	5141.2125
632.86528	5153.4125
636.84862	5236.5125
640.82913	5062.0125
644.80683	4729.4125
648.78172	4516.3125
652.75379	4488.6125
656.72306	4720.3125
660.68952	5019.7125
664.65319	4995.3125
668.61405	4691.8125
672.57211	4593.9125
676.52738	4698.5125
680.47986	4905.1125
684.42955	5118.6125
688.37646	5247.3125
692.32058	5201.1125
696.26192	5024.1125
700.20048	4866.8125
704.13626	4821.7125
708.06928	4723.5125
711.99952	4680.2125
715.927	4622.7125
719.85171	4612.1125
723.77365	4617.3125
727.69284	4590.5125
731.60928	4517.2125
735.52295	4498.5125
739.43388	4481.1125
743.34206	4485.7125
747.24749	4472.1125
751.15017	4481.8125
755.05012	4541.5125
758.94733	4837.4125
762.8418	5599.4125
766.73354	6863.8125
770.62254	8021.7125
774.50882	8402.2125
778.39237	7925.6125
782.27321	6892.9125
786.15132	5755.4125
790.02671	5034.5125
793.89938	4701.6125
797.76935	4583.4125
801.6366	4551.1125
805.50115	4544.9125
809.36299	4538.4125
813.22213	4555.5125
817.07857	4541.8125
820.93231	4530.4125
824.78336	4542.7125
828.63172	4552.7125
832.47738	4561.7125
836.32036	4519.6125
840.16066	4477.7125
843.99827	4478.3125
847.8332	4479.0125
851.66546	4468.8125
855.49504	4473.3125
859.32195	4446.4125
863.1462	4427.4125
866.96777	4447.0125
870.78668	4474.5125
874.60293	4505.8125
878.41652	4548.1125
882.22745	4622.9125
886.03573	4717.8125
889.84136	4777.4125
893.64433	4821.0125
897.44466	4876.9125
901.24235	4939.7125
905.0374	4998.9125
908.8298	5054.5125
912.61957	5129.7125
916.40671	5233.3125
920.19121	5387.6125
923.97308	5560.2125
927.75233	5712.7125
931.52895	5851.9125
935.30295	5731.7125
939.07433	5460.3125
942.84309	5181.0125
946.60924	4949.9125
950.37278	4786.8125
954.13371	4670.9125
957.89203	4572.8125
961.64774	4497.2125
965.40086	4394.7125
969.15137	4331.3125
972.89929	4273.1125
976.64461	4219.8125
980.38733	4181.7125
984.12747	4157.1125
987.86502	4111.8125
991.59999	4145.3125
995.33237	4128.1125
999.06217	4147.0125
1002.78939	4203.3125
1006.51404	4289.3125
1010.23611	4386.4125
1013.95561	4380.1125
1017.67255	4359.7125
1021.38692	4308.5125
1025.09872	4275.0125
1028.80796	4256.5125
1032.51465	4231.6125
1036.21877	4254.3125
1039.92035	4285.9125
1043.61937	4323.3125
1047.31584	4348.9125
1051.00976	4390.6125
1054.70114	4371.8125
1058.38998	4355.6125
1062.07627	4321.4125
1065.76003	4310.2125
1069.44126	4263.2125
1073.11995	4248.2125
1076.79611	4299.1125
1080.46974	4390.4125
1084.14085	4574.3125
1087.80943	4757.5125
1091.47549	4803.1125
1095.13903	4629.2125
1098.80005	4388.2125
1102.45857	4229.3125
1106.11456	4189.6125
1109.76805	4230.9125
1113.41903	4339.0125
1117.06751	4565.0125
1120.71348	4876.6125
1124.35696	5248.4125
1127.99793	5663.6125
1131.63641	5683.9125
1135.2724	5284.6125
1138.90589	4879.5125
1142.5369	4618.8125
1146.16542	4467.0125
1149.79145	4308.4125
1153.415	4257.0125
1157.03607	4224.8125
1160.65467	4275.2125
1164.27079	4415.6125
1167.88443	4620.7125
1171.49561	4988.0125
1175.10432	5648.6125
1178.71056	6646.3125
1182.31434	7491.0125
1185.91565	7608.1125
1189.51451	7181.8125
1193.11091	6508.7125
1196.70485	5913.4125
1200.29634	5546.2125
1203.88538	5291.1125
1207.47197	4902.4125
1211.05612	4566.6125
1214.63782	4334.4125
1218.21708	4223.3125
1221.79391	4160.0125
1225.36829	4158.6125
1228.94024	4177.8125
1232.50976	4175.0125
1236.07685	4181.9125
1239.6415	4203.9125
1243.20374	4247.0125
1246.76355	4298.3125
1250.32093	4371.7125
1253.8759	4454.4125
1257.42845	4589.4125
1260.97859	4772.8125
1264.52631	4998.6125
1268.07163	5209.5125
1271.61453	5387.9125
1275.15503	5445.9125
1278.69312	5424.2125
1282.22882	5389.8125
1285.76211	5555.7125
1289.29301	5889.2125
1292.82151	6186.6125
1296.34761	6467.0125
1299.87133	6830.1125
1303.39266	7551.7125
1306.9116	8784.6125
1310.42815	10327.5125
1313.94233	11205.4125
1317.45412	10632.1125
1320.96354	9212.4125
1324.47058	7839.2125
1327.97525	6740.9125
1331.47754	6102.1125
1334.97747	5846.2125
1338.47502	5863.5125
1341.97022	6129.2125
1345.46305	6760.5125
1348.95352	7766.2125
1352.44163	8897.6125
1355.92738	10291.6125
1359.41078	12366.9125
1362.89183	14930.0125
1366.37053	15259.6125
1369.84688	12508.1125
1373.32088	9419.6125
1376.79254	7703.1125
1380.26186	6929.0125
1383.72883	6506.6125
1387.19347	6191.1125
1390.65578	5857.1125
1394.11575	5629.4125
1397.57339	5488.6125
1401.0287	5362.7125
1404.48168	5256.5125
1407.93234	5127.7125
1411.38068	5044.7125
1414.82669	5050.2125
1418.27039	5106.3125
1421.71177	5153.3125
1425.15083	5085.2125
1428.58758	4986.5125
1432.02203	4985.8125
1435.45416	5041.5125
1438.88399	5032.6125
1442.31151	4943.2125
1445.73673	4875.5125
1449.15965	4852.3125
1452.58027	4797.7125
1455.9986	4740.4125
1459.41463	4690.5125
1462.82837	4693.1125
1466.23982	4748.3125
1469.64898	4882.4125
1473.05586	4957.9125
1476.46045	4969.6125
1479.86276	4992.8125
1483.26279	5113.5125
1486.66054	5312.0125
1490.05602	5568.7125
1493.44922	6008.2125
1496.84016	6729.1125
1500.22882	7934.3125
1503.61521	9627.9125
1506.99934	11770.4125
1510.38121	13879.9125
1513.76081	14820.0125
1517.13816	13777.8125
1520.51324	11377.7125
1523.88607	9008.4125
1527.25665	7368.5125
1530.62498	6389.2125
1533.99105	5882.7125
1537.35488	5524.3125
1540.71647	5294.6125
1544.07581	5163.4125
1547.4329	5191.3125
1550.78776	5195.3125
1554.14038	5315.6125
1557.49077	5463.0125
1560.83892	5635.8125
1564.18484	5937.0125
1567.52853	6354.2125
1570.86999	6752.8125
1574.20922	7001.8125
1577.54624	6973.5125
1580.88103	6517.8125
1584.2136	5717.7125
1587.54395	5126.1125
1590.87208	4860.3125
1594.19801	4911.1125
1597.52172	5165.0125
1600.84321	5279.0125
1604.16251	5077.2125
1607.47959	4829.7125
1610.79447	4657.2125
1614.10715	4469.9125
1617.41763	4306.3125
1620.7259	4203.1125
1624.03199	4172.4125
1627.33587	4195.8125
1630.63757	4279.4125
1633.93707	4436.7125
1637.23439	4716.2125
1640.52951	5217.4125
1643.82246	6126.2125
1647.11321	7423.9125
1650.40179	8675.3125
1653.68819	8896.1125
1656.97241	7789.0125
1660.25446	6199.8125
1663.53433	5019.0125
1666.81203	4336.4125
1670.08756	3941.3125
1673.36092	3719.5125
1676.63211	3584.5125
1679.90115	3496.5125
1683.16801	3429.8125
1686.43272	3383.9125
1689.69527	3354.6125
1692.95567	3316.6125
1696.2139	3298.2125
1699.46999	3270.8125
1702.72392	3248.0125
1705.97571	3229.3125
1709.22535	3192.4125
1712.47284	3167.7125
1715.71819	3145.3125
1718.96139	3126.1125
1722.20246	3077.4125
1725.44139	3052.5125
1728.67818	3015.6125
1731.91284	2983.7125
1735.14537	2943.4125
1738.37576	2899.9125
1741.60403	2890.8125
1744.83017	2870.9125
1748.05418	2871.0125
1751.27607	2855.3125
1754.49584	2844.6125
1757.71349	2839.3125
1760.92903	2816.4125
1764.14244	2813.5125
1767.35375	2811.1125
1770.56294	2795.2125
1773.77002	2776.8125
1776.97499	2764.9125
1780.17785	2756.7125
1783.37861	2741.9125
1786.57727	2738.0125
1789.77382	2722.1125
1792.96828	2714.9125
1796.16064	2704.6125
1799.3509	2684.1125
1802.53907	2679.2125
1805.72514	2667.9125
1808.90913	2639.7125
1812.09102	2635.2125
1815.27083	2615.8125
1818.44856	2605.1125
1821.6242	2575.4125
1824.79776	2569.7125
1827.96924	2559.3125
1831.13864	2545.5125
1834.30597	2535.4125
1837.47122	2543.2125
1840.6344	2514.5125
1843.7955	2509.4125
1846.95454	2499.6125
1850.11151	2492.0125
1853.26642	2485.0125
1856.41926	2476.2125
1859.57004	2474.4125
1862.71876	2471.4125
1865.86542	2465.3125
1869.01003	2483.7125
1872.15258	2470.9125
1875.29308	2464.6125
1878.43152	2462.7125
1881.56792	2456.7125
1884.70227	2444.6125
1887.83457	2439.8125
1890.96482	2438.7125
1894.09304	2431.4125
1897.21921	2422.9125
1900.34335	2417.5125
1903.46544	2420.0125
1906.58551	2421.8125
1909.70353	2422.1125
1912.81953	2413.2125
1915.93349	2411.3125
1919.04543	2414.3125
1922.15534	2398.1125
1925.26322	2390.8125
1928.36908	2382.4125
1931.47292	2378.6125
1934.57473	2361.2125
1937.67453	2365.6125
1940.77232	2344.8125
1943.86808	2340.8125
1946.96184	2326.6125
1950.05358	2316.9125
1953.14331	2328.9125
1956.23103	2313.1125
1959.31675	2315.3125
1962.40046	2301.6125
1965.48217	2296.6125
1968.56188	2286.9125
1971.63959	2280.0125
1974.7153	2292.7125
1977.78901	2289.7125
1980.86073	2279.9125
1983.93046	2258.8125
1986.99819	2236.9125
1990.06394	2241.6125
1993.1277	2235.1125
1996.18947	2232.6125
1999.24925	2214.9125
2002.30706	2196.9125
2005.36288	2200.3125
2008.41672	2187.1125
2011.46859	2185.1125
2014.51848	2177.9125
2017.56639	2178.3125
2020.61233	2163.9125
2023.6563	2152.0125
2026.6983	2144.8125
2029.73833	2123.2125
2032.7764	2133.2125
2035.8125	2131.5125
2038.84664	2133.3125
2041.87881	2123.1125
2044.90903	2112.6125
2047.93729	2123.4125
2050.96359	2129.7125
2053.98794	2123.2125
2057.01034	2127.9125
2060.03078	2129.2125
2063.04927	2143.7125
2066.06582	2140.8125
2069.08042	2153.9125
2072.09307	2142.0125
2075.10378	2154.4125
2078.11255	2171.7125
2081.11938	2191.2125
2084.12426	2198.9125
2087.12722	2211.7125
2090.12824	2212.7125
2093.12732	2207.3125
2096.12447	2232.6125
2099.11969	2219.4125
2102.11299	2225.5125
2105.10435	2227.8125
2108.09379	2246.3125
2111.08131	2209.8125
2114.0669	2236.2125
2117.05057	2222.3125
2120.03233	2222.2125
2123.01216	2215.0125
2125.99008	2207.2125
2128.96609	2199.6125
2131.94018	2181.2125
2134.91236	2190.2125
2137.88263	2172.5125
2140.851	2155.1125
2143.81746	2145.5125
2146.78201	2127.8125
2149.74466	2106.7125
2152.7054	2083.9125
2155.66425	2082.0125
2158.6212	2064.7125
2161.57625	2044.1125
2164.52941	2031.2125
2167.48067	2031.7125
2170.43004	2032.9125
2173.37752	2028.6125
2176.32311	2014.9125
2179.26681	2021.9125
2182.20863	2015.1125
2185.14856	2013.0125
2188.08661	2007.9125
2191.02278	1992.8125
2193.95707	1987.6125
2196.88948	1981.0125
2199.82001	1984.7125
2202.74867	1982.8125
2205.67545	1976.0125
2208.60037	1975.5125
2211.52341	1972.8125
2214.44458	1962.2125
2217.36388	1963.2125
2220.28132	1960.8125
2223.1969	1947.2125
2226.11061	1938.3125
2229.02246	1935.2125
2231.93245	1929.5125
2234.84058	1922.1125
2237.74686	1929.1125
2240.65128	1923.3125
2243.55385	1906.0125
2246.45456	1908.5125
2249.35343	1893.6125
2252.25044	1913.8125
2255.14561	1907.1125
2258.03893	1915.8125
2260.93041	1916.3125
2263.82004	1911.1125
2266.70783	1902.8125
2269.59378	1895.3125
2272.4779	1882.1125
2275.36017	1887.7125
2278.24061	1879.4125
2281.11922	1875.4125
2283.996	1871.2125
2286.87094	1863.4125
2289.74405	1854.1125
2292.61534	1855.0125
2295.4848	1836.5125
2298.35243	1836.3125
2301.21824	1843.1125
2304.08223	1835.3125
2306.94439	1830.6125
2309.80474	1833.4125
2312.66327	1832.2125
2315.51999	1828.0125
2318.37489	1824.7125
2321.22797	1821.1125
2324.07925	1817.4125
2326.92871	1817.4125
2329.77637	1813.3125
2332.62222	1808.7125
2335.46626	1790.9125
2338.3085	1807.4125
2341.14893	1791.6125
2343.98756	1796.7125
2346.8244	1794.1125
2349.65943	1788.8125
2352.49267	1797.1125
2355.32411	1791.8125
2358.15376	1799.2125
2360.98161	1805.4125
2363.80768	1807.9125
2366.63195	1812.2125
2369.45444	1821.2125
2372.27514	1808.7125
2375.09405	1811.1125
2377.91118	1804.8125
2380.72652	1799.1125
2383.54009	1787.7125
2386.35187	1786.8125
2389.16188	1763.3125
2391.97011	1764.0125
2394.77657	1740.9125
2397.58125	1746.8125
2400.38416	1738.5125
2403.18529	1733.5125
2405.98466	1726.7125
2408.78226	1713.9125
2411.57809	1710.8125
2414.37216	1710.9125
2417.16446	1709.1125
2419.955	1704.2125
2422.74378	1712.0125
2425.5308	1709.8125
2428.31606	1702.1125
2431.09956	1717.0125
2433.88131	1700.5125
2436.6613	1709.4125
2439.43954	1698.6125
2442.21603	1699.2125
2444.99077	1698.7125
2447.76377	1699.3125
2450.53501	1690.5125
2453.30451	1701.4125
2456.07226	1697.5125
2458.83827	1698.3125
2461.60254	1691.6125
2464.36507	1681.2125
2467.12586	1686.0125
2469.88492	1683.1125
2472.64224	1678.0125
2475.39782	1689.7125
2478.15167	1686.7125
2480.90379	1680.9125
2483.65417	1692.4125
2486.40283	1709.2125
2489.14976	1702.4125
2491.89497	1705.8125
2494.63845	1716.0125
2497.3802	1690.1125
2500.12024	1705.4125
2502.85855	1684.2125
2505.59514	1689.3125
2508.33002	1668.8125
2511.06318	1661.3125
2513.79462	1643.5125
2516.52435	1637.5125
2519.25237	1637.7125
2521.97867	1631.3125
2524.70327	1610.4125
2527.42616	1607.8125
2530.14734	1595.5125
2532.86681	1584.6125
2535.58458	1595.3125
2538.30065	1590.4125
2541.01501	1586.5125
2543.72768	1592.4125
2546.43864	1583.5125
2549.14791	1575.7125
2551.85548	1585.1125
2554.56136	1587.7125
2557.26554	1586.8125
2559.96803	1581.1125
2562.66883	1580.7125
2565.36794	1572.3125
2568.06536	1577.5125
2570.7611	1577.7125
2573.45514	1566.9125
2576.14751	1566.5125
2578.83819	1556.2125
2581.52719	1549.7125
2584.21451	1544.3125
2586.90015	1547.6125
2589.58411	1537.5125
2592.2664	1531.7125
2594.94701	1532.7125
2597.62594	1532.7125
2600.30321	1521.1125
2602.9788	1526.1125
2605.65273	1514.9125
2608.32498	1516.5125
2610.99557	1522.0125
2613.66449	1518.8125
2616.33175	1526.6125
2618.99734	1519.0125
2621.66128	1511.3125
2624.32355	1512.0125
2626.98416	1509.3125
2629.64311	1501.1125
2632.30041	1494.5125
2634.95605	1495.7125
2637.61004	1494.2125
2640.26238	1488.7125
2642.91306	1486.0125
2645.56209	1483.8125
2648.20948	1479.8125
2650.85521	1473.4125
2653.4993	1470.3125
2656.14175	1479.8125
2658.78255	1482.0125
2661.42171	1488.8125
2664.05923	1486.7125
2666.6951	1481.2125
2669.32934	1489.5125
2671.96194	1494.5125
2674.59291	1495.7125
2677.22224	1489.6125
2679.84993	1493.6125
2682.476	1488.4125
2685.10043	1492.0125
2687.72324	1490.3125
2690.34441	1488.6125
2692.96396	1483.6125
2695.58188	1495.3125
2698.19818	1477.2125
2700.81285	1486.5125
2703.4259	1483.3125
2706.03733	1480.5125
2708.64714	1477.7125
2711.25533	1481.8125
2713.86191	1481.3125
2716.46687	1496.6125
2719.07021	1481.6125
2721.67194	1486.5125
2724.27206	1489.9125
2726.87057	1492.1125
2729.46747	1486.3125
2732.06276	1484.8125
2734.65644	1487.7125
2737.24852	1480.8125
2739.83899	1469.3125
2742.42786	1474.9125
2745.01513	1474.6125
2747.60079	1459.4125
2750.18486	1450.4125
2752.76733	1459.3125
2755.3482	1451.3125
2757.92747	1453.6125
2760.50515	1442.6125
2763.08123	1447.4125
2765.65573	1440.5125
2768.22863	1434.9125
2770.79994	1424.4125
2773.36967	1425.1125
2775.9378	1429.0125
2778.50435	1418.8125
2781.06932	1425.6125
2783.6327	1421.7125
2786.1945	1415.5125
2788.75471	1417.7125
2791.31335	1415.1125
2793.87041	1414.4125
2796.42589	1413.5125
2798.97979	1402.6125
2801.53212	1405.3125
2804.08288	1402.4125
2806.63206	1403.2125
2809.17967	1403.8125
2811.72571	1401.0125
2814.27018	1397.4125
2816.81308	1395.5125
2819.35442	1403.8125
2821.89419	1398.2125
2824.43239	1401.7125
2826.96904	1400.9125
2829.50412	1400.3125
2832.03763	1400.7125
2834.56959	1400.6125
2837.1	1405.0125
2839.62884	1401.4125
2842.15613	1404.3125
2844.68186	1424.7125
2847.20604	1420.0125
2849.72867	1438.5125
2852.24974	1444.2125
2854.76927	1440.3125
2857.28724	1439.5125
2859.80367	1439.7125
2862.31855	1450.7125
2864.83189	1445.7125
2867.34368	1454.5125
2869.85393	1469.4125
2872.36264	1459.3125
2874.8698	1466.4125
2877.37543	1463.2125
2879.87952	1460.6125
2882.38207	1465.1125
2884.88308	1470.5125
2887.38256	1455.6125
2889.88051	1463.6125
2892.37692	1466.0125
2894.8718	1463.0125
2897.36515	1486.2125
2899.85698	1475.8125
2902.34727	1490.8125
2904.83604	1499.8125
2907.32328	1510.3125
2909.809	1514.1125
2912.29319	1536.1125
2914.77587	1541.9125
2917.25702	1546.6125
2919.73665	1561.2125
2922.21476	1550.7125
2924.69136	1555.0125
2927.16644	1551.1125
2929.64	1544.2125
2932.11205	1547.2125
2934.58258	1537.1125
2937.05161	1535.9125
2939.51912	1536.3125
2941.98513	1531.4125
2944.44962	1515.4125
2946.91261	1498.3125
2949.37409	1492.3125
2951.83407	1479.7125
2954.29254	1471.2125
2956.74951	1457.1125
2959.20498	1449.1125
2961.65895	1445.1125
2964.11142	1442.7125
2966.56239	1413.7125
2969.01186	1388.0125
2971.45984	1408.6125
2973.90632	1413.7125
2976.35131	1403.8125
2978.7948	1403.1125
2981.23681	1393.0125
2983.67732	1392.5125
2986.11635	1389.2125
2988.55388	1377.5125
2990.98993	1374.1125
2993.4245	1372.2125
2995.85758	1371.1125
2998.28917	1373.5125
3000.71928	1368.4125
3003.14791	1375.6125
3005.57506	1365.9125
3008.00073	1369.2125
3010.42493	1366.3125
3012.84764	1360.1125
3015.26888	1364.9125
3017.68865	1359.0125
3020.10694	1358.9125
3022.52376	1354.0125
3024.9391	1352.7125
3027.35298	1353.3125
3029.76539	1362.8125
3032.17632	1352.7125
3034.5858	1353.1125
3036.9938	1347.8125
3039.40034	1347.3125
3041.80542	1345.3125
3044.20903	1338.2125
3046.61118	1341.1125
3049.01187	1336.7125
3051.4111	1343.4125
3053.80888	1340.7125
3056.20519	1343.8125
3058.60005	1339.7125
3060.99345	1344.7125
3063.3854	1338.9125
3065.7759	1336.1125
3068.16494	1337.7125
3070.55254	1348.9125
3072.93868	1343.5125
3075.32338	1345.8125
3077.70662	1350.6125
3080.08842	1339.3125
3082.46878	1337.3125
3084.84769	1339.4125
3087.22515	1349.3125
3089.60118	1344.0125
3091.97576	1344.9125
3094.3489	1360.3125
3096.72061	1358.7125
3099.09087	1360.9125
3101.4597	1360.6125
3103.82709	1369.2125
3106.19305	1375.5125
3108.55757	1378.7125
3110.92066	1376.3125
3113.28232	1390.5125
3115.64255	1383.7125
3118.00134	1386.3125
3120.35871	1392.3125
3122.71466	1392.8125
3125.06917	1400.7125
