Data from AgNPs_APTES_FTO_UA_50uM_CRN_0uM_R6G_10uM_Scan_RamanShift__11__11-23-53-662.txt Node

Date: Tue Jul 05 11:23:53 BST 2022
User: TCL
Spectrometer: QEP01345
Trigger mode: 4
Integration Time (sec): 7.000000E0
Scans to average: 10
Electric dark correction enabled: true
Nonlinearity correction enabled: false
Boxcar width: 0
XAxis mode: Raman Shifts
Number of Pixels in Spectrum: 1044
>>>>>Begin Spectral Data<<<<<
46.04893	0.0875
50.45542	-0.0125
54.85868	-1.1125
59.25871	-0.3125
63.6555	35.2875
68.04907	41.9875
72.43941	43.3875
76.82654	47.1875
81.21044	49.9875
85.59113	52.2875
89.96862	55.7875
94.34289	58.2875
98.71396	56.7875
103.08183	60.8875
107.4465	57.6875
111.80798	63.9875
116.16626	60.3875
120.52136	59.7875
124.87327	64.6875
129.222	62.8875
133.56755	65.7875
137.90993	65.0875
142.24913	69.6875
146.58517	75.8875
150.91804	77.7875
155.24774	87.0875
159.57429	105.2875
163.89768	127.4875
168.21792	162.6875
172.53501	203.8875
176.84895	282.1875
181.15975	384.4875
185.46741	530.4875
189.77193	728.7875
194.07331	968.5875
198.37157	1243.1875
202.6667	1541.0875
206.9587	1827.3875
211.24758	2129.2875
215.53334	2434.3875
219.81599	2756.1875
224.09553	3131.5875
228.37195	3532.2875
232.64527	3978.3875
236.91549	4416.4875
241.18261	4819.2875
245.44663	5167.8875
249.70755	5462.4875
253.96539	5673.7875
258.22014	5856.1875
262.4718	6010.3875
266.72039	6107.0875
270.96589	6131.4875
275.20832	6067.5875
279.44768	5923.5875
283.68397	5769.7875
287.91719	5632.3875
292.14735	5564.9875
296.37445	5596.5875
300.59849	5728.1875
304.81948	5912.1875
309.03742	6085.3875
313.25231	6153.8875
317.46415	6009.7875
321.67296	5712.5875
325.87872	5369.8875
330.08145	5151.0875
334.28114	5118.1875
338.47781	5151.0875
342.67145	5265.2875
346.86207	5430.0875
351.04966	5660.9875
355.23424	5938.0875
359.4158	6119.3875
363.59435	6129.0875
367.76989	6116.4875
371.94243	6072.3875
376.11196	6043.2875
380.27849	6003.4875
384.44203	5959.1875
388.60257	5910.3875
392.76012	5912.1875
396.91468	5946.7875
401.06626	6061.0875
405.21485	6104.6875
409.36047	6031.2875
413.50311	5850.4875
417.64277	5831.8875
421.77947	5824.8875
425.9132	5451.3875
430.04396	5308.0875
434.17176	5287.4875
438.2966	5329.3875
442.41849	5424.1875
446.53742	5558.4875
450.6534	5675.3875
454.76644	5714.5875
458.87653	5695.3875
462.98368	5628.1875
467.08789	5550.7875
471.18916	5434.7875
475.2875	5368.3875
479.38291	5277.6875
483.4754	5229.2875
487.56496	5208.5875
491.6516	5229.3875
495.73531	5281.2875
499.81612	5299.6875
503.89401	5356.8875
507.96899	5425.8875
512.04106	5498.0875
516.11023	5588.4875
520.1765	5633.8875
524.23987	5622.6875
528.30034	5596.9875
532.35792	5546.9875
536.41261	5456.2875
540.46441	5343.0875
544.51333	5273.3875
548.55936	5288.2875
552.60252	5342.4875
556.64279	5468.4875
560.6802	5561.3875
564.71473	5626.9875
568.7464	5774.6875
572.7752	5876.5875
576.80114	5713.9875
580.82422	5529.0875
584.84444	5518.2875
588.86181	5670.9875
592.87633	5816.4875
596.888	5932.0875
600.89682	6018.1875
604.9028	6523.8875
608.90594	8148.1875
612.90624	10273.8875
616.90371	10040.5875
620.89834	7435.5875
624.89015	6027.5875
628.87913	5711.1875
632.86528	5769.4875
636.84862	5856.7875
640.82913	5775.5875
644.80683	5495.7875
648.78172	5304.6875
652.75379	5273.1875
656.72306	5404.4875
660.68952	5592.6875
664.65319	5540.8875
668.61405	5284.8875
672.57211	5187.7875
676.52738	5273.0875
680.47986	5446.3875
684.42955	5604.5875
688.37646	5658.2875
692.32058	5590.9875
696.26192	5474.4875
700.20048	5377.9875
704.13626	5328.3875
708.06928	5304.8875
711.99952	5268.9875
715.927	5234.3875
719.85171	5248.8875
723.77365	5263.9875
727.69284	5233.6875
731.60928	5179.3875
735.52295	5178.1875
739.43388	5178.2875
743.34206	5172.6875
747.24749	5177.7875
751.15017	5170.4875
755.05012	5254.4875
758.94733	5447.1875
762.8418	6014.1875
766.73354	6962.5875
770.62254	7941.2875
774.50882	8329.5875
778.39237	7931.5875
782.27321	6989.7875
786.15132	6108.6875
790.02671	5565.1875
793.89938	5303.0875
797.76935	5197.0875
801.6366	5184.3875
805.50115	5201.0875
809.36299	5184.1875
813.22213	5181.9875
817.07857	5161.4875
820.93231	5135.3875
824.78336	5105.1875
828.63172	5101.2875
832.47738	5089.0875
836.32036	5054.6875
840.16066	5038.5875
843.99827	5040.1875
847.8332	5040.3875
851.66546	5034.4875
855.49504	5038.5875
859.32195	5018.9875
863.1462	4995.4875
866.96777	5002.4875
870.78668	5022.4875
874.60293	5042.0875
878.41652	5091.8875
882.22745	5134.6875
886.03573	5195.2875
889.84136	5232.4875
893.64433	5234.1875
897.44466	5260.7875
901.24235	5277.5875
905.0374	5294.9875
908.8298	5326.5875
912.61957	5381.7875
916.40671	5481.9875
920.19121	5588.3875
923.97308	5727.3875
927.75233	5858.7875
931.52895	5916.8875
935.30295	5828.2875
939.07433	5604.0875
942.84309	5361.8875
946.60924	5188.9875
950.37278	5066.3875
954.13371	4943.3875
957.89203	4882.3875
961.64774	4787.8875
965.40086	4726.5875
969.15137	4658.7875
972.89929	4623.6875
976.64461	4575.7875
980.38733	4548.1875
984.12747	4509.8875
987.86502	4478.9875
991.59999	4491.1875
995.33237	4513.0875
999.06217	4542.6875
1002.78939	4618.7875
1006.51404	4689.3875
1010.23611	4801.8875
1013.95561	4835.0875
1017.67255	4828.3875
1021.38692	4825.7875
1025.09872	4735.3875
1028.80796	4658.6875
1032.51465	4607.5875
1036.21877	4595.0875
1039.92035	4608.2875
1043.61937	4601.8875
1047.31584	4628.2875
1051.00976	4643.8875
1054.70114	4649.2875
1058.38998	4648.7875
1062.07627	4650.4875
1065.76003	4663.4875
1069.44126	4649.8875
1073.11995	4654.7875
1076.79611	4712.3875
1080.46974	4775.3875
1084.14085	4885.0875
1087.80943	5020.5875
1091.47549	5073.6875
1095.13903	4952.8875
1098.80005	4771.3875
1102.45857	4615.2875
1106.11456	4558.8875
1109.76805	4604.1875
1113.41903	4700.0875
1117.06751	4849.1875
1120.71348	5072.0875
1124.35696	5338.7875
1127.99793	5634.6875
1131.63641	5718.3875
1135.2724	5489.5875
1138.90589	5198.2875
1142.5369	4989.4875
1146.16542	4842.2875
1149.79145	4727.9875
1153.415	4654.3875
1157.03607	4616.5875
1160.65467	4675.9875
1164.27079	4832.4875
1167.88443	5056.9875
1171.49561	5437.3875
1175.10432	6061.5875
1178.71056	6970.4875
1182.31434	7743.1875
1185.91565	7889.0875
1189.51451	7579.5875
1193.11091	7025.7875
1196.70485	6489.7875
1200.29634	6069.6875
1203.88538	5759.7875
1207.47197	5381.4875
1211.05612	5049.2875
1214.63782	4845.7875
1218.21708	4757.1875
1221.79391	4720.4875
1225.36829	4754.4875
1228.94024	4769.6875
1232.50976	4742.4875
1236.07685	4686.7875
1239.6415	4656.8875
1243.20374	4671.4875
1246.76355	4690.4875
1250.32093	4731.5875
1253.8759	4832.7875
1257.42845	4962.0875
1260.97859	5174.1875
1264.52631	5355.9875
1268.07163	5562.7875
1271.61453	5733.4875
1275.15503	5808.1875
1278.69312	5834.3875
1282.22882	5854.6875
1285.76211	5980.9875
1289.29301	6245.6875
1292.82151	6541.7875
1296.34761	6837.7875
1299.87133	7223.6875
1303.39266	7819.2875
1306.9116	8731.3875
1310.42815	9891.0875
1313.94233	10632.3875
1317.45412	10434.5875
1320.96354	9553.8875
1324.47058	8524.2875
1327.97525	7633.1875
1331.47754	7035.4875
1334.97747	6695.4875
1338.47502	6619.2875
1341.97022	6743.6875
1345.46305	7119.8875
1348.95352	7841.2875
1352.44163	8792.2875
1355.92738	9942.0875
1359.41078	11645.1875
1362.89183	13540.2875
1366.37053	13899.2875
1369.84688	11947.5875
1373.32088	9415.5875
1376.79254	7798.0875
1380.26186	7069.5875
1383.72883	6710.6875
1387.19347	6433.3875
1390.65578	6140.6875
1394.11575	5941.5875
1397.57339	5815.9875
1401.0287	5758.0875
1404.48168	5690.3875
1407.93234	5584.5875
1411.38068	5473.4875
1414.82669	5433.1875
1418.27039	5370.4875
1421.71177	5338.1875
1425.15083	5258.7875
1428.58758	5142.7875
1432.02203	5151.1875
1435.45416	5211.7875
1438.88399	5233.5875
1442.31151	5229.1875
1445.73673	5199.9875
1449.15965	5170.2875
1452.58027	5135.6875
1455.9986	5055.4875
1459.41463	5007.8875
1462.82837	5017.8875
1466.23982	5097.8875
1469.64898	5219.9875
1473.05586	5319.5875
1476.46045	5363.7875
1479.86276	5418.2875
1483.26279	5527.9875
1486.66054	5641.7875
1490.05602	5878.4875
1493.44922	6188.0875
1496.84016	6688.2875
1500.22882	7477.4875
1503.61521	8614.5875
1506.99934	10091.6875
1510.38121	11590.0875
1513.76081	12362.6875
1517.13816	11793.8875
1520.51324	10218.8875
1523.88607	8488.6875
1527.25665	7270.6875
1530.62498	6534.2875
1533.99105	6092.4875
1537.35488	5793.7875
1540.71647	5587.3875
1544.07581	5446.3875
1547.4329	5378.6875
1550.78776	5361.2875
1554.14038	5397.1875
1557.49077	5505.1875
1560.83892	5631.5875
1564.18484	5837.0875
1567.52853	6132.6875
1570.86999	6396.9875
1574.20922	6556.3875
1577.54624	6575.7875
1580.88103	6235.8875
1584.2136	5689.5875
1587.54395	5259.6875
1590.87208	5135.1875
1594.19801	5281.5875
1597.52172	5640.1875
1600.84321	5821.1875
1604.16251	5648.1875
1607.47959	5316.3875
1610.79447	4999.5875
1614.10715	4712.8875
1617.41763	4484.2875
1620.7259	4294.5875
1624.03199	4245.9875
1627.33587	4262.7875
1630.63757	4344.2875
1633.93707	4527.1875
1637.23439	4837.1875
1640.52951	5414.1875
1643.82246	6301.3875
1647.11321	7452.0875
1650.40179	8392.4875
1653.68819	8427.1875
1656.97241	7404.5875
1660.25446	6046.6875
1663.53433	5010.6875
1666.81203	4346.6875
1670.08756	3998.8875
1673.36092	3768.6875
1676.63211	3651.8875
1679.90115	3560.7875
1683.16801	3485.8875
1686.43272	3459.3875
1689.69527	3432.4875
1692.95567	3390.5875
1696.2139	3390.2875
1699.46999	3357.9875
1702.72392	3312.0875
1705.97571	3294.5875
1709.22535	3262.8875
1712.47284	3213.9875
1715.71819	3178.0875
1718.96139	3141.7875
1722.20246	3094.6875
1725.44139	3044.4875
1728.67818	3008.6875
1731.91284	2962.9875
1735.14537	2930.1875
1738.37576	2895.1875
1741.60403	2856.9875
1744.83017	2846.6875
1748.05418	2839.5875
1751.27607	2817.4875
1754.49584	2794.4875
1757.71349	2788.9875
1760.92903	2777.4875
1764.14244	2751.1875
1767.35375	2749.4875
1770.56294	2730.7875
1773.77002	2711.7875
1776.97499	2709.2875
1780.17785	2698.7875
1783.37861	2687.0875
1786.57727	2682.3875
1789.77382	2654.8875
1792.96828	2648.8875
1796.16064	2626.1875
1799.3509	2634.2875
1802.53907	2621.1875
1805.72514	2598.3875
1808.90913	2614.2875
1812.09102	2580.7875
1815.27083	2569.8875
1818.44856	2555.1875
1821.6242	2556.1875
1824.79776	2545.2875
1827.96924	2534.4875
1831.13864	2530.6875
1834.30597	2524.0875
1837.47122	2516.7875
1840.6344	2506.3875
1843.7955	2502.9875
1846.95454	2499.8875
1850.11151	2487.2875
1853.26642	2484.5875
1856.41926	2473.7875
1859.57004	2464.7875
1862.71876	2463.3875
1865.86542	2455.4875
1869.01003	2455.3875
1872.15258	2441.7875
1875.29308	2443.9875
1878.43152	2436.2875
1881.56792	2425.9875
1884.70227	2420.6875
1887.83457	2414.3875
1890.96482	2401.6875
1894.09304	2404.2875
1897.21921	2395.1875
1900.34335	2391.8875
1903.46544	2377.9875
1906.58551	2385.5875
1909.70353	2368.4875
1912.81953	2369.1875
1915.93349	2362.3875
1919.04543	2363.2875
1922.15534	2354.8875
1925.26322	2341.0875
1928.36908	2333.6875
1931.47292	2321.2875
1934.57473	2312.5875
1937.67453	2294.8875
1940.77232	2283.3875
1943.86808	2271.1875
1946.96184	2262.9875
1950.05358	2266.6875
1953.14331	2251.2875
1956.23103	2241.6875
1959.31675	2240.2875
1962.40046	2231.0875
1965.48217	2220.8875
1968.56188	2224.0875
1971.63959	2203.8875
1974.7153	2211.3875
1977.78901	2197.7875
1980.86073	2204.3875
1983.93046	2187.4875
1986.99819	2168.4875
1990.06394	2158.8875
1993.1277	2157.4875
1996.18947	2160.0875
1999.24925	2134.1875
2002.30706	2122.3875
2005.36288	2105.8875
2008.41672	2108.8875
2011.46859	2096.1875
2014.51848	2100.3875
2017.56639	2075.0875
2020.61233	2075.2875
2023.6563	2057.1875
2026.6983	2051.1875
2029.73833	2051.9875
2032.7764	2037.3875
2035.8125	2040.3875
2038.84664	2029.4875
2041.87881	2022.6875
2044.90903	2016.6875
2047.93729	2015.0875
2050.96359	2015.1875
2053.98794	2009.4875
2057.01034	2003.9875
2060.03078	1998.1875
2063.04927	1996.7875
2066.06582	1996.3875
2069.08042	1989.5875
2072.09307	1983.0875
2075.10378	1986.1875
2078.11255	1997.1875
2081.11938	1993.2875
2084.12426	1988.2875
2087.12722	1994.2875
2090.12824	1974.8875
2093.12732	1991.1875
2096.12447	1988.0875
2099.11969	1989.8875
2102.11299	1974.9875
2105.10435	1972.4875
2108.09379	1981.7875
2111.08131	1981.7875
2114.0669	1986.5875
2117.05057	1984.0875
2120.03233	1982.1875
2123.01216	1973.5875
2125.99008	1977.5875
2128.96609	1978.6875
2131.94018	1967.5875
2134.91236	1972.6875
2137.88263	1973.7875
2140.851	1958.2875
2143.81746	1957.4875
2146.78201	1941.0875
2149.74466	1936.9875
2152.7054	1930.2875
2155.66425	1915.1875
2158.6212	1914.5875
2161.57625	1907.1875
2164.52941	1902.6875
2167.48067	1897.0875
2170.43004	1909.9875
2173.37752	1903.6875
2176.32311	1895.7875
2179.26681	1885.3875
2182.20863	1892.9875
2185.14856	1894.2875
2188.08661	1891.9875
2191.02278	1879.2875
2193.95707	1871.5875
2196.88948	1866.5875
2199.82001	1868.6875
2202.74867	1863.6875
2205.67545	1850.4875
2208.60037	1847.9875
2211.52341	1845.1875
2214.44458	1844.5875
2217.36388	1842.3875
2220.28132	1831.6875
2223.1969	1827.5875
2226.11061	1815.1875
2229.02246	1809.9875
2231.93245	1804.2875
2234.84058	1790.2875
2237.74686	1793.2875
2240.65128	1798.8875
2243.55385	1790.5875
2246.45456	1774.5875
2249.35343	1769.9875
2252.25044	1779.6875
2255.14561	1768.9875
2258.03893	1781.8875
2260.93041	1768.7875
2263.82004	1764.3875
2266.70783	1762.9875
2269.59378	1747.6875
2272.4779	1744.4875
2275.36017	1751.8875
2278.24061	1729.4875
2281.11922	1733.2875
2283.996	1734.0875
2286.87094	1725.7875
2289.74405	1717.1875
2292.61534	1702.9875
2295.4848	1697.8875
2298.35243	1692.6875
2301.21824	1701.9875
2304.08223	1695.8875
2306.94439	1692.5875
2309.80474	1682.5875
2312.66327	1679.8875
2315.51999	1687.4875
2318.37489	1669.4875
2321.22797	1673.4875
2324.07925	1668.1875
2326.92871	1666.2875
2329.77637	1660.5875
2332.62222	1661.3875
2335.46626	1647.1875
2338.3085	1653.2875
2341.14893	1648.3875
2343.98756	1654.1875
2346.8244	1649.6875
2349.65943	1636.3875
2352.49267	1634.7875
2355.32411	1640.7875
2358.15376	1650.5875
2360.98161	1647.4875
2363.80768	1653.1875
2366.63195	1657.6875
2369.45444	1662.4875
2372.27514	1654.2875
2375.09405	1659.8875
2377.91118	1651.7875
2380.72652	1639.4875
2383.54009	1632.6875
2386.35187	1615.5875
2389.16188	1608.5875
2391.97011	1604.2875
2394.77657	1588.4875
2397.58125	1569.2875
2400.38416	1583.1875
2403.18529	1580.9875
2405.98466	1565.9875
2408.78226	1556.2875
2411.57809	1561.2875
2414.37216	1556.9875
2417.16446	1553.5875
2419.955	1549.1875
2422.74378	1549.5875
2425.5308	1547.8875
2428.31606	1543.5875
2431.09956	1534.9875
2433.88131	1539.1875
2436.6613	1537.4875
2439.43954	1530.5875
2442.21603	1535.5875
2444.99077	1548.2875
2447.76377	1541.9875
2450.53501	1534.8875
2453.30451	1535.5875
2456.07226	1527.8875
2458.83827	1529.7875
2461.60254	1521.7875
2464.36507	1534.4875
2467.12586	1517.5875
2469.88492	1520.4875
2472.64224	1511.8875
2475.39782	1514.3875
2478.15167	1517.5875
2480.90379	1514.4875
2483.65417	1532.6875
2486.40283	1529.0875
2489.14976	1529.5875
2491.89497	1533.7875
2494.63845	1520.4875
2497.3802	1517.5875
2500.12024	1527.3875
2502.85855	1520.9875
2505.59514	1506.1875
2508.33002	1500.7875
2511.06318	1483.5875
2513.79462	1471.0875
2516.52435	1468.1875
2519.25237	1458.4875
2521.97867	1446.3875
2524.70327	1453.0875
2527.42616	1447.2875
2530.14734	1424.5875
2532.86681	1426.7875
2535.58458	1426.7875
2538.30065	1424.1875
2541.01501	1421.2875
2543.72768	1424.8875
2546.43864	1417.0875
2549.14791	1416.2875
2551.85548	1417.4875
2554.56136	1413.9875
2557.26554	1416.8875
2559.96803	1409.2875
2562.66883	1405.5875
2565.36794	1399.4875
2568.06536	1404.6875
2570.7611	1392.8875
2573.45514	1391.2875
2576.14751	1390.7875
2578.83819	1384.8875
2581.52719	1378.1875
2584.21451	1377.0875
2586.90015	1378.8875
2589.58411	1375.7875
2592.2664	1363.9875
2594.94701	1358.0875
2597.62594	1355.6875
2600.30321	1347.0875
2602.9788	1357.3875
2605.65273	1353.3875
2608.32498	1351.6875
2610.99557	1343.1875
2613.66449	1337.1875
2616.33175	1350.5875
2618.99734	1340.1875
2621.66128	1341.1875
2624.32355	1339.0875
2626.98416	1338.0875
2629.64311	1329.5875
2632.30041	1328.8875
2634.95605	1322.6875
2637.61004	1321.8875
2640.26238	1315.5875
2642.91306	1320.3875
2645.56209	1321.1875
2648.20948	1320.4875
2650.85521	1307.1875
2653.4993	1314.8875
2656.14175	1320.0875
2658.78255	1303.5875
2661.42171	1310.1875
2664.05923	1320.1875
2666.6951	1310.9875
2669.32934	1316.4875
2671.96194	1319.6875
2674.59291	1311.8875
2677.22224	1313.6875
2679.84993	1303.2875
2682.476	1320.4875
2685.10043	1308.5875
2687.72324	1313.9875
2690.34441	1316.7875
2692.96396	1313.0875
2695.58188	1305.4875
2698.19818	1304.3875
2700.81285	1305.6875
2703.4259	1296.8875
2706.03733	1290.5875
2708.64714	1302.7875
2711.25533	1297.7875
2713.86191	1298.0875
2716.46687	1305.0875
2719.07021	1302.8875
2721.67194	1321.6875
2724.27206	1308.7875
2726.87057	1315.9875
2729.46747	1303.9875
2732.06276	1301.1875
2734.65644	1302.0875
2737.24852	1294.5875
2739.83899	1294.5875
2742.42786	1296.7875
2745.01513	1290.7875
2747.60079	1282.7875
2750.18486	1278.3875
2752.76733	1287.2875
2755.3482	1277.2875
2757.92747	1273.9875
2760.50515	1268.3875
2763.08123	1272.7875
2765.65573	1266.5875
2768.22863	1263.0875
2770.79994	1259.0875
2773.36967	1258.8875
2775.9378	1252.5875
2778.50435	1249.2875
2781.06932	1247.7875
2783.6327	1250.1875
2786.1945	1255.3875
2788.75471	1242.2875
2791.31335	1239.4875
2793.87041	1243.2875
2796.42589	1244.6875
2798.97979	1236.3875
2801.53212	1224.4875
2804.08288	1234.5875
2806.63206	1234.5875
2809.17967	1220.8875
2811.72571	1225.3875
2814.27018	1219.1875
2816.81308	1222.7875
2819.35442	1223.6875
2821.89419	1219.8875
2824.43239	1229.4875
2826.96904	1231.3875
2829.50412	1218.3875
2832.03763	1226.8875
2834.56959	1226.6875
2837.1	1232.3875
2839.62884	1225.9875
2842.15613	1233.3875
2844.68186	1251.3875
2847.20604	1252.2875
2849.72867	1258.1875
2852.24974	1264.9875
2854.76927	1270.6875
2857.28724	1262.0875
2859.80367	1259.7875
2862.31855	1271.6875
2864.83189	1275.1875
2867.34368	1275.0875
2869.85393	1280.1875
2872.36264	1275.4875
2874.8698	1282.8875
2877.37543	1280.0875
2879.87952	1273.6875
2882.38207	1292.5875
2884.88308	1281.9875
2887.38256	1269.5875
2889.88051	1277.6875
2892.37692	1273.9875
2894.8718	1274.4875
2897.36515	1283.4875
2899.85698	1295.6875
2902.34727	1284.4875
2904.83604	1295.9875
2907.32328	1309.1875
2909.809	1312.6875
2912.29319	1322.5875
2914.77587	1326.5875
2917.25702	1329.9875
2919.73665	1340.4875
2922.21476	1347.2875
2924.69136	1338.3875
2927.16644	1340.8875
2929.64	1339.1875
2932.11205	1341.3875
2934.58258	1331.7875
2937.05161	1327.3875
2939.51912	1323.5875
2941.98513	1316.6875
2944.44962	1307.0875
2946.91261	1288.3875
2949.37409	1287.0875
2951.83407	1275.6875
2954.29254	1258.0875
2956.74951	1251.3875
2959.20498	1254.2875
2961.65895	1236.5875
2964.11142	1240.0875
2966.56239	1228.5875
2969.01186	1187.8875
2971.45984	1214.7875
2973.90632	1218.1875
2976.35131	1209.0875
2978.7948	1206.7875
2981.23681	1194.8875
2983.67732	1185.3875
2986.11635	1186.6875
2988.55388	1172.9875
2990.98993	1178.4875
2993.4245	1175.1875
2995.85758	1173.9875
2998.28917	1166.9875
3000.71928	1165.5875
3003.14791	1167.1875
3005.57506	1168.6875
3008.00073	1166.1875
3010.42493	1171.9875
3012.84764	1161.7875
3015.26888	1155.2875
3017.68865	1164.8875
3020.10694	1155.9875
3022.52376	1157.1875
3024.9391	1154.0875
3027.35298	1150.8875
3029.76539	1154.3875
3032.17632	1150.9875
3034.5858	1152.7875
3036.9938	1150.7875
3039.40034	1152.1875
3041.80542	1152.3875
3044.20903	1152.3875
3046.61118	1147.0875
3049.01187	1149.9875
3051.4111	1145.4875
3053.80888	1141.3875
3056.20519	1147.8875
3058.60005	1144.6875
3060.99345	1146.7875
3063.3854	1138.0875
3065.7759	1147.8875
3068.16494	1145.9875
3070.55254	1138.0875
3072.93868	1139.9875
3075.32338	1144.4875
3077.70662	1145.5875
3080.08842	1143.5875
3082.46878	1144.1875
3084.84769	1143.2875
3087.22515	1139.1875
3089.60118	1151.1875
3091.97576	1144.2875
3094.3489	1147.6875
3096.72061	1151.8875
3099.09087	1156.4875
3101.4597	1163.2875
3103.82709	1170.6875
3106.19305	1176.0875
3108.55757	1174.7875
3110.92066	1171.2875
3113.28232	1177.0875
3115.64255	1171.5875
3118.00134	1180.1875
3120.35871	1184.4875
3122.71466	1182.2875
3125.06917	1184.2875
