Data from AgNPs_APTES_FTO_UA_50uM_CRN_0uM_R6G_10uM_Scan_RamanShift__7__11-19-13-656.txt Node

Date: Tue Jul 05 11:19:13 BST 2022
User: TCL
Spectrometer: QEP01345
Trigger mode: 4
Integration Time (sec): 7.000000E0
Scans to average: 10
Electric dark correction enabled: true
Nonlinearity correction enabled: false
Boxcar width: 0
XAxis mode: Raman Shifts
Number of Pixels in Spectrum: 1044
>>>>>Begin Spectral Data<<<<<
46.04893	0.0875
50.45542	-0.1125
54.85868	-0.3125
59.25871	0.0875
63.6555	39.8875
68.04907	43.6875
72.43941	44.6875
76.82654	51.1875
81.21044	55.3875
85.59113	58.1875
89.96862	56.4875
94.34289	59.1875
98.71396	61.8875
103.08183	63.9875
107.4465	63.1875
111.80798	65.2875
116.16626	66.2875
120.52136	64.7875
124.87327	68.6875
129.222	68.2875
133.56755	67.8875
137.90993	66.9875
142.24913	72.1875
146.58517	76.7875
150.91804	82.6875
155.24774	88.6875
159.57429	104.0875
163.89768	126.5875
168.21792	159.4875
172.53501	210.4875
176.84895	286.3875
181.15975	386.2875
185.46741	532.4875
189.77193	731.6875
194.07331	981.9875
198.37157	1259.4875
202.6667	1556.7875
206.9587	1879.6875
211.24758	2184.6875
215.53334	2504.0875
219.81599	2868.6875
224.09553	3253.3875
228.37195	3664.4875
232.64527	4115.3875
236.91549	4538.3875
241.18261	4931.1875
245.44663	5268.8875
249.70755	5530.1875
253.96539	5739.0875
258.22014	5903.8875
262.4718	6045.9875
266.72039	6116.3875
270.96589	6109.4875
275.20832	6014.1875
279.44768	5857.7875
283.68397	5676.4875
287.91719	5526.5875
292.14735	5453.7875
296.37445	5503.8875
300.59849	5667.9875
304.81948	5897.8875
309.03742	6153.2875
313.25231	6276.7875
317.46415	6135.0875
321.67296	5704.6875
325.87872	5257.8875
330.08145	4987.6875
334.28114	4912.8875
338.47781	4963.0875
342.67145	5095.2875
346.86207	5328.7875
351.04966	5667.8875
355.23424	5967.8875
359.4158	6179.6875
363.59435	6158.9875
367.76989	6049.2875
371.94243	5916.1875
376.11196	5832.3875
380.27849	5758.0875
384.44203	5695.8875
388.60257	5603.2875
392.76012	5558.4875
396.91468	5619.2875
401.06626	5711.7875
405.21485	5798.5875
409.36047	5665.9875
413.50311	5467.3875
417.64277	5350.3875
421.77947	5310.8875
425.9132	4916.7875
430.04396	4740.6875
434.17176	4754.6875
438.2966	4792.6875
442.41849	4885.4875
446.53742	4992.9875
450.6534	5104.8875
454.76644	5129.6875
458.87653	5107.1875
462.98368	5058.1875
467.08789	4989.1875
471.18916	4915.9875
475.2875	4837.7875
479.38291	4741.7875
483.4754	4689.6875
487.56496	4662.5875
491.6516	4656.5875
495.73531	4691.7875
499.81612	4729.9875
503.89401	4808.1875
507.96899	4876.6875
512.04106	4961.4875
516.11023	5067.0875
520.1765	5134.3875
524.23987	5161.9875
528.30034	5098.4875
532.35792	5032.3875
536.41261	4946.2875
540.46441	4841.9875
544.51333	4745.6875
548.55936	4750.7875
552.60252	4825.2875
556.64279	4944.9875
560.6802	5041.1875
564.71473	5181.2875
568.7464	5410.6875
572.7752	5508.7875
576.80114	5215.2875
580.82422	4944.8875
584.84444	4854.4875
588.86181	4909.1875
592.87633	5007.0875
596.888	5122.3875
600.89682	5308.8875
604.9028	6025.9875
608.90594	8002.1875
612.90624	10622.1875
616.90371	10495.1875
620.89834	7344.6875
624.89015	5638.6875
628.87913	5261.7875
632.86528	5310.4875
636.84862	5389.2875
640.82913	5256.3875
644.80683	4950.9875
648.78172	4733.4875
652.75379	4720.8875
656.72306	4911.6875
660.68952	5162.4875
664.65319	5110.2875
668.61405	4821.3875
672.57211	4722.2875
676.52738	4816.1875
680.47986	4986.7875
684.42955	5178.9875
688.37646	5272.8875
692.32058	5196.3875
696.26192	5042.5875
700.20048	4936.7875
704.13626	4887.5875
708.06928	4835.7875
711.99952	4790.8875
715.927	4751.6875
719.85171	4766.5875
723.77365	4765.2875
727.69284	4733.6875
731.60928	4678.8875
735.52295	4639.8875
739.43388	4649.8875
743.34206	4659.2875
747.24749	4653.6875
751.15017	4660.6875
755.05012	4751.8875
758.94733	4998.1875
762.8418	5689.9875
766.73354	6836.4875
770.62254	7895.5875
774.50882	8289.2875
778.39237	7821.0875
782.27321	6842.7875
786.15132	5805.0875
790.02671	5145.0875
793.89938	4859.5875
797.76935	4737.7875
801.6366	4726.0875
805.50115	4693.9875
809.36299	4701.9875
813.22213	4689.7875
817.07857	4673.4875
820.93231	4650.7875
824.78336	4644.4875
828.63172	4658.9875
832.47738	4646.4875
836.32036	4617.4875
840.16066	4587.9875
843.99827	4584.9875
847.8332	4586.6875
851.66546	4578.2875
855.49504	4574.0875
859.32195	4553.6875
863.1462	4559.1875
866.96777	4540.8875
870.78668	4582.9875
874.60293	4603.5875
878.41652	4644.9875
882.22745	4701.0875
886.03573	4769.1875
889.84136	4808.2875
893.64433	4843.0875
897.44466	4904.7875
901.24235	4926.5875
905.0374	4958.4875
908.8298	5020.2875
912.61957	5068.0875
916.40671	5159.7875
920.19121	5293.6875
923.97308	5447.9875
927.75233	5579.0875
931.52895	5685.8875
935.30295	5590.0875
939.07433	5319.2875
942.84309	5043.7875
946.60924	4845.6875
950.37278	4713.4875
954.13371	4599.5875
957.89203	4523.3875
961.64774	4453.1875
965.40086	4379.3875
969.15137	4309.6875
972.89929	4252.0875
976.64461	4221.9875
980.38733	4164.4875
984.12747	4145.8875
987.86502	4130.3875
991.59999	4122.5875
995.33237	4133.1875
999.06217	4187.2875
1002.78939	4244.5875
1006.51404	4319.2875
1010.23611	4419.3875
1013.95561	4429.7875
1017.67255	4412.5875
1021.38692	4374.1875
1025.09872	4320.1875
1028.80796	4272.1875
1032.51465	4228.3875
1036.21877	4230.6875
1039.92035	4253.3875
1043.61937	4280.5875
1047.31584	4297.0875
1051.00976	4320.9875
1054.70114	4314.8875
1058.38998	4312.9875
1062.07627	4311.3875
1065.76003	4298.4875
1069.44126	4264.8875
1073.11995	4273.9875
1076.79611	4336.1875
1080.46974	4416.2875
1084.14085	4569.1875
1087.80943	4768.2875
1091.47549	4788.3875
1095.13903	4636.4875
1098.80005	4426.1875
1102.45857	4270.6875
1106.11456	4217.7875
1109.76805	4246.5875
1113.41903	4357.9875
1117.06751	4535.9875
1120.71348	4824.1875
1124.35696	5174.3875
1127.99793	5527.0875
1131.63641	5583.3875
1135.2724	5245.2875
1138.90589	4872.3875
1142.5369	4672.0875
1146.16542	4465.3875
1149.79145	4347.7875
1153.415	4253.6875
1157.03607	4253.8875
1160.65467	4294.4875
1164.27079	4429.3875
1167.88443	4663.5875
1171.49561	5045.9875
1175.10432	5689.4875
1178.71056	6663.3875
1182.31434	7475.5875
1185.91565	7643.8875
1189.51451	7261.1875
1193.11091	6671.0875
1196.70485	6092.5875
1200.29634	5666.4875
1203.88538	5374.6875
1207.47197	4989.1875
1211.05612	4619.1875
1214.63782	4384.6875
1218.21708	4275.7875
1221.79391	4238.1875
1225.36829	4238.5875
1228.94024	4268.0875
1232.50976	4267.0875
1236.07685	4256.1875
1239.6415	4241.7875
1243.20374	4277.8875
1246.76355	4314.6875
1250.32093	4354.6875
1253.8759	4457.8875
1257.42845	4601.4875
1260.97859	4782.5875
1264.52631	5022.5875
1268.07163	5217.6875
1271.61453	5394.0875
1275.15503	5451.2875
1278.69312	5431.0875
1282.22882	5428.0875
1285.76211	5563.8875
1289.29301	5871.7875
1292.82151	6178.1875
1296.34761	6445.4875
1299.87133	6827.5875
1303.39266	7498.0875
1306.9116	8590.1875
1310.42815	9994.8875
1313.94233	10851.5875
1317.45412	10434.4875
1320.96354	9222.3875
1324.47058	7956.0875
1327.97525	6923.1875
1331.47754	6270.4875
1334.97747	5977.1875
1338.47502	5944.6875
1341.97022	6164.2875
1345.46305	6706.6875
1348.95352	7637.7875
1352.44163	8697.2875
1355.92738	9973.8875
1359.41078	11876.1875
1362.89183	14207.5875
1366.37053	14570.0875
1369.84688	12115.4875
1373.32088	9250.2875
1376.79254	7517.2875
1380.26186	6764.0875
1383.72883	6364.2875
1387.19347	6031.8875
1390.65578	5737.8875
1394.11575	5524.8875
1397.57339	5371.7875
1401.0287	5267.4875
1404.48168	5171.1875
1407.93234	5048.2875
1411.38068	4989.5875
1414.82669	4949.8875
1418.27039	4974.8875
1421.71177	4985.2875
1425.15083	4908.2875
1428.58758	4828.7875
1432.02203	4822.3875
1435.45416	4888.6875
1438.88399	4882.0875
1442.31151	4823.0875
1445.73673	4764.3875
1449.15965	4732.4875
1452.58027	4705.1875
1455.9986	4637.4875
1459.41463	4573.9875
1462.82837	4583.2875
1466.23982	4660.5875
1469.64898	4766.9875
1473.05586	4852.6875
1476.46045	4893.1875
1479.86276	4937.0875
1483.26279	5060.2875
1486.66054	5214.5875
1490.05602	5458.8875
1493.44922	5878.7875
1496.84016	6513.2875
1500.22882	7554.0875
1503.61521	9056.4875
1506.99934	10938.5875
1510.38121	12812.7875
1513.76081	13748.4875
1517.13816	12954.5875
1520.51324	10870.7875
1523.88607	8746.5875
1527.25665	7236.8875
1530.62498	6320.6875
1533.99105	5801.1875
1537.35488	5458.5875
1540.71647	5232.3875
1544.07581	5093.9875
1547.4329	5030.7875
1550.78776	5057.9875
1554.14038	5145.5875
1557.49077	5251.0875
1560.83892	5418.1875
1564.18484	5692.7875
1567.52853	6078.2875
1570.86999	6426.0875
1574.20922	6640.0875
1577.54624	6641.6875
1580.88103	6220.3875
1584.2136	5520.6875
1587.54395	4972.4875
1590.87208	4770.7875
1594.19801	4857.5875
1597.52172	5147.2875
1600.84321	5288.6875
1604.16251	5098.8875
1607.47959	4813.2875
1610.79447	4588.4875
1614.10715	4368.2875
1617.41763	4171.6875
1620.7259	4030.8875
1624.03199	3979.0875
1627.33587	4001.6875
1630.63757	4094.2875
1633.93707	4274.9875
1637.23439	4575.9875
1640.52951	5110.3875
1643.82246	6031.8875
1647.11321	7298.9875
1650.40179	8445.3875
1653.68819	8601.2875
1656.97241	7538.6875
1660.25446	6032.7875
1663.53433	4869.7875
1666.81203	4183.0875
1670.08756	3788.4875
1673.36092	3560.1875
1676.63211	3440.9875
1679.90115	3345.4875
1683.16801	3278.5875
1686.43272	3240.1875
1689.69527	3215.8875
1692.95567	3187.9875
1696.2139	3162.8875
1699.46999	3135.4875
1702.72392	3103.8875
1705.97571	3073.7875
1709.22535	3053.0875
1712.47284	3032.5875
1715.71819	2995.3875
1718.96139	2961.5875
1722.20246	2927.9875
1725.44139	2882.9875
1728.67818	2826.9875
1731.91284	2798.1875
1735.14537	2758.4875
1738.37576	2738.4875
1741.60403	2713.5875
1744.83017	2696.1875
1748.05418	2691.1875
1751.27607	2677.6875
1754.49584	2654.7875
1757.71349	2642.9875
1760.92903	2616.5875
1764.14244	2612.7875
1767.35375	2606.2875
1770.56294	2595.5875
1773.77002	2577.2875
1776.97499	2560.7875
1780.17785	2562.6875
1783.37861	2543.5875
1786.57727	2537.3875
1789.77382	2510.6875
1792.96828	2510.0875
1796.16064	2496.8875
1799.3509	2495.1875
1802.53907	2486.5875
1805.72514	2473.3875
1808.90913	2458.6875
1812.09102	2441.0875
1815.27083	2433.4875
1818.44856	2416.6875
1821.6242	2399.0875
1824.79776	2399.6875
1827.96924	2386.7875
1831.13864	2380.8875
1834.30597	2370.6875
1837.47122	2363.3875
1840.6344	2351.3875
1843.7955	2339.8875
1846.95454	2341.0875
1850.11151	2329.8875
1853.26642	2322.9875
1856.41926	2316.1875
1859.57004	2316.3875
1862.71876	2301.3875
1865.86542	2304.2875
1869.01003	2306.6875
1872.15258	2299.9875
1875.29308	2296.3875
1878.43152	2279.8875
1881.56792	2288.1875
1884.70227	2272.4875
1887.83457	2260.1875
1890.96482	2250.3875
1894.09304	2249.3875
1897.21921	2258.6875
1900.34335	2237.9875
1903.46544	2234.6875
1906.58551	2243.2875
1909.70353	2232.5875
1912.81953	2226.8875
1915.93349	2224.5875
1919.04543	2220.5875
1922.15534	2216.0875
1925.26322	2198.2875
1928.36908	2198.5875
1931.47292	2185.6875
1934.57473	2180.5875
1937.67453	2176.8875
1940.77232	2153.1875
1943.86808	2149.6875
1946.96184	2135.3875
1950.05358	2130.4875
1953.14331	2115.5875
1956.23103	2118.2875
1959.31675	2109.2875
1962.40046	2105.0875
1965.48217	2099.1875
1968.56188	2096.0875
1971.63959	2092.8875
1974.7153	2093.9875
1977.78901	2082.9875
1980.86073	2071.4875
1983.93046	2059.4875
1986.99819	2050.9875
1990.06394	2043.7875
1993.1277	2035.6875
1996.18947	2025.7875
1999.24925	2025.5875
2002.30706	2003.7875
2005.36288	1997.9875
2008.41672	1990.6875
2011.46859	1985.6875
2014.51848	1982.0875
2017.56639	1971.4875
2020.61233	1958.2875
2023.6563	1955.4875
2026.6983	1943.3875
2029.73833	1935.9875
2032.7764	1928.6875
2035.8125	1923.2875
2038.84664	1917.2875
2041.87881	1915.9875
2044.90903	1918.7875
2047.93729	1910.1875
2050.96359	1909.3875
2053.98794	1919.4875
2057.01034	1898.6875
2060.03078	1896.6875
2063.04927	1901.5875
2066.06582	1903.6875
2069.08042	1893.3875
2072.09307	1896.3875
2075.10378	1900.8875
2078.11255	1913.7875
2081.11938	1911.3875
2084.12426	1914.2875
2087.12722	1923.3875
2090.12824	1921.8875
2093.12732	1926.9875
2096.12447	1924.3875
2099.11969	1920.1875
2102.11299	1931.4875
2105.10435	1927.9875
2108.09379	1924.2875
2111.08131	1927.2875
2114.0669	1934.6875
2117.05057	1937.7875
2120.03233	1929.1875
2123.01216	1924.0875
2125.99008	1915.6875
2128.96609	1921.8875
2131.94018	1916.1875
2134.91236	1906.3875
2137.88263	1912.3875
2140.851	1893.7875
2143.81746	1902.0875
2146.78201	1863.7875
2149.74466	1862.4875
2152.7054	1861.5875
2155.66425	1845.9875
2158.6212	1835.3875
2161.57625	1819.0875
2164.52941	1816.5875
2167.48067	1806.1875
2170.43004	1814.1875
2173.37752	1807.5875
2176.32311	1798.9875
2179.26681	1803.8875
2182.20863	1805.6875
2185.14856	1793.2875
2188.08661	1793.5875
2191.02278	1795.9875
2193.95707	1788.7875
2196.88948	1767.6875
2199.82001	1777.5875
2202.74867	1769.2875
2205.67545	1770.6875
2208.60037	1764.2875
2211.52341	1765.9875
2214.44458	1756.5875
2217.36388	1736.3875
2220.28132	1741.1875
2223.1969	1726.1875
2226.11061	1733.8875
2229.02246	1728.7875
2231.93245	1714.5875
2234.84058	1712.8875
2237.74686	1723.3875
2240.65128	1717.8875
2243.55385	1713.5875
2246.45456	1697.8875
2249.35343	1701.7875
2252.25044	1712.2875
2255.14561	1697.0875
2258.03893	1698.1875
2260.93041	1701.2875
2263.82004	1692.8875
2266.70783	1694.0875
2269.59378	1684.1875
2272.4779	1680.7875
2275.36017	1675.8875
2278.24061	1671.6875
2281.11922	1665.2875
2283.996	1665.7875
2286.87094	1662.0875
2289.74405	1647.7875
2292.61534	1644.2875
2295.4848	1632.0875
2298.35243	1622.0875
2301.21824	1632.5875
2304.08223	1627.1875
2306.94439	1614.1875
2309.80474	1617.5875
2312.66327	1623.1875
2315.51999	1614.6875
2318.37489	1604.9875
2321.22797	1609.8875
2324.07925	1599.6875
2326.92871	1594.9875
2329.77637	1597.7875
2332.62222	1600.4875
2335.46626	1588.9875
2338.3085	1585.4875
2341.14893	1585.7875
2343.98756	1568.9875
2346.8244	1576.8875
2349.65943	1578.0875
2352.49267	1573.7875
2355.32411	1581.5875
2358.15376	1584.4875
2360.98161	1582.4875
2363.80768	1589.3875
2366.63195	1600.5875
2369.45444	1602.5875
2372.27514	1608.7875
2375.09405	1606.5875
2377.91118	1586.7875
2380.72652	1587.6875
2383.54009	1572.7875
2386.35187	1570.4875
2389.16188	1550.0875
2391.97011	1545.5875
2394.77657	1534.1875
2397.58125	1531.1875
2400.38416	1525.0875
2403.18529	1506.9875
2405.98466	1508.3875
2408.78226	1511.3875
2411.57809	1498.0875
2414.37216	1505.3875
2417.16446	1500.4875
2419.955	1499.6875
2422.74378	1496.2875
2425.5308	1483.5875
2428.31606	1494.0875
2431.09956	1487.6875
2433.88131	1481.6875
2436.6613	1490.3875
2439.43954	1489.5875
2442.21603	1491.7875
2444.99077	1484.2875
2447.76377	1491.2875
2450.53501	1476.2875
2453.30451	1495.6875
2456.07226	1475.0875
2458.83827	1477.7875
2461.60254	1474.4875
2464.36507	1476.5875
2467.12586	1474.1875
2469.88492	1475.4875
2472.64224	1462.3875
2475.39782	1476.0875
2478.15167	1474.2875
2480.90379	1472.6875
2483.65417	1476.5875
2486.40283	1483.8875
2489.14976	1483.0875
2491.89497	1486.3875
2494.63845	1484.6875
2497.3802	1482.9875
2500.12024	1474.7875
2502.85855	1476.3875
2505.59514	1462.7875
2508.33002	1456.0875
2511.06318	1435.4875
2513.79462	1420.9875
2516.52435	1421.3875
2519.25237	1421.0875
2521.97867	1410.1875
2524.70327	1402.9875
2527.42616	1393.6875
2530.14734	1387.8875
2532.86681	1381.5875
2535.58458	1376.5875
2538.30065	1379.1875
2541.01501	1368.1875
2543.72768	1379.4875
2546.43864	1372.4875
2549.14791	1378.5875
2551.85548	1361.3875
2554.56136	1367.2875
2557.26554	1377.0875
2559.96803	1372.5875
2562.66883	1367.6875
2565.36794	1360.3875
2568.06536	1363.8875
2570.7611	1354.9875
2573.45514	1348.8875
2576.14751	1355.8875
2578.83819	1343.6875
2581.52719	1341.1875
2584.21451	1336.7875
2586.90015	1343.7875
2589.58411	1328.7875
2592.2664	1334.1875
2594.94701	1326.0875
2597.62594	1319.9875
2600.30321	1310.8875
2602.9788	1318.7875
2605.65273	1310.9875
2608.32498	1311.3875
2610.99557	1309.8875
2613.66449	1316.5875
2616.33175	1305.1875
2618.99734	1311.9875
2621.66128	1307.0875
2624.32355	1307.7875
2626.98416	1298.1875
2629.64311	1290.7875
2632.30041	1286.7875
2634.95605	1280.8875
2637.61004	1282.2875
2640.26238	1281.4875
2642.91306	1276.5875
2645.56209	1266.3875
2648.20948	1276.1875
2650.85521	1272.0875
2653.4993	1272.7875
2656.14175	1272.7875
2658.78255	1276.1875
2661.42171	1269.6875
2664.05923	1287.8875
2666.6951	1277.4875
2669.32934	1283.9875
2671.96194	1284.0875
2674.59291	1275.8875
2677.22224	1281.7875
2679.84993	1288.3875
2682.476	1280.7875
2685.10043	1283.1875
2687.72324	1283.2875
2690.34441	1282.4875
2692.96396	1282.8875
2695.58188	1270.7875
2698.19818	1273.3875
2700.81285	1272.6875
2703.4259	1268.6875
2706.03733	1274.9875
2708.64714	1266.3875
2711.25533	1278.5875
2713.86191	1270.0875
2716.46687	1281.5875
2719.07021	1281.4875
2721.67194	1278.8875
2724.27206	1280.4875
2726.87057	1280.2875
2729.46747	1280.1875
2732.06276	1273.3875
2734.65644	1272.2875
2737.24852	1265.9875
2739.83899	1256.6875
2742.42786	1258.7875
2745.01513	1256.6875
2747.60079	1260.5875
2750.18486	1242.3875
2752.76733	1244.4875
2755.3482	1243.2875
2757.92747	1242.0875
2760.50515	1231.6875
2763.08123	1234.7875
2765.65573	1241.4875
2768.22863	1232.1875
2770.79994	1225.8875
2773.36967	1219.7875
2775.9378	1221.9875
2778.50435	1223.0875
2781.06932	1215.8875
2783.6327	1210.8875
2786.1945	1203.8875
2788.75471	1215.0875
2791.31335	1198.4875
2793.87041	1208.0875
2796.42589	1199.1875
2798.97979	1205.2875
2801.53212	1201.9875
2804.08288	1201.6875
2806.63206	1196.6875
2809.17967	1190.5875
2811.72571	1198.1875
2814.27018	1189.8875
2816.81308	1185.4875
2819.35442	1193.0875
2821.89419	1198.7875
2824.43239	1206.1875
2826.96904	1198.8875
2829.50412	1198.3875
2832.03763	1190.2875
2834.56959	1199.1875
2837.1	1198.5875
2839.62884	1194.8875
2842.15613	1206.0875
2844.68186	1214.1875
2847.20604	1222.5875
2849.72867	1238.9875
2852.24974	1233.6875
2854.76927	1236.9875
2857.28724	1241.5875
2859.80367	1247.0875
2862.31855	1250.8875
2864.83189	1250.6875
2867.34368	1250.5875
2869.85393	1256.0875
2872.36264	1254.9875
2874.8698	1254.7875
2877.37543	1255.1875
2879.87952	1252.9875
2882.38207	1256.0875
2884.88308	1257.9875
2887.38256	1252.4875
2889.88051	1251.3875
2892.37692	1251.7875
2894.8718	1260.8875
2897.36515	1267.9875
2899.85698	1264.0875
2902.34727	1266.9875
2904.83604	1280.1875
2907.32328	1293.0875
2909.809	1304.9875
2912.29319	1316.5875
2914.77587	1316.4875
2917.25702	1322.1875
2919.73665	1323.0875
2922.21476	1335.0875
2924.69136	1335.2875
2927.16644	1341.0875
2929.64	1329.8875
2932.11205	1326.4875
2934.58258	1318.8875
2937.05161	1315.9875
2939.51912	1313.2875
2941.98513	1307.6875
2944.44962	1294.7875
2946.91261	1290.5875
2949.37409	1275.6875
2951.83407	1257.5875
2954.29254	1253.3875
2956.74951	1244.7875
2959.20498	1236.0875
2961.65895	1234.0875
2964.11142	1219.9875
2966.56239	1206.1875
2969.01186	1167.7875
2971.45984	1194.3875
2973.90632	1190.5875
2976.35131	1195.4875
2978.7948	1189.7875
2981.23681	1177.6875
2983.67732	1177.3875
2986.11635	1165.1875
2988.55388	1170.0875
2990.98993	1171.6875
2993.4245	1167.2875
2995.85758	1155.9875
2998.28917	1162.8875
3000.71928	1160.5875
3003.14791	1151.6875
3005.57506	1158.1875
3008.00073	1153.3875
3010.42493	1161.8875
3012.84764	1153.0875
3015.26888	1143.0875
3017.68865	1146.4875
3020.10694	1148.4875
3022.52376	1147.6875
3024.9391	1140.1875
3027.35298	1154.5875
3029.76539	1149.8875
3032.17632	1137.9875
3034.5858	1138.5875
3036.9938	1140.2875
3039.40034	1133.3875
3041.80542	1138.7875
3044.20903	1142.6875
3046.61118	1136.9875
3049.01187	1131.4875
3051.4111	1126.8875
3053.80888	1134.5875
3056.20519	1129.9875
3058.60005	1130.6875
3060.99345	1135.2875
3063.3854	1136.7875
3065.7759	1132.3875
3068.16494	1126.8875
3070.55254	1128.3875
3072.93868	1136.3875
3075.32338	1136.1875
3077.70662	1132.0875
3080.08842	1119.8875
3082.46878	1132.9875
3084.84769	1121.8875
3087.22515	1134.2875
3089.60118	1133.2875
3091.97576	1143.2875
3094.3489	1150.9875
3096.72061	1139.2875
3099.09087	1144.3875
3101.4597	1157.2875
3103.82709	1153.2875
3106.19305	1157.4875
3108.55757	1176.0875
3110.92066	1161.2875
3113.28232	1168.3875
3115.64255	1166.6875
3118.00134	1164.9875
3120.35871	1172.5875
3122.71466	1174.0875
3125.06917	1185.5875
