Data from AgNPs_APTES_FTO_Ket_100uM_NaF_0.1M_RamanShift__1__10-40-16-162.txt Node

Date: Tue Jun 14 10:40:16 BST 2022
User: TCL
Spectrometer: QEP01345
Trigger mode: 4
Integration Time (sec): 7.000000E0
Scans to average: 10
Electric dark correction enabled: true
Nonlinearity correction enabled: false
Boxcar width: 0
XAxis mode: Raman Shifts
Number of Pixels in Spectrum: 1044
>>>>>Begin Spectral Data<<<<<
46.04893	0.875
50.45542	1.575
54.85868	-1.725
59.25871	0.275
63.6555	31.075
68.04907	32.575
72.43941	38.575
76.82654	38.775
81.21044	40.875
85.59113	44.575
89.96862	49.375
94.34289	51.075
98.71396	52.675
103.08183	48.975
107.4465	49.875
111.80798	52.775
116.16626	50.575
120.52136	50.875
124.87327	51.875
129.222	49.875
133.56755	51.275
137.90993	48.475
142.24913	45.375
146.58517	43.475
150.91804	46.475
155.24774	44.975
159.57429	50.275
163.89768	52.775
168.21792	56.475
172.53501	58.075
176.84895	74.675
181.15975	89.675
185.46741	113.275
189.77193	138.075
194.07331	175.675
198.37157	214.775
202.6667	262.975
206.9587	301.875
211.24758	335.375
215.53334	374.175
219.81599	413.975
224.09553	457.175
228.37195	500.475
232.64527	549.175
236.91549	618.375
241.18261	678.775
245.44663	732.975
249.70755	802.475
253.96539	875.075
258.22014	927.075
262.4718	982.675
266.72039	1031.975
270.96589	1066.775
275.20832	1110.075
279.44768	1141.775
283.68397	1183.075
287.91719	1199.775
292.14735	1187.575
296.37445	1135.775
300.59849	1068.775
304.81948	983.475
309.03742	921.975
313.25231	881.875
317.46415	865.375
321.67296	851.975
325.87872	835.875
330.08145	838.375
334.28114	829.875
338.47781	832.775
342.67145	840.075
346.86207	848.475
351.04966	856.375
355.23424	865.375
359.4158	872.775
363.59435	871.375
367.76989	887.775
371.94243	902.975
376.11196	915.875
380.27849	926.175
384.44203	921.575
388.60257	930.275
392.76012	924.875
396.91468	925.375
401.06626	929.975
405.21485	938.575
409.36047	942.675
413.50311	968.275
417.64277	973.975
421.77947	1000.375
425.9132	1000.175
430.04396	984.775
434.17176	995.075
438.2966	999.275
442.41849	1006.275
446.53742	1016.375
450.6534	1027.675
454.76644	1060.575
458.87653	1088.275
462.98368	1094.775
467.08789	1060.175
471.18916	1031.475
475.2875	1035.475
479.38291	1038.875
483.4754	1043.475
487.56496	1057.775
491.6516	1066.675
495.73531	1058.175
499.81612	1046.375
503.89401	1030.875
507.96899	1013.775
512.04106	1004.375
516.11023	1001.775
520.1765	996.575
524.23987	992.075
528.30034	982.575
532.35792	986.975
536.41261	987.675
540.46441	985.675
544.51333	993.575
548.55936	992.775
552.60252	991.575
556.64279	993.975
560.6802	978.775
564.71473	974.975
568.7464	971.275
572.7752	976.075
576.80114	980.275
580.82422	981.575
584.84444	978.675
588.86181	976.975
592.87633	979.275
596.888	980.175
600.89682	983.375
604.9028	988.675
608.90594	987.575
612.90624	985.575
616.90371	973.075
620.89834	987.375
624.89015	983.875
628.87913	985.675
632.86528	981.175
636.84862	981.775
640.82913	982.875
644.80683	988.975
648.78172	991.975
652.75379	984.475
656.72306	992.675
660.68952	997.175
664.65319	992.175
668.61405	988.675
672.57211	999.475
676.52738	990.275
680.47986	995.575
684.42955	1011.075
688.37646	1013.075
692.32058	1024.075
696.26192	1025.375
700.20048	1046.275
704.13626	1056.375
708.06928	1062.775
711.99952	1068.475
715.927	1051.475
719.85171	1035.075
723.77365	1022.775
727.69284	1019.475
731.60928	1012.775
735.52295	1003.475
739.43388	1008.375
743.34206	1012.975
747.24749	1012.675
751.15017	1012.575
755.05012	1004.475
758.94733	994.375
762.8418	1002.575
766.73354	1007.375
770.62254	1003.775
774.50882	998.375
778.39237	1007.775
782.27321	1006.875
786.15132	1001.075
790.02671	1005.575
793.89938	998.975
797.76935	995.275
801.6366	995.375
805.50115	995.375
809.36299	989.075
813.22213	993.875
817.07857	997.775
820.93231	1000.875
824.78336	1001.875
828.63172	1010.575
832.47738	1002.475
836.32036	1007.275
840.16066	1013.375
843.99827	1019.275
847.8332	1016.575
851.66546	1017.175
855.49504	1010.175
859.32195	1002.475
863.1462	1001.175
866.96777	1004.375
870.78668	1011.875
874.60293	1017.875
878.41652	1012.475
882.22745	1036.975
886.03573	1101.075
889.84136	1168.675
893.64433	1179.875
897.44466	1095.275
901.24235	1026.275
905.0374	1006.675
908.8298	994.475
912.61957	1012.675
916.40671	1030.175
920.19121	1076.475
923.97308	1149.175
927.75233	1220.975
931.52895	1227.875
935.30295	1172.475
939.07433	1099.475
942.84309	1025.975
946.60924	991.075
950.37278	973.875
954.13371	959.175
957.89203	953.975
961.64774	937.275
965.40086	934.075
969.15137	933.375
972.89929	935.475
976.64461	942.975
980.38733	939.275
984.12747	929.175
987.86502	933.475
991.59999	937.175
995.33237	920.275
999.06217	936.775
1002.78939	940.275
1006.51404	949.375
1010.23611	960.275
1013.95561	959.775
1017.67255	954.375
1021.38692	961.275
1025.09872	962.875
1028.80796	965.575
1032.51465	959.175
1036.21877	953.875
1039.92035	955.075
1043.61937	962.675
1047.31584	979.375
1051.00976	1008.475
1054.70114	1005.775
1058.38998	1044.075
1062.07627	1116.475
1065.76003	1134.375
1069.44126	1054.275
1073.11995	982.775
1076.79611	964.175
1080.46974	958.875
1084.14085	958.475
1087.80943	956.775
1091.47549	972.675
1095.13903	1042.475
1098.80005	1144.175
1102.45857	1185.975
1106.11456	1126.375
1109.76805	1032.275
1113.41903	982.675
1117.06751	979.475
1120.71348	1013.675
1124.35696	1144.575
1127.99793	1418.275
1131.63641	1632.875
1135.2724	1349.375
1138.90589	1043.575
1142.5369	936.875
1146.16542	896.875
1149.79145	875.275
1153.415	874.175
1157.03607	861.475
1160.65467	871.875
1164.27079	861.175
1167.88443	858.775
1171.49561	862.175
1175.10432	855.775
1178.71056	862.675
1182.31434	853.275
1185.91565	857.175
1189.51451	853.475
1193.11091	853.375
1196.70485	849.875
1200.29634	852.275
1203.88538	849.675
1207.47197	853.275
1211.05612	849.775
1214.63782	852.875
1218.21708	842.375
1221.79391	838.575
1225.36829	837.475
1228.94024	833.775
1232.50976	830.175
1236.07685	834.075
1239.6415	838.075
1243.20374	838.875
1246.76355	837.275
1250.32093	838.675
1253.8759	845.675
1257.42845	833.275
1260.97859	833.875
1264.52631	833.175
1268.07163	832.675
1271.61453	835.675
1275.15503	832.775
1278.69312	835.475
1282.22882	836.275
1285.76211	850.175
1289.29301	855.675
1292.82151	886.775
1296.34761	939.475
1299.87133	948.975
1303.39266	894.075
1306.9116	860.975
1310.42815	847.975
1313.94233	843.475
1317.45412	845.075
1320.96354	831.575
1324.47058	829.375
1327.97525	822.375
1331.47754	830.575
1334.97747	816.275
1338.47502	817.575
1341.97022	816.275
1345.46305	817.175
1348.95352	810.375
1352.44163	818.675
1355.92738	817.775
1359.41078	825.775
1362.89183	829.175
1366.37053	842.075
1369.84688	858.075
1373.32088	871.075
1376.79254	880.975
1380.26186	910.475
1383.72883	923.675
1387.19347	965.575
1390.65578	991.375
1394.11575	1043.375
1397.57339	1110.475
1401.0287	1158.075
1404.48168	1180.975
1407.93234	1172.275
1411.38068	1119.375
1414.82669	1083.675
1418.27039	1042.475
1421.71177	1010.775
1425.15083	971.275
1428.58758	947.875
1432.02203	933.975
1435.45416	923.875
1438.88399	921.475
1442.31151	896.475
1445.73673	871.075
1449.15965	839.875
1452.58027	826.275
1455.9986	818.975
1459.41463	813.775
1462.82837	811.775
1466.23982	792.575
1469.64898	768.975
1473.05586	744.275
1476.46045	716.275
1479.86276	701.475
1483.26279	695.075
1486.66054	684.575
1490.05602	677.575
1493.44922	667.175
1496.84016	666.575
1500.22882	658.975
1503.61521	655.075
1506.99934	654.475
1510.38121	657.275
1513.76081	655.875
1517.13816	661.375
1520.51324	654.075
1523.88607	652.175
1527.25665	647.675
1530.62498	654.775
1533.99105	651.675
1537.35488	655.475
1540.71647	658.775
1544.07581	654.375
1547.4329	645.475
1550.78776	651.475
1554.14038	652.075
1557.49077	658.175
1560.83892	650.475
1564.18484	656.075
1567.52853	646.475
1570.86999	642.275
1574.20922	645.575
1577.54624	645.775
1580.88103	645.975
1584.2136	643.975
1587.54395	652.075
1590.87208	647.875
1594.19801	642.975
1597.52172	653.175
1600.84321	646.875
1604.16251	651.575
1607.47959	652.375
1610.79447	649.975
1614.10715	651.875
1617.41763	652.475
1620.7259	635.475
1624.03199	641.675
1627.33587	632.975
1630.63757	639.875
1633.93707	629.875
1637.23439	629.175
1640.52951	625.675
1643.82246	628.475
1647.11321	616.875
1650.40179	611.375
1653.68819	622.075
1656.97241	616.075
1660.25446	615.975
1663.53433	609.575
1666.81203	604.875
1670.08756	601.875
1673.36092	588.275
1676.63211	585.075
1679.90115	577.975
1683.16801	574.875
1686.43272	571.575
1689.69527	574.075
1692.95567	571.675
1696.2139	568.375
1699.46999	569.775
1702.72392	575.775
1705.97571	567.275
1709.22535	554.975
1712.47284	551.675
1715.71819	540.275
1718.96139	543.575
1722.20246	541.575
1725.44139	540.375
1728.67818	537.875
1731.91284	531.775
1735.14537	530.975
1738.37576	531.775
1741.60403	525.975
1744.83017	522.775
1748.05418	520.475
1751.27607	522.075
1754.49584	522.675
1757.71349	528.875
1760.92903	515.975
1764.14244	512.575
1767.35375	514.075
1770.56294	519.275
1773.77002	510.775
1776.97499	513.475
1780.17785	500.975
1783.37861	501.975
1786.57727	497.575
1789.77382	497.475
1792.96828	493.775
1796.16064	494.875
1799.3509	489.275
1802.53907	487.375
1805.72514	481.975
1808.90913	483.375
1812.09102	485.975
1815.27083	487.775
1818.44856	474.575
1821.6242	473.875
1824.79776	475.775
1827.96924	474.675
1831.13864	474.375
1834.30597	469.575
1837.47122	473.575
1840.6344	468.675
1843.7955	468.975
1846.95454	465.175
1850.11151	464.175
1853.26642	458.375
1856.41926	461.275
1859.57004	462.275
1862.71876	457.875
1865.86542	462.175
1869.01003	454.275
1872.15258	452.775
1875.29308	460.375
1878.43152	445.675
1881.56792	451.775
1884.70227	449.875
1887.83457	449.275
1890.96482	446.075
1894.09304	444.475
1897.21921	442.175
1900.34335	443.475
1903.46544	443.475
1906.58551	445.175
1909.70353	436.775
1912.81953	439.475
1915.93349	439.975
1919.04543	436.775
1922.15534	429.475
1925.26322	427.575
1928.36908	431.975
1931.47292	430.375
1934.57473	430.675
1937.67453	426.675
1940.77232	425.375
1943.86808	428.475
1946.96184	424.175
1950.05358	415.875
1953.14331	421.775
1956.23103	413.475
1959.31675	416.175
1962.40046	407.775
1965.48217	418.875
1968.56188	409.075
1971.63959	408.375
1974.7153	407.675
1977.78901	405.875
1980.86073	402.275
1983.93046	400.975
1986.99819	399.675
1990.06394	403.375
1993.1277	391.875
1996.18947	396.175
1999.24925	392.475
2002.30706	389.775
2005.36288	387.575
2008.41672	392.675
2011.46859	387.775
2014.51848	389.175
2017.56639	384.575
2020.61233	379.175
2023.6563	379.375
2026.6983	380.775
2029.73833	376.575
2032.7764	379.475
2035.8125	375.975
2038.84664	371.175
2041.87881	372.875
2044.90903	374.975
2047.93729	375.075
2050.96359	366.075
2053.98794	371.275
2057.01034	366.175
2060.03078	369.175
2063.04927	366.975
2066.06582	363.875
2069.08042	361.575
2072.09307	361.675
2075.10378	366.475
2078.11255	366.075
2081.11938	360.875
2084.12426	358.875
2087.12722	358.575
2090.12824	360.875
2093.12732	366.675
2096.12447	361.175
2099.11969	352.775
2102.11299	360.975
2105.10435	359.375
2108.09379	361.675
2111.08131	360.575
2114.0669	358.375
2117.05057	365.375
2120.03233	362.175
2123.01216	361.775
2125.99008	356.975
2128.96609	360.275
2131.94018	358.075
2134.91236	352.975
2137.88263	355.775
2140.851	354.375
2143.81746	353.775
2146.78201	353.375
2149.74466	358.375
2152.7054	352.275
2155.66425	350.575
2158.6212	348.575
2161.57625	350.675
2164.52941	348.975
2167.48067	346.475
2170.43004	346.775
2173.37752	345.475
2176.32311	344.475
2179.26681	340.275
2182.20863	342.975
2185.14856	345.575
2188.08661	345.575
2191.02278	344.775
2193.95707	343.675
2196.88948	339.775
2199.82001	336.575
2202.74867	335.375
2205.67545	335.075
2208.60037	336.775
2211.52341	334.075
2214.44458	328.775
2217.36388	333.875
2220.28132	331.175
2223.1969	330.575
2226.11061	327.275
2229.02246	329.975
2231.93245	327.975
2234.84058	328.175
2237.74686	330.475
2240.65128	321.975
2243.55385	321.975
2246.45456	319.375
2249.35343	318.375
2252.25044	319.975
2255.14561	319.775
2258.03893	319.575
2260.93041	310.875
2263.82004	315.975
2266.70783	316.575
2269.59378	311.375
2272.4779	309.375
2275.36017	313.175
2278.24061	305.275
2281.11922	311.475
2283.996	303.575
2286.87094	308.375
2289.74405	310.175
2292.61534	306.575
2295.4848	306.675
2298.35243	299.375
2301.21824	303.975
2304.08223	298.675
2306.94439	297.775
2309.80474	303.075
2312.66327	299.675
2315.51999	303.975
2318.37489	296.375
2321.22797	299.275
2324.07925	299.575
2326.92871	291.575
2329.77637	301.575
2332.62222	301.175
2335.46626	297.475
2338.3085	289.075
2341.14893	293.675
2343.98756	284.575
2346.8244	291.675
2349.65943	289.675
2352.49267	283.475
2355.32411	288.475
2358.15376	291.475
2360.98161	284.675
2363.80768	282.275
2366.63195	285.775
2369.45444	284.475
2372.27514	285.175
2375.09405	280.175
2377.91118	289.475
2380.72652	282.975
2383.54009	280.475
2386.35187	281.875
2389.16188	281.775
2391.97011	279.575
2394.77657	279.375
2397.58125	281.275
2400.38416	277.875
2403.18529	276.375
2405.98466	274.475
2408.78226	276.775
2411.57809	277.075
2414.37216	277.075
2417.16446	278.575
2419.955	278.475
2422.74378	277.975
2425.5308	276.175
2428.31606	284.675
2431.09956	282.475
2433.88131	274.975
2436.6613	273.675
2439.43954	274.175
2442.21603	269.375
2444.99077	269.975
2447.76377	272.775
2450.53501	268.875
2453.30451	266.475
2456.07226	259.675
2458.83827	259.075
2461.60254	265.475
2464.36507	261.075
2467.12586	260.175
2469.88492	260.275
2472.64224	251.475
2475.39782	261.975
2478.15167	257.475
2480.90379	254.175
2483.65417	255.175
2486.40283	256.575
2489.14976	255.775
2491.89497	251.875
2494.63845	255.175
2497.3802	256.175
2500.12024	256.975
2502.85855	260.675
2505.59514	252.475
2508.33002	255.075
2511.06318	252.475
2513.79462	250.175
2516.52435	247.075
2519.25237	247.675
2521.97867	245.675
2524.70327	251.675
2527.42616	250.575
2530.14734	246.275
2532.86681	245.875
2535.58458	245.375
2538.30065	246.375
2541.01501	243.875
2543.72768	240.875
2546.43864	247.675
2549.14791	241.775
2551.85548	242.275
2554.56136	242.675
2557.26554	240.075
2559.96803	241.875
2562.66883	243.275
2565.36794	238.275
2568.06536	240.275
2570.7611	237.975
2573.45514	235.575
2576.14751	233.075
2578.83819	232.175
2581.52719	236.775
2584.21451	234.775
2586.90015	231.275
2589.58411	234.175
2592.2664	233.675
2594.94701	233.975
2597.62594	232.475
2600.30321	228.275
2602.9788	231.575
2605.65273	235.375
2608.32498	229.675
2610.99557	233.875
2613.66449	224.375
2616.33175	226.175
2618.99734	228.575
2621.66128	222.875
2624.32355	226.275
2626.98416	224.375
2629.64311	226.575
2632.30041	223.375
2634.95605	223.375
2637.61004	225.775
2640.26238	223.575
2642.91306	221.675
2645.56209	220.975
2648.20948	222.575
2650.85521	222.175
2653.4993	222.275
2656.14175	225.375
2658.78255	219.575
2661.42171	222.575
2664.05923	219.275
2666.6951	218.075
2669.32934	222.175
2671.96194	221.675
2674.59291	223.475
2677.22224	218.275
2679.84993	222.275
2682.476	225.975
2685.10043	220.975
2687.72324	220.275
2690.34441	221.475
2692.96396	226.075
2695.58188	221.775
2698.19818	221.275
2700.81285	224.075
2703.4259	230.375
2706.03733	226.975
2708.64714	227.075
2711.25533	232.575
2713.86191	228.975
2716.46687	232.575
2719.07021	226.075
2721.67194	233.375
2724.27206	229.275
2726.87057	235.775
2729.46747	241.175
2732.06276	238.975
2734.65644	243.575
2737.24852	239.275
2739.83899	238.475
2742.42786	239.675
2745.01513	234.475
2747.60079	236.375
2750.18486	234.875
2752.76733	233.675
2755.3482	228.075
2757.92747	233.775
2760.50515	234.075
2763.08123	230.675
2765.65573	228.275
2768.22863	226.475
2770.79994	224.375
2773.36967	230.475
2775.9378	230.175
2778.50435	228.075
2781.06932	224.175
2783.6327	231.275
2786.1945	228.175
2788.75471	227.875
2791.31335	225.575
2793.87041	226.075
2796.42589	227.275
2798.97979	223.675
2801.53212	226.075
2804.08288	223.075
2806.63206	227.075
2809.17967	229.575
2811.72571	229.575
2814.27018	227.375
2816.81308	232.475
2819.35442	229.175
2821.89419	236.375
2824.43239	241.075
2826.96904	246.375
2829.50412	243.475
2832.03763	260.075
2834.56959	276.775
2837.1	305.175
2839.62884	337.275
2842.15613	397.075
2844.68186	462.875
2847.20604	512.775
2849.72867	545.575
2852.24974	556.575
2854.76927	556.575
2857.28724	557.575
2859.80367	560.775
2862.31855	549.875
2864.83189	550.775
2867.34368	555.675
2869.85393	559.675
2872.36264	580.575
2874.8698	607.175
2877.37543	610.975
2879.87952	593.875
2882.38207	575.075
2884.88308	559.575
2887.38256	543.075
2889.88051	536.975
2892.37692	534.575
2894.8718	543.375
2897.36515	553.375
2899.85698	565.475
2902.34727	575.475
2904.83604	582.575
2907.32328	590.075
2909.809	602.575
2912.29319	593.975
2914.77587	584.775
2917.25702	570.475
2919.73665	555.175
2922.21476	541.375
2924.69136	543.475
2927.16644	540.975
2929.64	540.375
2932.11205	546.075
2934.58258	549.275
2937.05161	546.375
2939.51912	545.275
2941.98513	517.575
2944.44962	487.075
2946.91261	451.675
2949.37409	421.275
2951.83407	404.475
2954.29254	390.375
2956.74951	387.975
2959.20498	392.475
2961.65895	398.775
2964.11142	400.075
2966.56239	393.575
2969.01186	389.175
2971.45984	367.775
2973.90632	359.175
2976.35131	340.075
2978.7948	324.575
2981.23681	311.075
2983.67732	304.475
2986.11635	288.075
2988.55388	288.875
2990.98993	277.275
2993.4245	271.975
2995.85758	269.475
2998.28917	263.375
3000.71928	265.575
3003.14791	267.775
3005.57506	261.375
3008.00073	261.475
3010.42493	259.975
3012.84764	257.075
3015.26888	262.675
3017.68865	262.475
3020.10694	262.875
3022.52376	264.575
3024.9391	267.275
3027.35298	265.175
3029.76539	263.875
3032.17632	268.375
3034.5858	268.975
3036.9938	270.675
3039.40034	277.075
3041.80542	275.875
3044.20903	277.475
3046.61118	274.675
3049.01187	284.475
3051.4111	284.775
3053.80888	280.375
3056.20519	289.675
3058.60005	291.875
3060.99345	297.375
3063.3854	293.875
3065.7759	302.875
3068.16494	303.275
3070.55254	305.675
3072.93868	305.175
3075.32338	313.175
3077.70662	315.275
3080.08842	320.675
3082.46878	320.175
3084.84769	324.075
3087.22515	319.275
3089.60118	329.275
3091.97576	333.575
3094.3489	337.875
3096.72061	340.575
3099.09087	345.075
3101.4597	352.075
3103.82709	354.475
3106.19305	358.575
3108.55757	366.675
3110.92066	369.975
3113.28232	379.375
3115.64255	378.075
3118.00134	378.675
3120.35871	383.075
3122.71466	391.275
3125.06917	396.575
3127.42226	404.175
3129.77393	407.475
3132.12417	412.475
3134.47299	411.675
3136.82039	418.575
3139.16636	423.975
3141.51092	436.775
3143.85406	438.175
3146.19579	448.375
3148.53609	445.675
3150.87499	454.075
3153.21246	465.675
3155.54853	478.375
3157.88318	474.875
3160.21642	488.575
3162.54826	493.275
3164.87868	490.275
3167.2077	502.775
3169.5353	506.375
3171.86151	509.675
3174.18631	525.475
3176.5097	524.575
3178.83169	531.375
3181.15228	531.475
3183.47147	531.375
3185.78926	546.475
3188.10565	546.475
3190.42065	547.775
3192.73424	553.875
3195.04645	557.275
3197.35725	561.675
3199.66667	569.675
3201.97469	573.075
3204.28132	575.775
3206.58656	582.775
3208.8904	581.275
3211.19287	590.475
3213.49394	595.975
3215.79363	598.075
3218.09193	606.875
3220.38884	604.175
3222.68438	606.975
3224.97853	609.575
3227.2713	610.775
3229.56269	615.475
3231.8527	616.475
3234.14133	614.475
3236.42858	617.675
3238.71446	617.175
3240.99896	616.775
3243.28209	617.575
3245.56384	616.075
3247.84423	620.875
3250.12324	617.975
3252.40088	619.575
3254.67715	623.575
3256.95205	622.675
3259.22558	618.975
3261.49775	626.575
3263.76855	626.575
3266.03799	630.475
3268.30606	628.475
3270.57277	620.175
3272.83812	624.075
3275.10211	626.775
3277.36474	624.375
3279.62601	626.275
3281.88593	624.575
3284.14448	623.275
3286.40168	623.975
3288.65753	623.275
3290.91202	623.575
3293.16516	618.875
3295.41695	627.975
3297.66738	620.275
3299.91647	621.175
3302.16421	610.575
3304.4106	610.075
3306.65564	616.675
3308.89933	609.975
3311.14169	603.275
3313.38269	603.475
3315.62236	594.875
3317.86068	598.375
3320.09766	597.675
3322.3333	597.675
3324.5676	590.675
3326.80056	580.675
3329.03219	586.975
3331.26248	0.075
3333.49143	-0.225
3335.71905	-0.525
