Data from AgNPs_APTES_FTO_Ket_100uM_NaF_0.1M_RamanShift__2__10-41-26-164.txt Node

Date: Tue Jun 14 10:41:26 BST 2022
User: TCL
Spectrometer: QEP01345
Trigger mode: 4
Integration Time (sec): 7.000000E0
Scans to average: 10
Electric dark correction enabled: true
Nonlinearity correction enabled: false
Boxcar width: 0
XAxis mode: Raman Shifts
Number of Pixels in Spectrum: 1044
>>>>>Begin Spectral Data<<<<<
46.04893	1.2375
50.45542	-0.1625
54.85868	-0.3625
59.25871	-0.1625
63.6555	27.2375
68.04907	31.3375
72.43941	34.8375
76.82654	40.0375
81.21044	39.7375
85.59113	42.5375
89.96862	44.0375
94.34289	46.1375
98.71396	50.2375
103.08183	51.0375
107.4465	50.6375
111.80798	50.8375
116.16626	46.6375
120.52136	46.3375
124.87327	50.1375
129.222	52.2375
133.56755	48.8375
137.90993	44.7375
142.24913	44.6375
146.58517	46.2375
150.91804	42.1375
155.24774	46.6375
159.57429	47.4375
163.89768	48.9375
168.21792	54.4375
172.53501	57.8375
176.84895	70.4375
181.15975	85.1375
185.46741	110.2375
189.77193	135.2375
194.07331	168.7375
198.37157	210.1375
202.6667	252.5375
206.9587	292.9375
211.24758	330.9375
215.53334	362.7375
219.81599	400.2375
224.09553	435.2375
228.37195	485.5375
232.64527	539.6375
236.91549	591.6375
241.18261	648.4375
245.44663	718.4375
249.70755	769.6375
253.96539	840.4375
258.22014	901.8375
262.4718	957.7375
266.72039	995.7375
270.96589	1029.8375
275.20832	1069.3375
279.44768	1096.9375
283.68397	1124.8375
287.91719	1133.3375
292.14735	1125.9375
296.37445	1083.6375
300.59849	1027.1375
304.81948	944.0375
309.03742	887.5375
313.25231	857.2375
317.46415	830.6375
321.67296	825.1375
325.87872	816.9375
330.08145	814.1375
334.28114	812.6375
338.47781	817.3375
342.67145	821.8375
346.86207	825.3375
351.04966	840.2375
355.23424	843.9375
359.4158	847.9375
363.59435	850.6375
367.76989	867.9375
371.94243	883.3375
376.11196	902.2375
380.27849	906.4375
384.44203	900.8375
388.60257	903.2375
392.76012	900.0375
396.91468	899.1375
401.06626	907.9375
405.21485	912.9375
409.36047	917.6375
413.50311	940.1375
417.64277	961.5375
421.77947	978.6375
425.9132	970.8375
430.04396	970.4375
434.17176	963.4375
438.2966	974.4375
442.41849	984.9375
446.53742	993.4375
450.6534	1005.2375
454.76644	1034.5375
458.87653	1060.8375
462.98368	1061.4375
467.08789	1031.1375
471.18916	1008.9375
475.2875	1015.7375
479.38291	1014.3375
483.4754	1017.8375
487.56496	1031.0375
491.6516	1041.1375
495.73531	1041.8375
499.81612	1023.5375
503.89401	1001.6375
507.96899	986.1375
512.04106	987.2375
516.11023	980.2375
520.1765	971.6375
524.23987	970.6375
528.30034	971.7375
532.35792	967.4375
536.41261	963.5375
540.46441	962.7375
544.51333	970.8375
548.55936	969.8375
552.60252	963.9375
556.64279	965.6375
560.6802	957.6375
564.71473	960.4375
568.7464	949.2375
572.7752	954.5375
576.80114	955.9375
580.82422	965.1375
584.84444	954.9375
588.86181	957.3375
592.87633	962.0375
596.888	954.7375
600.89682	966.5375
604.9028	955.4375
608.90594	959.3375
612.90624	973.4375
616.90371	965.1375
620.89834	959.9375
624.89015	962.4375
628.87913	959.9375
632.86528	959.1375
636.84862	960.6375
640.82913	964.7375
644.80683	961.0375
648.78172	963.9375
652.75379	964.6375
656.72306	962.7375
660.68952	972.1375
664.65319	974.9375
668.61405	976.6375
672.57211	975.2375
676.52738	972.7375
680.47986	981.6375
684.42955	974.9375
688.37646	989.6375
692.32058	992.2375
696.26192	1001.9375
700.20048	1016.7375
704.13626	1032.3375
708.06928	1040.7375
711.99952	1043.0375
715.927	1031.6375
719.85171	1019.0375
723.77365	997.7375
727.69284	997.7375
731.60928	991.4375
735.52295	989.3375
739.43388	985.7375
743.34206	983.9375
747.24749	979.4375
751.15017	973.3375
755.05012	984.3375
758.94733	975.3375
762.8418	981.7375
766.73354	978.4375
770.62254	983.4375
774.50882	980.0375
778.39237	982.4375
782.27321	982.1375
786.15132	980.3375
790.02671	972.3375
793.89938	969.0375
797.76935	971.4375
801.6366	967.0375
805.50115	970.1375
809.36299	964.6375
813.22213	971.3375
817.07857	973.3375
820.93231	978.5375
824.78336	978.1375
828.63172	982.5375
832.47738	972.7375
836.32036	976.3375
840.16066	981.3375
843.99827	989.4375
847.8332	987.7375
851.66546	992.0375
855.49504	987.4375
859.32195	982.8375
863.1462	974.2375
866.96777	974.9375
870.78668	971.7375
874.60293	981.8375
878.41652	989.4375
882.22745	1004.9375
886.03573	1057.5375
889.84136	1130.7375
893.64433	1135.9375
897.44466	1059.0375
901.24235	1000.6375
905.0374	974.7375
908.8298	972.8375
912.61957	978.2375
916.40671	1004.8375
920.19121	1035.0375
923.97308	1110.7375
927.75233	1167.5375
931.52895	1187.2375
935.30295	1129.0375
939.07433	1059.8375
942.84309	1000.5375
946.60924	957.2375
950.37278	938.1375
954.13371	928.2375
957.89203	925.6375
961.64774	922.4375
965.40086	926.7375
969.15137	909.6375
972.89929	916.8375
976.64461	915.9375
980.38733	904.3375
984.12747	900.5375
987.86502	909.6375
991.59999	902.0375
995.33237	899.4375
999.06217	900.5375
1002.78939	913.8375
1006.51404	926.2375
1010.23611	923.3375
1013.95561	940.8375
1017.67255	924.8375
1021.38692	918.7375
1025.09872	923.7375
1028.80796	938.5375
1032.51465	927.1375
1036.21877	925.5375
1039.92035	921.4375
1043.61937	930.1375
1047.31584	949.7375
1051.00976	972.0375
1054.70114	978.7375
1058.38998	1005.8375
1062.07627	1073.5375
1065.76003	1084.6375
1069.44126	1017.2375
1073.11995	946.2375
1076.79611	931.3375
1080.46974	917.8375
1084.14085	920.1375
1087.80943	925.3375
1091.47549	949.7375
1095.13903	1006.3375
1098.80005	1097.9375
1102.45857	1128.3375
1106.11456	1081.5375
1109.76805	993.1375
1113.41903	941.2375
1117.06751	933.6375
1120.71348	975.6375
1124.35696	1094.9375
1127.99793	1341.8375
1131.63641	1528.8375
1135.2724	1289.6375
1138.90589	998.5375
1142.5369	899.0375
1146.16542	872.3375
1149.79145	854.1375
1153.415	843.0375
1157.03607	839.4375
1160.65467	834.7375
1164.27079	840.5375
1167.88443	833.3375
1171.49561	834.7375
1175.10432	830.0375
1178.71056	835.0375
1182.31434	836.1375
1185.91565	826.3375
1189.51451	822.4375
1193.11091	826.9375
1196.70485	823.9375
1200.29634	824.5375
1203.88538	827.3375
1207.47197	818.5375
1211.05612	822.5375
1214.63782	822.1375
1218.21708	823.2375
1221.79391	817.3375
1225.36829	810.8375
1228.94024	809.0375
1232.50976	805.1375
1236.07685	808.0375
1239.6415	806.8375
1243.20374	813.9375
1246.76355	819.3375
1250.32093	820.4375
1253.8759	807.7375
1257.42845	812.0375
1260.97859	814.7375
1264.52631	812.7375
1268.07163	803.9375
1271.61453	810.1375
1275.15503	807.7375
1278.69312	805.5375
1282.22882	817.1375
1285.76211	820.7375
1289.29301	829.7375
1292.82151	856.2375
1296.34761	912.4375
1299.87133	917.7375
1303.39266	862.6375
1306.9116	833.2375
1310.42815	825.0375
1313.94233	816.7375
1317.45412	820.5375
1320.96354	812.3375
1324.47058	807.5375
1327.97525	800.5375
1331.47754	785.0375
1334.97747	795.3375
1338.47502	789.1375
1341.97022	788.8375
1345.46305	785.5375
1348.95352	794.5375
1352.44163	789.2375
1355.92738	794.3375
1359.41078	796.0375
1362.89183	798.8375
1366.37053	812.1375
1369.84688	829.5375
1373.32088	839.4375
1376.79254	850.9375
1380.26186	872.1375
1383.72883	902.3375
1387.19347	923.1375
1390.65578	953.6375
1394.11575	999.3375
1397.57339	1057.1375
1401.0287	1098.7375
1404.48168	1121.6375
1407.93234	1117.3375
1411.38068	1068.1375
1414.82669	1041.2375
1418.27039	1003.5375
1421.71177	970.9375
1425.15083	932.1375
1428.58758	903.9375
1432.02203	894.5375
1435.45416	887.8375
1438.88399	877.0375
1442.31151	861.9375
1445.73673	833.7375
1449.15965	808.2375
1452.58027	791.6375
1455.9986	782.6375
1459.41463	777.3375
1462.82837	779.1375
1466.23982	761.9375
1469.64898	751.6375
1473.05586	718.5375
1476.46045	692.9375
1479.86276	678.1375
1483.26279	675.1375
1486.66054	663.3375
1490.05602	652.2375
1493.44922	646.0375
1496.84016	645.0375
1500.22882	643.6375
1503.61521	647.9375
1506.99934	635.3375
1510.38121	634.1375
1513.76081	641.6375
1517.13816	643.5375
1520.51324	631.7375
1523.88607	632.3375
1527.25665	637.3375
1530.62498	631.7375
1533.99105	636.6375
1537.35488	634.3375
1540.71647	636.7375
1544.07581	632.7375
1547.4329	630.4375
1550.78776	627.9375
1554.14038	638.8375
1557.49077	633.5375
1560.83892	638.8375
1564.18484	625.2375
1567.52853	630.2375
1570.86999	623.2375
1574.20922	622.9375
1577.54624	630.0375
1580.88103	631.7375
1584.2136	630.2375
1587.54395	625.5375
1590.87208	632.4375
1594.19801	622.2375
1597.52172	640.1375
1600.84321	633.1375
1604.16251	639.3375
1607.47959	638.3375
1610.79447	637.3375
1614.10715	635.0375
1617.41763	632.5375
1620.7259	622.4375
1624.03199	620.7375
1627.33587	617.7375
1630.63757	618.7375
1633.93707	612.1375
1637.23439	611.0375
1640.52951	615.1375
1643.82246	613.2375
1647.11321	602.5375
1650.40179	603.4375
1653.68819	604.2375
1656.97241	594.9375
1660.25446	596.6375
1663.53433	607.3375
1666.81203	589.0375
1670.08756	580.7375
1673.36092	578.2375
1676.63211	569.9375
1679.90115	570.7375
1683.16801	560.1375
1686.43272	558.6375
1689.69527	556.3375
1692.95567	557.2375
1696.2139	563.9375
1699.46999	572.4375
1702.72392	572.1375
1705.97571	557.5375
1709.22535	541.6375
1712.47284	540.4375
1715.71819	536.2375
1718.96139	529.1375
1722.20246	529.6375
1725.44139	522.1375
1728.67818	518.5375
1731.91284	515.4375
1735.14537	516.8375
1738.37576	518.3375
1741.60403	512.0375
1744.83017	510.9375
1748.05418	512.7375
1751.27607	511.2375
1754.49584	507.2375
1757.71349	515.7375
1760.92903	509.2375
1764.14244	509.0375
1767.35375	513.2375
1770.56294	516.7375
1773.77002	503.5375
1776.97499	501.4375
1780.17785	483.9375
1783.37861	484.5375
1786.57727	484.7375
1789.77382	481.3375
1792.96828	478.9375
1796.16064	482.9375
1799.3509	476.6375
1802.53907	475.3375
1805.72514	471.6375
1808.90913	462.8375
1812.09102	471.5375
1815.27083	463.7375
1818.44856	467.4375
1821.6242	464.7375
1824.79776	456.6375
1827.96924	459.5375
1831.13864	452.8375
1834.30597	457.3375
1837.47122	458.2375
1840.6344	457.5375
1843.7955	453.6375
1846.95454	449.3375
1850.11151	450.0375
1853.26642	444.3375
1856.41926	440.4375
1859.57004	446.7375
1862.71876	445.7375
1865.86542	450.0375
1869.01003	442.6375
1872.15258	435.5375
1875.29308	443.4375
1878.43152	440.1375
1881.56792	443.4375
1884.70227	431.8375
1887.83457	435.6375
1890.96482	431.3375
1894.09304	429.2375
1897.21921	428.6375
1900.34335	426.3375
1903.46544	430.4375
1906.58551	426.5375
1909.70353	424.3375
1912.81953	432.2375
1915.93349	421.8375
1919.04543	425.8375
1922.15534	419.3375
1925.26322	414.6375
1928.36908	416.6375
1931.47292	416.6375
1934.57473	410.3375
1937.67453	416.4375
1940.77232	415.4375
1943.86808	412.7375
1946.96184	404.5375
1950.05358	400.4375
1953.14331	407.1375
1956.23103	405.4375
1959.31675	400.2375
1962.40046	398.1375
1965.48217	401.5375
1968.56188	395.6375
1971.63959	393.6375
1974.7153	392.3375
1977.78901	394.2375
1980.86073	388.6375
1983.93046	387.0375
1986.99819	385.0375
1990.06394	393.0375
1993.1277	381.3375
1996.18947	378.5375
1999.24925	377.9375
2002.30706	381.2375
2005.36288	376.5375
2008.41672	374.5375
2011.46859	373.9375
2014.51848	369.1375
2017.56639	376.1375
2020.61233	371.5375
2023.6563	367.1375
2026.6983	367.3375
2029.73833	367.8375
2032.7764	361.0375
2035.8125	359.8375
2038.84664	359.5375
2041.87881	366.1375
2044.90903	360.6375
2047.93729	363.9375
2050.96359	355.6375
2053.98794	359.0375
2057.01034	355.0375
2060.03078	353.2375
2063.04927	353.1375
2066.06582	354.4375
2069.08042	348.9375
2072.09307	358.0375
2075.10378	352.6375
2078.11255	350.7375
2081.11938	353.5375
2084.12426	351.3375
2087.12722	345.4375
2090.12824	349.7375
2093.12732	348.1375
2096.12447	345.7375
2099.11969	347.1375
2102.11299	346.3375
2105.10435	348.8375
2108.09379	348.6375
2111.08131	347.7375
2114.0669	350.4375
2117.05057	349.9375
2120.03233	346.7375
2123.01216	347.0375
2125.99008	345.3375
2128.96609	348.2375
2131.94018	343.7375
2134.91236	344.6375
2137.88263	344.1375
2140.851	344.1375
2143.81746	344.7375
2146.78201	337.7375
2149.74466	341.2375
2152.7054	340.8375
2155.66425	337.8375
2158.6212	335.3375
2161.57625	340.2375
2164.52941	337.7375
2167.48067	340.1375
2170.43004	333.1375
2173.37752	334.0375
2176.32311	330.5375
2179.26681	328.6375
2182.20863	331.6375
2185.14856	334.1375
2188.08661	329.1375
2191.02278	333.8375
2193.95707	330.2375
2196.88948	330.6375
2199.82001	326.6375
2202.74867	329.1375
2205.67545	322.0375
2208.60037	317.9375
2211.52341	323.1375
2214.44458	319.5375
2217.36388	320.1375
2220.28132	318.1375
2223.1969	322.9375
2226.11061	315.8375
2229.02246	318.2375
2231.93245	314.4375
2234.84058	313.8375
2237.74686	310.1375
2240.65128	312.7375
2243.55385	309.9375
2246.45456	307.5375
2249.35343	306.3375
2252.25044	307.3375
2255.14561	306.1375
2258.03893	306.9375
2260.93041	306.9375
2263.82004	304.6375
2266.70783	304.8375
2269.59378	301.8375
2272.4779	304.8375
2275.36017	299.6375
2278.24061	294.5375
2281.11922	288.7375
2283.996	296.9375
2286.87094	297.9375
2289.74405	294.7375
2292.61534	288.4375
2295.4848	291.6375
2298.35243	288.4375
2301.21824	293.8375
2304.08223	287.5375
2306.94439	287.3375
2309.80474	288.8375
2312.66327	288.8375
2315.51999	288.2375
2318.37489	292.5375
2321.22797	292.7375
2324.07925	288.6375
2326.92871	286.9375
2329.77637	287.9375
2332.62222	290.7375
2335.46626	286.3375
2338.3085	286.9375
2341.14893	280.9375
2343.98756	279.3375
2346.8244	278.2375
2349.65943	276.2375
2352.49267	276.3375
2355.32411	275.6375
2358.15376	275.2375
2360.98161	277.6375
2363.80768	269.9375
2366.63195	273.3375
2369.45444	274.3375
2372.27514	269.5375
2375.09405	272.8375
2377.91118	270.8375
2380.72652	271.0375
2383.54009	269.7375
2386.35187	275.5375
2389.16188	273.0375
2391.97011	274.3375
2394.77657	265.4375
2397.58125	268.7375
2400.38416	268.2375
2403.18529	267.4375
2405.98466	266.2375
2408.78226	265.9375
2411.57809	267.8375
2414.37216	261.9375
2417.16446	266.2375
2419.955	263.8375
2422.74378	266.8375
2425.5308	267.3375
2428.31606	276.9375
2431.09956	277.9375
2433.88131	262.0375
2436.6613	265.1375
2439.43954	266.2375
2442.21603	265.1375
2444.99077	260.9375
2447.76377	259.3375
2450.53501	253.4375
2453.30451	256.8375
2456.07226	253.5375
2458.83827	251.5375
2461.60254	253.6375
2464.36507	253.3375
2467.12586	252.8375
2469.88492	249.6375
2472.64224	243.8375
2475.39782	251.5375
2478.15167	251.7375
2480.90379	246.1375
2483.65417	250.0375
2486.40283	244.9375
2489.14976	245.1375
2491.89497	244.8375
2494.63845	250.5375
2497.3802	245.0375
2500.12024	249.1375
2502.85855	240.1375
2505.59514	242.5375
2508.33002	243.4375
2511.06318	243.9375
2513.79462	246.1375
2516.52435	240.5375
2519.25237	236.0375
2521.97867	241.6375
2524.70327	235.8375
2527.42616	237.3375
2530.14734	237.4375
2532.86681	235.2375
2535.58458	233.9375
2538.30065	236.6375
2541.01501	235.2375
2543.72768	232.3375
2546.43864	233.0375
2549.14791	234.2375
2551.85548	236.5375
2554.56136	229.7375
2557.26554	233.3375
2559.96803	232.2375
2562.66883	227.4375
2565.36794	231.7375
2568.06536	228.3375
2570.7611	229.9375
2573.45514	228.7375
2576.14751	225.8375
2578.83819	226.7375
2581.52719	226.4375
2584.21451	226.1375
2586.90015	227.3375
2589.58411	221.5375
2592.2664	227.8375
2594.94701	226.5375
2597.62594	226.4375
2600.30321	224.2375
2602.9788	222.2375
2605.65273	226.5375
2608.32498	218.1375
2610.99557	221.9375
2613.66449	220.0375
2616.33175	221.4375
2618.99734	219.1375
2621.66128	216.1375
2624.32355	216.6375
2626.98416	221.7375
2629.64311	217.3375
2632.30041	216.9375
2634.95605	214.9375
2637.61004	216.3375
2640.26238	216.4375
2642.91306	217.8375
2645.56209	217.8375
2648.20948	213.7375
2650.85521	215.8375
2653.4993	214.0375
2656.14175	217.2375
2658.78255	215.6375
2661.42171	211.6375
2664.05923	216.4375
2666.6951	216.2375
2669.32934	214.1375
2671.96194	216.4375
2674.59291	215.8375
2677.22224	214.6375
2679.84993	213.9375
2682.476	215.5375
2685.10043	216.8375
2687.72324	216.9375
2690.34441	208.1375
2692.96396	216.8375
2695.58188	218.3375
2698.19818	214.3375
2700.81285	212.5375
2703.4259	216.5375
2706.03733	226.3375
2708.64714	224.3375
2711.25533	219.3375
2713.86191	220.2375
2716.46687	220.0375
2719.07021	222.9375
2721.67194	223.1375
2724.27206	222.5375
2726.87057	227.7375
2729.46747	232.0375
2732.06276	230.3375
2734.65644	234.5375
2737.24852	229.7375
2739.83899	227.5375
2742.42786	229.2375
2745.01513	231.7375
2747.60079	229.0375
2750.18486	221.1375
2752.76733	223.5375
2755.3482	218.9375
2757.92747	221.4375
2760.50515	223.6375
2763.08123	218.9375
2765.65573	219.3375
2768.22863	216.2375
2770.79994	219.9375
2773.36967	219.2375
2775.9378	221.9375
2778.50435	219.4375
2781.06932	217.5375
2783.6327	223.0375
2786.1945	217.7375
2788.75471	216.8375
2791.31335	219.9375
2793.87041	219.2375
2796.42589	217.1375
2798.97979	218.6375
2801.53212	213.2375
2804.08288	219.9375
2806.63206	221.5375
2809.17967	223.2375
2811.72571	220.1375
2814.27018	222.4375
2816.81308	222.7375
2819.35442	223.7375
2821.89419	224.6375
2824.43239	225.2375
2826.96904	231.3375
2829.50412	236.5375
2832.03763	249.0375
2834.56959	265.5375
2837.1	285.1375
2839.62884	323.6375
2842.15613	379.2375
2844.68186	443.4375
2847.20604	488.2375
2849.72867	514.0375
2852.24974	522.5375
2854.76927	528.2375
2857.28724	526.8375
2859.80367	526.7375
2862.31855	527.1375
2864.83189	525.6375
2867.34368	516.4375
2869.85393	526.5375
2872.36264	549.7375
2874.8698	575.8375
2877.37543	577.7375
2879.87952	561.1375
2882.38207	546.8375
2884.88308	535.8375
2887.38256	515.8375
2889.88051	507.9375
2892.37692	516.2375
2894.8718	508.7375
2897.36515	521.9375
2899.85698	528.6375
2902.34727	544.5375
2904.83604	560.2375
2907.32328	563.3375
2909.809	564.1375
2912.29319	555.7375
2914.77587	546.4375
2917.25702	539.1375
2919.73665	521.5375
2922.21476	516.5375
2924.69136	509.5375
2927.16644	506.6375
2929.64	511.5375
2932.11205	520.9375
2934.58258	519.4375
2937.05161	526.2375
2939.51912	515.1375
2941.98513	493.6375
2944.44962	464.9375
2946.91261	430.2375
2949.37409	397.5375
2951.83407	384.4375
2954.29254	370.4375
2956.74951	366.2375
2959.20498	377.3375
2961.65895	379.6375
2964.11142	381.4375
2966.56239	380.7375
2969.01186	369.6375
2971.45984	357.0375
2973.90632	341.7375
2976.35131	327.1375
2978.7948	308.5375
2981.23681	299.0375
2983.67732	289.2375
2986.11635	282.4375
2988.55388	275.2375
2990.98993	270.0375
2993.4245	265.8375
2995.85758	265.1375
2998.28917	257.1375
3000.71928	258.9375
3003.14791	256.0375
3005.57506	254.5375
3008.00073	254.9375
3010.42493	253.8375
3012.84764	254.9375
3015.26888	255.0375
3017.68865	250.9375
3020.10694	257.6375
3022.52376	258.5375
3024.9391	260.9375
3027.35298	260.5375
3029.76539	262.3375
3032.17632	262.1375
3034.5858	263.0375
3036.9938	267.9375
3039.40034	272.1375
3041.80542	270.6375
3044.20903	274.0375
3046.61118	275.2375
3049.01187	273.7375
3051.4111	277.2375
3053.80888	286.7375
3056.20519	285.9375
3058.60005	287.7375
3060.99345	288.4375
3063.3854	289.5375
3065.7759	295.2375
3068.16494	302.0375
3070.55254	301.5375
3072.93868	306.8375
3075.32338	307.7375
3077.70662	309.5375
3080.08842	311.4375
3082.46878	314.5375
3084.84769	320.5375
3087.22515	318.4375
3089.60118	328.3375
3091.97576	328.0375
3094.3489	334.3375
3096.72061	338.5375
3099.09087	348.2375
3101.4597	346.1375
3103.82709	346.0375
3106.19305	355.2375
3108.55757	362.5375
3110.92066	363.3375
3113.28232	371.2375
3115.64255	378.9375
3118.00134	377.2375
3120.35871	382.5375
3122.71466	390.9375
3125.06917	398.7375
3127.42226	394.8375
3129.77393	401.9375
3132.12417	408.9375
3134.47299	413.8375
3136.82039	413.8375
3139.16636	426.4375
3141.51092	433.3375
3143.85406	435.7375
3146.19579	442.4375
3148.53609	447.9375
3150.87499	449.8375
3153.21246	461.7375
3155.54853	470.3375
3157.88318	473.1375
3160.21642	484.0375
3162.54826	487.5375
3164.87868	496.0375
3167.2077	499.1375
3169.5353	505.0375
3171.86151	504.2375
3174.18631	514.1375
3176.5097	523.3375
3178.83169	523.9375
3181.15228	528.0375
3183.47147	533.6375
3185.78926	538.9375
3188.10565	539.7375
3190.42065	549.8375
3192.73424	553.9375
3195.04645	566.2375
3197.35725	554.7375
3199.66667	561.8375
3201.97469	572.2375
3204.28132	577.3375
3206.58656	586.5375
3208.8904	583.1375
3211.19287	587.0375
3213.49394	601.7375
3215.79363	595.8375
3218.09193	597.9375
3220.38884	602.5375
3222.68438	602.9375
3224.97853	604.4375
3227.2713	609.4375
3229.56269	614.8375
